FileType=PCF
NHL=14
Date=08/29/17	09:13:37
Facility=APL
Serial=16328-13
Customer=NASA
NP=6
Mach=0.100000
Calibration=1:1
CalPts=490
TstPts=95
PortNumbering=AP Standard
Units=Torr C m/s kg/m^3 deg mm 
Theta[deg]	Phi[deg]	P1[Torr]	P2[Torr]	P3[Torr]	P4[Torr]	P5[Torr]	P6[Torr]	Pt[Torr]	Ps[Abs,Torr]	Ts[C]	
  0.000	  0.000	  4.97883	  2.63814	  2.54527	  2.56325	  2.65558	  0.03832	  4.97577	705.38702	 23.40	
  1.691	128.401	  4.97660	  2.49935	  2.66164	  2.72978	  2.46601	  0.03401	  4.97213	705.34399	 23.40	
  1.692	 77.194	  4.97328	  2.68139	  2.47322	  2.76004	  2.42874	  0.03374	  4.97120	705.33002	 23.40	
  1.699	 26.182	  4.98467	  2.83127	  2.33626	  2.66876	  2.52302	  0.03158	  4.98368	705.35699	 23.40	
  1.699	-26.182	  4.98708	  2.83693	  2.32181	  2.45316	  2.74001	  0.02920	  4.98447	705.29999	 23.40	
  1.692	-77.194	  4.98807	  2.66570	  2.47492	  2.33275	  2.87799	  0.02791	  4.98497	705.27197	 23.40	
  1.691	-128.401	  4.99282	  2.46945	  2.68810	  2.37802	  2.83401	  0.03097	  4.99167	705.31097	 23.40	
  1.700	180.000	  4.99045	  2.40680	  2.77312	  2.56353	  2.63523	  0.03297	  4.98724	705.28302	 23.40	
  3.400	180.000	  4.97431	  2.12384	  3.01948	  2.51381	  2.61367	  0.02491	  4.97656	705.30603	 23.40	
  3.388	-152.325	  4.99263	  2.17482	  2.96962	  2.29646	  2.86136	  0.02046	  4.99823	705.35400	 23.40	
  3.397	-124.529	  4.97487	  2.31044	  2.79058	  2.12362	  3.03869	  0.01395	  4.98282	705.19299	 23.40	
  3.399	-96.763	  4.97215	  2.52227	  2.55739	  2.04519	  3.12656	  0.01030	  4.98265	705.34198	 23.50	
  3.394	-69.283	  4.97282	  2.76013	  2.32205	  2.07223	  3.09363	  0.01118	  4.98285	705.16498	 23.40	
  3.400	-41.398	  4.98031	  2.97140	  2.13850	  2.19846	  2.95404	  0.01558	  4.98904	705.19098	 23.50	
  3.401	-14.021	  4.97552	  3.08972	  2.03578	  2.39185	  2.73571	  0.01631	  4.98422	705.18799	 23.50	
  3.401	 14.021	  4.97448	  3.09360	  2.03874	  2.63145	  2.49165	  0.01788	  4.98157	705.20697	 23.50	
  3.400	 41.398	  5.00172	  2.99795	  2.14989	  2.86800	  2.30296	  0.02320	  5.00638	705.18103	 23.40	
  3.394	 69.283	  4.98986	  2.78629	  2.33199	  2.99920	  2.18297	  0.01520	  4.99357	705.25403	 23.40	
  3.399	 96.763	  4.99152	  2.55103	  2.56222	  3.03132	  2.16216	  0.01727	  4.99597	705.30200	 23.40	
  3.397	124.529	  4.98028	  2.33459	  2.78689	  2.93742	  2.22810	  0.01861	  4.98269	705.26801	 23.40	
  3.388	152.325	  4.98458	  2.19287	  2.96020	  2.75439	  2.39145	  0.02129	  4.98596	705.17297	 23.40	
  5.099	161.165	  4.97658	  1.89287	  3.23431	  2.74323	  2.34778	  0.00637	  4.99926	705.29999	 23.40	
  5.109	142.013	  4.97661	  2.00574	  3.10249	  2.97579	  2.13540	  0.00379	  5.00207	705.19800	 23.40	
  5.095	123.033	  4.98295	  2.18140	  2.90555	  3.15466	  1.98748	  0.00094	  5.00372	705.22900	 23.40	
  5.105	104.191	  4.96902	  2.39145	  2.65692	  3.25451	  1.88997	 -0.00420	  4.98822	705.33002	 23.40	
  5.093	 85.207	  4.97752	  2.64422	  2.40667	  3.28110	  1.87525	 -0.00397	  4.99798	705.28302	 23.40	
  5.104	 66.290	  4.95763	  2.88197	  2.15970	  3.20423	  1.91547	 -0.00420	  4.98163	705.35400	 23.40	
  5.094	 47.331	  4.95898	  3.10044	  1.96118	  3.05587	  2.04029	 -0.00145	  4.98687	705.42902	 23.40	
  5.089	 28.397	  4.95436	  3.25767	  1.81954	  2.84690	  2.22478	  0.00068	  4.98626	705.45502	 23.40	
  5.096	  9.576	  4.96148	  3.34766	  1.74948	  2.60800	  2.45879	 -0.00234	  4.99623	705.35699	 23.40	
  5.096	 -9.576	  4.96592	  3.34637	  1.74902	  2.35474	  2.71750	 -0.00192	  5.00277	705.40198	 23.40	
  5.089	-28.397	  4.94344	  3.23874	  1.82022	  2.12031	  2.94650	 -0.00305	  4.98176	705.49902	 23.40	
  5.094	-47.331	  4.95248	  3.07966	  1.96528	  1.93919	  3.16182	 -0.00551	  4.99239	705.29102	 23.50	
  5.104	-66.290	  4.94914	  2.85801	  2.16314	  1.81030	  3.31154	 -0.01167	  4.98925	705.42603	 23.50	
  5.093	-85.207	  4.95794	  2.61292	  2.40703	  1.75794	  3.38329	 -0.01377	  4.99786	705.39502	 23.40	
  5.105	-104.191	  4.95964	  2.36332	  2.66603	  1.77629	  3.36350	 -0.01101	  5.00061	705.23798	 23.40	
  5.095	-123.033	  4.96858	  2.15127	  2.90942	  1.87314	  3.25861	 -0.00474	  5.00393	705.50800	 23.40	
  5.109	-142.013	  4.96355	  1.97708	  3.10363	  2.03064	  3.07137	 -0.00016	  4.99638	705.32599	 23.40	
  5.099	-161.165	  4.95613	  1.86956	  3.22652	  2.24090	  2.83410	  0.00767	  4.98214	705.39801	 23.40	
  5.100	180.000	  4.96274	  1.84216	  3.27275	  2.48488	  2.58626	  0.00794	  4.98756	705.43701	 23.40	
  6.800	180.000	  4.93884	  1.55568	  3.52002	  2.44563	  2.54918	 -0.01654	  5.00413	705.42700	 23.40	
  6.796	-166.229	  4.92028	  1.56753	  3.47688	  2.19551	  2.78855	 -0.01618	  4.98845	705.36200	 23.40	
  6.808	-152.311	  4.91544	  1.63906	  3.38256	  1.97189	  3.02710	 -0.02056	  4.98800	705.43201	 23.40	
  6.795	-138.383	  4.91714	  1.76347	  3.23159	  1.77611	  3.24684	 -0.02769	  4.99446	705.42401	 23.40	
  6.792	-124.591	  4.89854	  1.92606	  3.02301	  1.61935	  3.41041	 -0.03318	  4.97905	705.36200	 23.40	
  6.787	-110.754	  4.91228	  2.13859	  2.80058	  1.52039	  3.54187	 -0.03986	  4.99767	705.38702	 23.40	
  6.800	-96.985	  4.89912	  2.36324	  2.54907	  1.46101	  3.59731	 -0.04965	  4.98618	705.25500	 23.40	
  6.800	-83.015	  4.89919	  2.61659	  2.29315	  1.46259	  3.59643	 -0.04812	  4.98576	705.32599	 23.40	
  6.787	-69.246	  4.90605	  2.86627	  2.06113	  1.51802	  3.53784	 -0.04466	  4.99577	705.30902	 23.40	
  6.792	-55.409	  4.89735	  3.09091	  1.84819	  1.61740	  3.41114	 -0.04182	  4.99000	705.23798	 23.40	
  6.795	-41.617	  4.91646	  3.30296	  1.67984	  1.77532	  3.24868	 -0.03977	  5.00710	705.35400	 23.50	
  6.808	-27.689	  4.90942	  3.45389	  1.54464	  1.96557	  3.02259	 -0.03188	  4.99706	705.26099	 23.40	
  6.796	-13.771	  4.90172	  3.54494	  1.46235	  2.18431	  2.77841	 -0.02780	  4.98861	705.42700	 23.50	
  6.800	  0.000	  4.90030	  3.57912	  1.43548	  2.42302	  2.52926	 -0.03117	  4.98119	705.26801	 23.40	
  6.796	 13.771	  4.92422	  3.56753	  1.46537	  2.68522	  2.29516	 -0.02995	  5.00233	705.34802	 23.40	
  6.808	 27.689	  4.90219	  3.46240	  1.53497	  2.91152	  2.06243	 -0.02701	  4.97608	705.45099	 23.40	
  6.795	 41.617	  4.92023	  3.32021	  1.67362	  3.13420	  1.87884	 -0.03187	  4.98815	705.33698	 23.40	
  6.792	 55.409	  4.92324	  3.12881	  1.84826	  3.31196	  1.72914	 -0.03276	  4.98709	705.40100	 23.40	
  6.787	 69.246	  4.94576	  2.91393	  2.06566	  3.44916	  1.63618	 -0.02899	  5.00740	705.28802	 23.40	
  6.800	 83.015	  4.92611	  2.66042	  2.29237	  3.50359	  1.57799	 -0.03367	  4.98513	705.29199	 23.40	
  6.800	 96.985	  4.94560	  2.41820	  2.55378	  3.51698	  1.58643	 -0.03574	  5.00234	705.35101	 23.40	
  6.787	110.754	  4.93958	  2.18515	  2.79744	  3.44863	  1.64097	 -0.03088	  4.99748	705.19800	 23.40	
  6.792	124.591	  4.92918	  1.97385	  3.02426	  3.31873	  1.73997	 -0.02804	  4.98640	705.25201	 23.50	
  6.795	138.383	  4.93564	  1.80311	  3.22912	  3.14754	  1.89030	 -0.02451	  4.99398	705.28497	 23.50	
  6.808	152.311	  4.94575	  1.67152	  3.39210	  2.94164	  2.08016	 -0.01866	  5.00520	705.23602	 23.50	
  6.796	166.229	  4.93027	  1.58444	  3.47668	  2.69350	  2.29766	 -0.01632	  4.99023	705.18799	 23.40	
  8.491	168.704	  4.88238	  1.28353	  3.70985	  2.64759	  2.23607	 -0.04997	  5.00041	705.19897	 23.50	
  8.502	157.493	  4.88235	  1.35209	  3.62888	  2.89543	  2.00270	 -0.04670	  4.99767	705.24902	 23.40	
  8.494	146.194	  4.89020	  1.46758	  3.50185	  3.13225	  1.79845	 -0.05308	  5.00664	705.19000	 23.40	
  8.495	135.039	  4.87929	  1.60963	  3.32028	  3.33309	  1.61446	 -0.06101	  4.99338	705.21301	 23.40	
  8.487	123.723	  4.88715	  1.79473	  3.11154	  3.50916	  1.47248	 -0.06415	  4.99743	705.26801	 23.40	
  8.492	112.575	  4.87688	  2.00088	  2.86957	  3.62789	  1.36453	 -0.06744	  4.98479	705.35901	 23.40	
  8.510	101.220	  4.87492	  2.23186	  2.61404	  3.70819	  1.29640	 -0.07647	  4.98536	705.43201	 23.40	
  8.500	 90.000	  4.88981	  2.48963	  2.36597	  3.74455	  1.27902	 -0.07955	  5.00214	705.16199	 23.40	
  8.510	 78.780	  4.88052	  2.73850	  2.10786	  3.71345	  1.29229	 -0.07310	  4.99618	705.29901	 23.40	
  8.492	 67.425	  4.87825	  2.98857	  1.86934	  3.63144	  1.35458	 -0.06748	  4.99723	705.31097	 23.40	
  8.487	 56.277	  4.87429	  3.21740	  1.65826	  3.50160	  1.45672	 -0.07015	  4.99881	705.27802	 23.40	
  8.495	 44.961	  4.85417	  3.41355	  1.46646	  3.31474	  1.59611	 -0.07118	  4.98384	705.22302	 23.40	
  8.494	 33.806	  4.85556	  3.58062	  1.32465	  3.10824	  1.77810	 -0.06618	  4.98759	705.22900	 23.40	
  8.502	 22.507	  4.86298	  3.71662	  1.21821	  2.88071	  1.99060	 -0.06237	  5.00208	705.10602	 23.40	
  8.491	 11.296	  4.84331	  3.77546	  1.15365	  2.62233	  2.21651	 -0.06830	  4.98705	705.14301	 23.40	
  8.500	  0.000	  4.83812	  3.79564	  1.13110	  2.36221	  2.46875	 -0.06845	  4.98528	705.14301	 23.40	
  8.491	-11.296	  4.83885	  3.76375	  1.15687	  2.11553	  2.72631	 -0.06350	  4.98888	705.24402	 23.40	
  8.502	-22.507	  4.83379	  3.68073	  1.22101	  1.88173	  2.97184	 -0.06211	  4.98880	705.38202	 23.40	
  8.494	-33.806	  4.83021	  3.54741	  1.32832	  1.66801	  3.20879	 -0.06893	  4.98688	705.35101	 23.40	
  8.495	-44.961	  4.83371	  3.37681	  1.47477	  1.48904	  3.41960	 -0.07988	  4.99211	705.33899	 23.40	
  8.487	-56.277	  4.82728	  3.16039	  1.65921	  1.34553	  3.58428	 -0.08291	  4.98487	705.27802	 23.40	
  8.492	-67.425	  4.82473	  2.92625	  1.86882	  1.23961	  3.70829	 -0.08444	  4.98165	705.41602	 23.40	
  8.510	-78.780	  4.82191	  2.67317	  2.10294	  1.17101	  3.78792	 -0.08924	  4.97861	705.26099	 23.50	
  8.500	-90.000	  4.83666	  2.42453	  2.36395	  1.15490	  3.82286	 -0.09203	  4.99087	705.20099	 23.50	
  8.510	-101.220	  4.84256	  2.17733	  2.62326	  1.17660	  3.80281	 -0.08716	  4.99393	705.14301	 23.50	
  8.492	-112.575	  4.83822	  1.94311	  2.87236	  1.24528	  3.71498	 -0.07552	  4.98552	705.19598	 23.50	
  8.487	-123.723	  4.84513	  1.73970	  3.10938	  1.35277	  3.59305	 -0.06752	  4.98899	705.22601	 23.50	
  8.495	-135.039	  4.85285	  1.56363	  3.32387	  1.49718	  3.42928	 -0.06405	  4.99340	705.38800	 23.50	
  8.494	-146.194	  4.85443	  1.42280	  3.49285	  1.67930	  3.21992	 -0.05610	  4.98879	705.27197	 23.50	
  8.502	-157.493	  4.86043	  1.32196	  3.62686	  1.89470	  2.98607	 -0.05050	  4.99064	705.30298	 23.50	
  8.491	-168.704	  4.86476	  1.26829	  3.70206	  2.12934	  2.73764	 -0.05265	  4.98990	705.52698	 23.50	
  8.500	180.000	  4.86093	  1.25029	  3.72329	  2.37555	  2.48030	 -0.05412	  4.98112	705.31403	 23.50	
 10.200	180.000	  4.79097	  0.94792	  3.93687	  2.30831	  2.41314	 -0.09244	  4.98985	705.17798	 23.50	
 10.191	-170.497	  4.79200	  0.95995	  3.91792	  2.05791	  2.67006	 -0.09358	  4.99539	705.07202	 23.50	
 10.210	-161.034	  4.79573	  1.00852	  3.85802	  1.81967	  2.92939	 -0.09103	  5.00605	705.19897	 23.50	
 10.194	-151.526	  4.76541	  1.08793	  3.72387	  1.58360	  3.15971	 -0.08952	  4.97968	705.12903	 23.50	
 10.190	-142.105	  4.76816	  1.20857	  3.57772	  1.38890	  3.38843	 -0.09370	  4.98755	705.20697	 23.50	
 10.215	-132.646	  4.77202	  1.35627	  3.39878	  1.21751	  3.59197	 -0.10005	  4.99820	705.24701	 23.50	
 10.203	-123.092	  4.75126	  1.53508	  3.16793	  1.07216	  3.74744	 -0.10409	  4.98157	705.13599	 23.50	
 10.192	-113.678	  4.76985	  1.74912	  2.94191	  0.96942	  3.89246	 -0.11424	  5.00321	705.25702	 23.50	
 10.208	-104.249	  4.75225	  1.97016	  2.68167	  0.89074	  3.97161	 -0.12774	  4.98925	705.19897	 23.50	
 10.210	-94.801	  4.75113	  2.21506	  2.42344	  0.85316	  4.01781	 -0.13735	  4.99267	705.04401	 23.50	
 10.210	-85.199	  4.73471	  2.46895	  2.15301	  0.84956	  4.00520	 -0.13903	  4.97587	705.26001	 23.50	
 10.208	-75.751	  4.73570	  2.72623	  1.90460	  0.88484	  3.96402	 -0.13263	  4.98158	705.16699	 23.50	
 10.192	-66.322	  4.75877	  2.99171	  1.68287	  0.96406	  3.89096	 -0.12672	  5.00526	705.18103	 23.50	
 10.203	-56.908	  4.73680	  3.21524	  1.46224	  1.06564	  3.74167	 -0.11863	  4.98375	705.15698	 23.50	
 10.215	-47.354	  4.73108	  3.43195	  1.27028	  1.20326	  3.57029	 -0.11851	  4.97929	705.21600	 23.50	
 10.190	-37.895	  4.74029	  3.62296	  1.11814	  1.37509	  3.37792	 -0.11093	  4.98654	705.26801	 23.50	
 10.194	-28.474	  4.75026	  3.78335	  0.99349	  1.57341	  3.15849	 -0.10305	  4.99426	705.29498	 23.50	
 10.210	-18.966	  4.76013	  3.90515	  0.90066	  1.79852	  2.91631	 -0.09494	  4.99996	705.34003	 23.50	
 10.191	 -9.503	  4.75388	  3.96829	  0.84526	  2.03587	  2.65614	 -0.09606	  4.99034	705.30902	 23.50	
 10.200	  0.000	  4.77213	  4.00981	  0.82745	  2.29484	  2.40581	 -0.10446	  5.00506	705.26898	 23.50	
 10.191	  9.503	  4.75882	  3.97952	  0.84097	  2.54897	  2.14193	 -0.10338	  4.98529	705.22601	 23.50	
 10.210	 18.966	  4.77004	  3.92399	  0.89709	  2.80870	  1.90733	 -0.10092	  4.99688	705.13702	 23.50	
 10.194	 28.474	  4.77531	  3.81805	  0.98649	  3.05462	  1.68615	 -0.09961	  4.99074	705.25403	 23.50	
 10.190	 37.895	  4.77884	  3.67299	  1.11187	  3.28340	  1.48647	 -0.10380	  4.99156	705.33698	 23.50	
 10.215	 47.354	  4.78558	  3.49572	  1.26507	  3.49010	  1.31543	 -0.10968	  4.99404	705.21301	 23.50	
 10.203	 56.908	  4.80346	  3.29101	  1.45873	  3.67063	  1.18459	 -0.10876	  5.00670	705.28601	 23.50	
 10.192	 66.322	  4.80252	  3.05290	  1.67356	  3.79606	  1.07965	 -0.10757	  4.99992	705.22101	 23.50	
 10.208	 75.751	  4.80702	  2.80551	  1.90719	  3.89234	  1.00852	 -0.11143	  4.99727	705.24103	 23.50	
 10.210	 85.199	  4.80073	  2.54607	  2.15217	  3.93317	  0.97273	 -0.12098	  4.98856	705.16803	 23.50	
 10.210	 94.801	  4.80435	  2.28618	  2.41859	  3.93351	  0.97554	 -0.12351	  4.98988	705.25702	 23.50	
 10.208	104.249	  4.79860	  2.03894	  2.67467	  3.88578	  1.01406	 -0.11787	  4.98270	705.21301	 23.50	
 10.192	113.678	  4.80897	  1.81345	  2.93269	  3.80223	  1.09044	 -0.11017	  4.99113	705.20398	 23.50	
 10.203	123.092	  4.80480	  1.59954	  3.17130	  3.67265	  1.19083	 -0.10613	  4.98764	705.21301	 23.50	
 10.215	132.646	  4.80595	  1.40923	  3.39355	  3.50588	  1.32776	 -0.10136	  4.99046	705.09698	 23.50	
 10.190	142.105	  4.80935	  1.25810	  3.58201	  3.30700	  1.50087	 -0.09388	  4.99680	705.24103	 23.50	
 10.194	151.526	  4.80862	  1.13066	  3.73577	  3.07832	  1.70136	 -0.08546	  4.99614	705.15900	 23.50	
 10.210	161.034	  4.80194	  1.03364	  3.84874	  2.82944	  1.92154	 -0.08115	  4.99340	705.19897	 23.50	
 10.191	170.497	  4.80146	  0.97556	  3.91803	  2.57475	  2.16045	 -0.08513	  4.99438	705.21301	 23.50	
 11.899	171.783	  4.71962	  0.67246	  4.12073	  2.50161	  2.07972	 -0.12518	  5.00944	705.24103	 23.50	
 11.890	163.610	  4.72085	  0.72378	  4.05880	  2.75818	  1.83705	 -0.11959	  5.00520	705.21600	 23.50	
 11.889	155.445	  4.71190	  0.80150	  3.95050	  3.00234	  1.60662	 -0.11794	  4.99349	705.29901	 23.50	
 11.909	147.299	  4.72403	  0.90968	  3.82530	  3.25104	  1.39489	 -0.12826	  5.00430	705.14697	 23.50	
 11.902	139.148	  4.72726	  1.04945	  3.65624	  3.47219	  1.21097	 -0.13354	  5.00506	705.09100	 23.50	
 11.894	130.867	  4.72655	  1.21941	  3.45275	  3.66494	  1.05424	 -0.13895	  5.00199	705.29401	 23.50	
 11.897	122.732	  4.71809	  1.40069	  3.22474	  3.82556	  0.91568	 -0.14724	  4.99299	705.31097	 23.50	
 11.903	114.597	  4.72101	  1.61098	  2.98599	  3.96289	  0.80723	 -0.15587	  4.99810	705.24701	 23.50	
 11.893	106.346	  4.70481	  1.83765	  2.71614	  4.04462	  0.72850	 -0.16259	  4.97910	705.11401	 23.50	
 11.892	 98.155	  4.70826	  2.08297	  2.45726	  4.10898	  0.68092	 -0.16937	  4.98654	705.24597	 23.50	
 11.900	 90.000	  4.72558	  2.34329	  2.20464	  4.14153	  0.66616	 -0.16823	  5.00548	705.15002	 23.50	
 11.892	 81.845	  4.71269	  2.59736	  1.94232	  4.11114	  0.67807	 -0.16083	  4.99386	705.06702	 23.50	
 11.893	 73.654	  4.71783	  2.85793	  1.69962	  4.05756	  0.72351	 -0.15080	  5.00453	705.19800	 23.50	
 11.903	 65.403	  4.69761	  3.09826	  1.45956	  3.94320	  0.79363	 -0.14585	  4.98729	705.13397	 23.50	
 11.897	 57.268	  4.69872	  3.33745	  1.24912	  3.81270	  0.90091	 -0.14788	  4.99709	705.08600	 23.50	
 11.894	 49.133	  4.70254	  3.55920	  1.06502	  3.64924	  1.03633	 -0.14475	  5.00387	705.10303	 23.50	
 11.902	 40.852	  4.68995	  3.74522	  0.89504	  3.44620	  1.19323	 -0.14270	  4.99854	705.27802	 23.50	
 11.909	 32.701	  4.68265	  3.90584	  0.76107	  3.22444	  1.37870	 -0.14319	  4.99837	705.28003	 23.50	
 11.889	 24.555	  4.66873	  4.02073	  0.65639	  2.97370	  1.58749	 -0.14015	  4.98783	705.21198	 23.50	
 11.890	 16.390	  4.66167	  4.10894	  0.58124	  2.71960	  1.81380	 -0.14297	  4.98399	705.18103	 23.50	
 11.899	  8.217	  4.65511	  4.16246	  0.53516	  2.46391	  2.05368	 -0.14305	  4.98326	705.24701	 23.50	
 11.900	  0.000	  4.65335	  4.17962	  0.51873	  2.20111	  2.31211	 -0.14017	  4.98739	705.26099	 23.50	
 11.899	 -8.217	  4.65407	  4.15823	  0.53671	  1.94876	  2.57292	 -0.13190	  4.99182	705.20502	 23.50	
 11.890	-16.390	  4.65932	  4.09907	  0.58781	  1.71071	  2.83335	 -0.13010	  5.00057	705.19098	 23.50	
 11.889	-24.555	  4.65656	  3.99850	  0.66563	  1.48024	  3.08718	 -0.13285	  5.00227	705.21600	 23.50	
 11.909	-32.701	  4.64309	  3.85513	  0.77045	  1.26854	  3.31778	 -0.14007	  4.99154	705.16699	 23.50	
 11.902	-40.852	  4.65229	  3.69541	  0.90869	  1.08817	  3.54092	 -0.14794	  5.00311	705.16998	 23.50	
 11.894	-49.133	  4.64437	  3.48928	  1.07458	  0.92282	  3.73588	 -0.15429	  5.00000	705.06299	 23.50	
 11.897	-57.268	  4.64150	  3.26615	  1.26090	  0.78778	  3.89845	 -0.15967	  4.99414	705.01300	 23.50	
 11.903	-65.403	  4.64625	  3.02747	  1.47151	  0.68097	  4.03302	 -0.16142	  4.99675	705.26898	 23.50	
 11.893	-73.654	  4.63840	  2.76827	  1.70471	  0.60720	  4.12226	 -0.16924	  4.99041	705.18402	 23.50	
 11.892	-81.845	  4.64324	  2.51055	  1.95127	  0.56362	  4.17985	 -0.17284	  4.99057	705.04102	 23.50	
 11.900	-90.000	  4.65644	  2.25700	  2.21303	  0.55109	  4.20907	 -0.17885	  5.00057	704.98798	 23.50	
 11.892	-98.155	  4.65440	  2.00508	  2.47035	  0.56639	  4.18668	 -0.17567	  4.99616	705.04901	 23.50	
 11.893	-106.346	  4.66286	  1.76576	  2.73401	  0.61304	  4.13518	 -0.16403	  5.00306	705.07397	 23.50	
 11.903	-114.597	  4.66208	  1.53583	  2.98855	  0.68757	  4.03898	 -0.14998	  4.99615	705.11102	 23.50	
 11.897	-122.732	  4.65989	  1.33226	  3.22529	  0.79659	  3.90321	 -0.13873	  4.98923	705.26001	 23.50	
 11.894	-130.867	  4.66232	  1.15393	  3.44204	  0.93446	  3.73479	 -0.13087	  4.98914	705.13898	 23.50	
 11.902	-139.148	  4.68119	  0.99479	  3.65551	  1.10174	  3.55131	 -0.12944	  5.00427	705.16699	 23.50	
 11.909	-147.299	  4.69046	  0.86651	  3.82877	  1.28838	  3.34062	 -0.12861	  5.00919	705.24701	 23.50	
 11.889	-155.445	  4.70229	  0.77149	  3.96541	  1.50247	  3.10748	 -0.12850	  5.01296	705.22302	 23.50	
 11.890	-163.610	  4.69810	  0.70099	  4.05381	  1.73293	  2.84713	 -0.13326	  5.00178	705.24902	 23.50	
 11.899	-171.783	  4.70179	  0.66054	  4.11386	  1.97645	  2.58992	 -0.13455	  4.99948	705.17798	 23.50	
 11.900	180.000	  4.69869	  0.64951	  4.12620	  2.22857	  2.32850	 -0.13113	  4.99069	705.04999	 23.60	
 13.600	180.000	  4.58693	  0.34881	  4.29997	  2.13476	  2.23303	 -0.17138	  4.98987	705.23798	 23.60	
 13.608	-172.853	  4.58577	  0.35504	  4.28650	  1.88373	  2.48708	 -0.17474	  4.99695	705.25201	 23.60	
 13.611	-165.583	  4.58489	  0.38761	  4.23953	  1.63645	  2.75144	 -0.17302	  5.00398	705.06598	 23.60	
 13.601	-158.353	  4.57519	  0.44811	  4.14741	  1.39891	  3.00534	 -0.16991	  5.00193	705.16199	 23.60	
 13.609	-151.210	  4.56281	  0.52975	  4.02198	  1.17915	  3.24351	 -0.16560	  4.99356	705.15997	 23.60	
 13.611	-143.999	  4.55392	  0.63756	  3.87080	  0.98114	  3.46924	 -0.16331	  4.99229	705.01898	 23.50	
 13.601	-136.825	  4.55550	  0.77727	  3.69358	  0.80500	  3.68516	 -0.16341	  4.99788	705.11902	 23.60	
 13.596	-129.640	  4.54866	  0.93679	  3.48674	  0.64872	  3.87269	 -0.16385	  4.99445	705.12000	 23.60	
 13.611	-122.431	  4.55233	  1.11924	  3.26922	  0.51835	  4.03954	 -0.16990	  5.00327	705.22302	 23.50	
 13.604	-115.211	  4.55323	  1.32379	  3.03095	  0.41566	  4.17464	 -0.18052	  5.00832	705.21802	 23.50	
 13.595	-108.042	  4.53781	  1.54064	  2.76907	  0.33837	  4.26190	 -0.19139	  4.99383	705.23999	 23.50	
 13.607	-100.793	  4.53836	  1.77860	  2.50770	  0.28284	  4.33416	 -0.20174	  4.99832	705.22998	 23.50	
 13.601	-93.617	  4.53518	  2.02559	  2.24799	  0.25522	  4.36728	 -0.20562	  4.99784	705.26099	 23.50	
 13.601	-86.383	  4.52332	  2.28007	  1.98159	  0.25330	  4.35897	 -0.20105	  4.99210	705.22601	 23.50	
 13.607	-79.207	  4.52538	  2.54024	  1.73244	  0.27786	  4.33062	 -0.19373	  4.99569	705.19598	 23.50	
 13.595	-71.958	  4.52091	  2.79769	  1.48907	  0.33151	  4.25669	 -0.18548	  4.99012	705.27100	 23.50	
 13.604	-64.789	  4.52228	  3.05302	  1.26126	  0.40776	  4.15962	 -0.17995	  4.99410	705.30798	 23.50	
 13.611	-57.569	  4.51305	  3.29061	  1.04989	  0.50811	  4.02164	 -0.18056	  4.98751	705.11499	 23.50	
 13.596	-50.360	  4.51854	  3.51793	  0.86283	  0.63711	  3.86353	 -0.17998	  4.99462	705.12299	 23.50	
 13.601	-43.175	  4.51382	  3.71864	  0.69589	  0.78835	  3.67013	 -0.17247	  4.98878	705.11499	 23.50	
 13.611	-36.001	  4.52614	  3.90868	  0.55323	  0.96446	  3.46519	 -0.17008	  4.99885	705.27197	 23.60	
 13.609	-28.790	  4.52831	  4.06107	  0.43518	  1.16000	  3.23580	 -0.16363	  5.00229	705.16998	 23.50	
 13.601	-21.647	  4.52677	  4.17812	  0.34051	  1.37205	  2.98952	 -0.16086	  4.99087	705.19897	 23.60	
 13.611	-14.417	  4.53861	  4.27830	  0.27293	  1.60909	  2.73589	 -0.15673	  5.00332	705.16498	 23.50	
 13.608	 -7.147	  4.53533	  4.32748	  0.23246	  1.85345	  2.47451	 -0.15942	  4.99230	705.16199	 23.50	
 13.600	  0.000	  4.53981	  4.34855	  0.21916	  2.10473	  2.21794	 -0.16357	  4.99389	705.18500	 23.50	
 13.608	  7.147	  4.53728	  4.33276	  0.22779	  2.36156	  1.96107	 -0.17285	  4.98740	705.13898	 23.50	
 13.611	 14.417	  4.55271	  4.29750	  0.26543	  2.62933	  1.71800	 -0.17422	  4.99760	705.01801	 23.50	
 13.601	 21.647	  4.56696	  4.22441	  0.33200	  2.89189	  1.48840	 -0.17732	  5.00663	705.09998	 23.50	
 13.609	 28.790	  4.56016	  4.10467	  0.42184	  3.13350	  1.26546	 -0.17645	  4.99493	705.13898	 23.50	
 13.611	 36.001	  4.58067	  3.97403	  0.53719	  3.37920	  1.07367	 -0.18056	  5.01090	705.04303	 23.50	
 13.601	 43.175	  4.58306	  3.79675	  0.68185	  3.59002	  0.90282	 -0.18089	  5.00550	705.10602	 23.60	
 13.596	 50.360	  4.57460	  3.58861	  0.84404	  3.77300	  0.74589	 -0.18452	  4.98717	705.11200	 23.60	
 13.611	 57.569	  4.58887	  3.37743	  1.03563	  3.95154	  0.61425	 -0.18500	  5.00012	705.10602	 23.60	
 13.604	 64.789	  4.58199	  3.13300	  1.24270	  4.07721	  0.51162	 -0.18243	  4.98591	705.08002	 23.60	
 13.595	 71.958	  4.59859	  2.89225	  1.47333	  4.19183	  0.43891	 -0.18960	  4.99646	705.05798	 23.60	
 13.607	 79.207	  4.60259	  2.63597	  1.71719	  4.26514	  0.38630	 -0.19787	  4.99995	705.12000	 23.60	
 13.601	 86.383	  4.60733	  2.37985	  1.97110	  4.30113	  0.36498	 -0.20862	  4.99656	705.25201	 23.60	
 13.601	 93.617	  4.59988	  2.11671	  2.22957	  4.29241	  0.36777	 -0.21279	  4.98606	705.08801	 23.60	
 13.607	100.793	  4.60667	  1.86922	  2.49445	  4.26696	  0.39261	 -0.21033	  4.99460	705.16199	 23.60	
 13.595	108.042	  4.61693	  1.63318	  2.76444	  4.20721	  0.44915	 -0.20756	  5.00385	705.07800	 23.60	
 13.604	115.211	  4.62169	  1.40844	  3.02264	  4.11083	  0.52695	 -0.19805	  5.00883	705.12799	 23.60	
 13.611	122.431	  4.62010	  1.19811	  3.26620	  3.97536	  0.62775	 -0.18993	  5.00579	705.28302	 23.60	
 13.596	129.640	  4.62139	  1.01140	  3.49390	  3.80855	  0.76389	 -0.17908	  5.00799	705.19897	 23.60	
 13.601	136.825	  4.60442	  0.83946	  3.68860	  3.60440	  0.91444	 -0.17143	  4.98963	705.21198	 23.60	
 13.611	143.999	  4.62705	  0.69668	  3.89077	  3.41252	  1.09114	 -0.16552	  5.01658	705.17401	 23.60	
 13.609	151.210	  4.59442	  0.57227	  4.01672	  3.15757	  1.28146	 -0.15994	  4.98289	705.23798	 23.60	
 13.601	158.353	  4.60940	  0.48188	  4.15032	  2.92049	  1.50343	 -0.15638	  5.00185	705.26801	 23.60	
 13.611	165.583	  4.61333	  0.41166	  4.24670	  2.66669	  1.73929	 -0.15850	  5.01297	705.16998	 23.60	
 13.608	172.853	  4.60458	  0.36670	  4.29398	  2.40351	  1.98189	 -0.16842	  5.00937	705.23999	 23.60	
 15.298	173.587	  4.45788	  0.06971	  4.43111	  2.28813	  1.86622	 -0.20060	  4.98393	705.25403	 23.60	
 15.291	167.167	  4.45223	  0.10709	  4.37791	  2.53915	  1.62285	 -0.19436	  4.97415	705.24103	 23.60	
 15.307	160.676	  4.46243	  0.16724	  4.30581	  2.80394	  1.38889	 -0.18945	  4.98315	705.24701	 23.60	
 15.300	154.261	  4.47270	  0.25039	  4.20648	  3.06080	  1.17192	 -0.19085	  4.99125	705.25403	 23.50	
 15.288	147.854	  4.48826	  0.35895	  4.07788	  3.30785	  0.97417	 -0.19468	  5.00222	705.18799	 23.60	
 15.293	141.428	  4.48429	  0.48684	  3.90885	  3.52809	  0.79105	 -0.20041	  4.99698	705.22900	 23.60	
 15.299	134.985	  4.49641	  0.63105	  3.72818	  3.74792	  0.61925	 -0.20778	  5.00786	705.14502	 23.60	
 15.305	128.583	  4.49870	  0.80010	  3.51848	  3.93733	  0.47226	 -0.21556	  5.01334	705.22998	 23.60	
 15.309	122.142	  4.50365	  0.98855	  3.29076	  4.10454	  0.34954	 -0.22505	  5.01717	705.27100	 23.60	
 15.304	115.711	  4.49726	  1.19365	  3.04161	  4.23077	  0.24874	 -0.23194	  5.00907	705.13702	 23.60	
 15.297	109.291	  4.48908	  1.41285	  2.78164	  4.32663	  0.17194	 -0.23871	  4.99949	705.12598	 23.60	
 15.293	102.897	  4.48893	  1.64687	  2.52178	  4.40525	  0.11120	 -0.24458	  4.99975	705.15900	 23.60	
 15.293	 96.458	  4.49421	  1.89668	  2.26226	  4.45607	  0.07728	 -0.24594	  5.00809	705.13098	 23.60	
 15.300	 90.000	  4.48246	  2.14692	  1.99285	  4.46204	  0.06218	 -0.24463	  4.99840	705.18201	 23.60	
 15.293	 83.542	  4.47285	  2.40092	  1.73365	  4.43665	  0.07334	 -0.23995	  4.99228	705.19800	 23.60	
 15.293	 77.103	  4.46911	  2.65955	  1.48385	  4.38693	  0.10668	 -0.23021	  4.99182	705.20898	 23.60	
 15.297	 70.709	  4.47080	  2.91483	  1.25256	  4.31577	  0.16190	 -0.22328	  4.99854	705.18103	 23.60	
 15.304	 64.289	  4.46331	  3.16190	  1.02598	  4.20628	  0.23447	 -0.21775	  4.99971	705.25702	 23.60	
 15.309	 57.858	  4.46064	  3.40010	  0.81840	  4.07213	  0.33203	 -0.21753	  5.00180	705.24902	 23.60	
 15.305	 51.417	  4.44931	  3.61511	  0.63273	  3.89941	  0.45472	 -0.21880	  4.99655	705.13599	 23.60	
 15.299	 45.015	  4.45042	  3.82413	  0.46709	  3.71667	  0.60266	 -0.21543	  5.00491	705.29401	 23.60	
 15.293	 38.572	  4.43735	  3.99675	  0.32230	  3.49621	  0.77126	 -0.20986	  4.99371	705.25500	 23.60	
 15.288	 32.146	  4.43242	  4.15330	  0.19963	  3.26944	  0.95673	 -0.20134	  4.99717	705.13702	 23.60	
 15.300	 25.739	  4.42449	  4.27832	  0.09703	  3.02935	  1.15506	 -0.19706	  4.99350	705.13898	 23.60	
 15.307	 19.324	  4.42989	  4.38820	  0.01765	  2.78123	  1.37982	 -0.19572	  5.00704	705.15302	 23.60	
 15.291	 12.833	  4.41444	  4.44641	 -0.03577	  2.51543	  1.61257	 -0.19205	  4.99467	705.31702	 23.60	
 15.298	  6.413	  4.42158	  4.50164	 -0.07014	  2.26394	  1.86001	 -0.18817	  5.01036	705.24902	 23.60	
 15.300	  0.000	  4.40179	  4.49206	 -0.07835	  1.99464	  2.10896	 -0.18467	  4.98936	705.28802	 23.60	
 15.298	 -6.413	  4.41106	  4.48620	 -0.06502	  1.75002	  2.36952	 -0.17621	  5.00778	705.23602	 23.60	
 15.291	-12.833	  4.39830	  4.42689	 -0.02831	  1.50553	  2.62357	 -0.17740	  4.99880	705.22302	 23.60	
 15.307	-19.324	  4.39872	  4.35004	  0.02879	  1.26593	  2.88700	 -0.17531	  5.00213	705.14502	 23.60	
 15.300	-25.739	  4.39367	  4.23795	  0.11243	  1.05099	  3.13376	 -0.17731	  5.00096	705.14502	 23.60	
 15.288	-32.146	  4.38891	  4.09956	  0.21445	  0.84991	  3.36641	 -0.18090	  4.99834	705.08002	 23.60	
 15.293	-38.572	  4.39439	  3.93962	  0.34185	  0.66466	  3.59993	 -0.18089	  5.00828	705.10498	 23.60	
 15.299	-45.015	  4.39825	  3.75592	  0.48665	  0.49901	  3.81159	 -0.18440	  5.01488	705.18103	 23.60	
 15.305	-51.417	  4.39222	  3.54282	  0.65521	  0.35745	  3.98770	 -0.18906	  5.00714	705.21503	 23.60	
 15.309	-57.858	  4.39280	  3.31644	  0.84113	  0.23548	  4.14990	 -0.18719	  5.00976	705.20898	 23.60	
 15.304	-64.289	  4.39548	  3.07565	  1.04780	  0.13650	  4.28406	 -0.18716	  5.00918	705.14203	 23.60	
 15.297	-70.709	  4.39215	  2.81728	  1.27215	  0.05854	  4.38326	 -0.18502	  5.00418	705.12000	 23.60	
 15.293	-77.103	  4.39048	  2.55940	  1.50483	  0.00057	  4.45591	 -0.19176	  4.99918	705.12799	 23.60	
 15.293	-83.542	  4.38763	  2.29527	  1.75093	 -0.03312	  4.49763	 -0.19615	  4.99595	705.21503	 23.60	
 15.300	-90.000	  4.39096	  2.03822	  2.00845	 -0.04475	  4.51634	 -0.20466	  4.99714	705.18402	 23.60	
 15.293	-96.458	  4.40051	  1.78966	  2.27161	 -0.03052	  4.50683	 -0.21065	  5.00046	705.12799	 23.60	
 15.293	-102.897	  4.41053	  1.55019	  2.53617	  0.00165	  4.46890	 -0.21262	  5.01079	705.16199	 23.60	
 15.297	-109.291	  4.42268	  1.32230	  2.80044	  0.06309	  4.40232	 -0.20666	  5.01868	705.12799	 23.60	
 15.304	-115.711	  4.42943	  1.10885	  3.05587	  0.14250	  4.30164	 -0.20155	  5.02315	705.09802	 23.60	
 15.309	-122.142	  4.42808	  0.90881	  3.29454	  0.24661	  4.16426	 -0.19382	  5.01716	705.25403	 23.60	
 15.305	-128.583	  4.43199	  0.72709	  3.52305	  0.37141	  4.00389	 -0.19324	  5.01211	705.16998	 23.60	
 15.299	-134.985	  4.43313	  0.56501	  3.72994	  0.51422	  3.82039	 -0.19383	  5.01304	705.15302	 23.60	
 15.293	-141.428	  4.44171	  0.42662	  3.92195	  0.68633	  3.61418	 -0.19544	  5.01710	705.14301	 23.60	
 15.288	-147.854	  4.44568	  0.31055	  4.08315	  0.87643	  3.38742	 -0.19749	  5.01231	705.19598	 23.60	
 15.300	-154.261	  4.44909	  0.21236	  4.21873	  1.07758	  3.15096	 -0.20230	  5.01196	705.18799	 23.60	
 15.307	-160.676	  4.46050	  0.13857	  4.33117	  1.29781	  2.90739	 -0.20727	  5.01674	705.10797	 23.60	
 15.291	-167.167	  4.46612	  0.09023	  4.40863	  1.54016	  2.64597	 -0.21096	  5.01337	705.03601	 23.60	
 15.298	-173.587	  4.47595	  0.06182	  4.45867	  1.78693	  2.39057	 -0.21286	  5.01760	705.12799	 23.60	
 15.300	180.000	  4.47974	  0.05610	  4.47098	  2.03996	  2.13188	 -0.20853	  5.01618	705.12000	 23.60	
 17.000	180.000	  4.33152	 -0.23197	  4.60640	  1.92411	  2.01513	 -0.23502	  5.01440	705.20502	 23.60	
 16.990	-174.179	  4.31153	 -0.22478	  4.57553	  1.66988	  2.26087	 -0.23565	  4.99477	705.17603	 23.60	
 17.009	-168.383	  4.30748	 -0.20069	  4.53893	  1.42617	  2.51941	 -0.23900	  5.00319	705.08899	 23.60	
 17.000	-162.596	  4.29551	 -0.15477	  4.46204	  1.19084	  2.77095	 -0.22995	  4.99331	705.26300	 23.60	
 16.990	-156.759	  4.28795	 -0.09134	  4.36376	  0.96948	  3.02009	 -0.22681	  4.99339	705.16998	 23.60	
 16.995	-150.919	  4.30127	 -0.00525	  4.25843	  0.76634	  3.27604	 -0.22165	  5.01608	705.34802	 23.60	
 16.988	-145.161	  4.27690	  0.09506	  4.09194	  0.57221	  3.49349	 -0.22076	  4.99438	705.26898	 23.60	
 17.014	-139.343	  4.28363	  0.21521	  3.93219	  0.39376	  3.72312	 -0.21957	  5.01144	705.28802	 23.60	
 17.007	-133.546	  4.26963	  0.35810	  3.73009	  0.23926	  3.90944	 -0.21446	  4.99732	705.21802	 23.60	
 17.001	-127.699	  4.27958	  0.52027	  3.52771	  0.10077	  4.10168	 -0.21268	  5.01302	705.07800	 23.60	
 17.006	-121.937	  4.26173	  0.69310	  3.29069	 -0.02044	  4.24632	 -0.21063	  5.00058	705.18500	 23.60	
 17.002	-116.134	  4.27179	  0.88885	  3.05940	 -0.12028	  4.39148	 -0.21250	  5.01355	705.10303	 23.60	
 17.001	-110.310	  4.25655	  1.09587	  2.80130	 -0.20043	  4.48651	 -0.20859	  5.00073	705.17297	 23.60	
 16.988	-104.517	  4.26142	  1.32366	  2.55154	 -0.25646	  4.57051	 -0.20560	  5.01174	705.14697	 23.60	
 17.008	-98.662	  4.24863	  1.55496	  2.28467	 -0.29978	  4.61751	 -0.20547	  5.00174	705.14502	 23.60	
 16.996	-92.909	  4.24672	  1.79774	  2.02994	 -0.31773	  4.64037	 -0.19683	  5.00023	705.13098	 23.60	
 16.996	-87.091	  4.24682	  2.05099	  1.77448	 -0.31759	  4.64306	 -0.18873	  5.00210	705.15900	 23.60	
 17.012	-81.253	  4.24063	  2.30836	  1.52423	 -0.30230	  4.61746	 -0.18657	  5.00124	705.19000	 23.60	
 16.988	-75.483	  4.23980	  2.56272	  1.28592	 -0.26206	  4.56309	 -0.18152	  5.00449	705.13397	 23.60	
 17.001	-69.690	  4.24456	  2.82314	  1.05466	 -0.20998	  4.49578	 -0.17578	  5.01469	705.09802	 23.60	
 17.002	-63.866	  4.23815	  3.07081	  0.83901	 -0.13012	  4.38147	 -0.18081	  5.00809	705.15698	 23.50	
 17.006	-58.063	  4.23145	  3.30702	  0.63476	 -0.03332	  4.24289	 -0.18014	  5.00230	705.20398	 23.50	
 17.001	-52.301	  4.23870	  3.54005	  0.45366	  0.08460	  4.09233	 -0.18387	  5.01124	705.26099	 23.50	
 17.007	-46.454	  4.23700	  3.75221	  0.28426	  0.22200	  3.90654	 -0.18764	  5.00649	705.23999	 23.50	
 17.014	-40.657	  4.22980	  3.94216	  0.13259	  0.36763	  3.70584	 -0.17847	  4.99970	705.26300	 23.60	
 16.988	-34.839	  4.23932	  4.11789	  0.00707	  0.54562	  3.49316	 -0.17754	  5.00475	705.15302	 23.50	
 16.995	-29.081	  4.24975	  4.27633	 -0.10158	  0.73598	  3.26881	 -0.17846	  5.01286	705.32202	 23.60	
 16.990	-23.241	  4.24341	  4.39452	 -0.19292	  0.94225	  3.01668	 -0.18059	  5.00326	705.37299	 23.60	
 17.000	-17.404	  4.24821	  4.49670	 -0.26979	  1.15725	  2.76641	 -0.18098	  5.00539	705.34198	 23.50	
 17.009	-11.617	  4.25147	  4.57014	 -0.32250	  1.39073	  2.50882	 -0.17826	  5.00298	705.32202	 23.60	
 16.990	 -5.821	  4.24928	  4.60630	 -0.34909	  1.63213	  2.25034	 -0.17551	  4.99407	705.29102	 23.60	
 17.000	  0.000	  4.25501	  4.62806	 -0.36452	  1.88027	  1.99674	 -0.17930	  4.99749	705.15002	 23.60	
 16.990	  5.821	  4.26580	  4.62497	 -0.35557	  2.14347	  1.74512	 -0.18216	  5.00281	705.21198	 23.60	
 17.009	 11.617	  4.26800	  4.59043	 -0.33149	  2.39833	  1.50201	 -0.18951	  5.00257	705.16699	 23.50	
 17.000	 17.404	  4.26641	  4.52212	 -0.28449	  2.65060	  1.26744	 -0.19502	  4.99395	705.18799	 23.50	
 16.990	 23.241	  4.27674	  4.43808	 -0.21571	  2.91034	  1.04458	 -0.20082	  5.00009	705.24902	 23.60	
 16.995	 29.081	  4.29078	  4.32831	 -0.12485	  3.16354	  0.83952	 -0.21071	  5.00550	705.20502	 23.60	
 16.988	 34.839	  4.29699	  4.19009	 -0.01779	  3.39735	  0.64909	 -0.21957	  5.01108	705.24103	 23.60	
 17.014	 40.657	  4.29258	  4.01769	  0.10469	  3.61682	  0.46736	 -0.23109	  5.00133	705.19598	 23.60	
 17.007	 46.454	  4.30369	  3.83765	  0.25075	  3.82637	  0.30960	 -0.23773	  5.00667	705.18500	 23.60	
 17.001	 52.301	  4.31175	  3.63142	  0.42092	  4.01148	  0.17640	 -0.24294	  5.00654	705.29199	 23.60	
 17.006	 58.063	  4.31289	  3.40742	  0.60302	  4.16972	  0.05888	 -0.24381	  5.00207	705.13397	 23.60	
 17.002	 63.866	  4.32395	  3.17586	  0.80221	  4.31469	 -0.04189	 -0.24450	  5.00579	705.18103	 23.60	
 17.001	 69.690	  4.33181	  2.93089	  1.02223	  4.43265	 -0.11867	 -0.24963	  5.00942	705.34698	 23.60	
 16.988	 75.483	  4.33686	  2.67693	  1.25411	  4.51837	 -0.18012	 -0.25629	  5.01044	705.32300	 23.60	
 17.012	 81.253	  4.33254	  2.42018	  1.48757	  4.56965	 -0.22065	 -0.25989	  5.00482	705.20898	 23.60	
 16.996	 87.091	  4.33290	  2.15985	  1.74100	  4.59207	 -0.23349	 -0.26214	  5.00010	705.18103	 23.60	
 16.996	 92.909	  4.34012	  1.90767	  2.00266	  4.59773	 -0.23109	 -0.25911	  5.00145	705.16699	 23.60	
 17.008	 98.662	  4.32849	  1.65570	  2.25431	  4.55918	 -0.21186	 -0.25842	  4.98685	705.29498	 23.60	
 16.988	104.517	  4.34674	  1.42040	  2.52782	  4.51879	 -0.16617	 -0.25714	  5.00466	705.22101	 23.60	
 17.001	110.310	  4.34382	  1.19165	  2.78584	  4.43479	 -0.10807	 -0.25552	  4.99794	705.16199	 23.60	
 17.002	116.134	  4.34850	  0.97681	  3.04092	  4.32822	 -0.02599	 -0.25320	  5.00404	705.22900	 23.60	
 17.006	121.937	  4.35086	  0.77578	  3.28715	  4.19548	  0.07539	 -0.24447	  5.00386	705.23798	 23.60	
 17.001	127.699	  4.34781	  0.59248	  3.51456	  4.03544	  0.19147	 -0.24080	  5.00076	705.35101	 23.60	
 17.007	133.546	  4.34993	  0.42310	  3.73379	  3.85743	  0.32955	 -0.23486	  5.00736	705.37500	 23.60	
 17.014	139.343	  4.35888	  0.27384	  3.93878	  3.66358	  0.48480	 -0.23115	  5.01632	705.25500	 23.60	
 16.988	145.161	  4.35190	  0.14704	  4.10605	  3.43332	  0.66709	 -0.22472	  5.00923	705.10303	 23.60	
 16.995	150.919	  4.34642	  0.03732	  4.25319	  3.20088	  0.85372	 -0.22187	  5.00622	705.22998	 23.60	
 16.990	156.759	  4.34548	 -0.05682	  4.38196	  2.95630	  1.06293	 -0.22151	  5.01153	705.43500	 23.60	
 17.000	162.596	  4.33031	 -0.13043	  4.46557	  2.69125	  1.28373	 -0.22274	  4.99289	705.23199	 23.60	
 17.009	168.383	  4.32714	 -0.18343	  4.53646	  2.43629	  1.51562	 -0.22614	  4.99683	705.30902	 23.50	
 16.990	174.179	  4.32307	 -0.21713	  4.57785	  2.18048	  1.75714	 -0.22838	  4.99784	705.30902	 23.60	
 18.709	174.675	  4.18014	 -0.49581	  4.71592	  2.06707	  1.64221	 -0.24569	  5.01634	705.16699	 23.50	
 18.703	169.441	  4.16963	 -0.46334	  4.66230	  2.31082	  1.40400	 -0.24585	  5.00056	705.25403	 23.50	
 18.691	164.085	  4.17732	 -0.41366	  4.60136	  2.57093	  1.17173	 -0.24910	  5.00041	705.35101	 23.50	
 18.706	158.818	  4.17833	 -0.35334	  4.51406	  2.82378	  0.94791	 -0.24649	  4.99978	705.22998	 23.50	
 18.695	153.537	  4.18990	 -0.26849	  4.40908	  3.07351	  0.74662	 -0.24675	  5.00605	705.39600	 23.50	
 18.704	148.255	  4.18747	 -0.17512	  4.26790	  3.30733	  0.55103	 -0.24528	  5.00096	705.29498	 23.50	
 18.698	142.952	  4.18340	 -0.05831	  4.10235	  3.53381	  0.36675	 -0.24599	  4.99741	705.26898	 23.60	
 18.699	137.625	  4.19268	  0.07626	  3.92546	  3.75487	  0.20351	 -0.24806	  5.00459	705.33301	 23.50	
 18.705	132.343	  4.20713	  0.22598	  3.73752	  3.96008	  0.05848	 -0.25439	  5.01883	705.36200	 23.50	
 18.713	127.067	  4.20118	  0.38942	  3.51705	  4.13423	 -0.07394	 -0.25277	  5.01345	705.29401	 23.50	
 18.700	121.794	  4.19255	  0.57030	  3.27711	  4.28271	 -0.18715	 -0.25520	  5.00295	705.24402	 23.50	
 18.698	116.504	  4.19994	  0.76844	  3.03984	  4.42404	 -0.28476	 -0.25496	  5.01207	705.14502	 23.60	
 18.707	111.165	  4.19013	  0.97443	  2.78052	  4.52708	 -0.36786	 -0.25523	  5.00286	705.25500	 23.60	
 18.690	105.863	  4.20057	  1.20285	  2.53165	  4.61951	 -0.42381	 -0.25374	  5.01443	705.44702	 23.60	
 18.696	100.583	  4.19152	  1.42975	  2.26682	  4.67399	 -0.47137	 -0.25152	  5.00366	705.34198	 23.60	
 18.700	 95.309	  4.19123	  1.66902	  2.01138	  4.71098	 -0.49942	 -0.25466	  5.00802	705.31403	 23.60	
 18.700	 90.000	  4.18627	  1.91951	  1.75522	  4.71771	 -0.50417	 -0.25873	  5.00753	705.23199	 23.50	
 18.700	 84.691	  4.18387	  2.17187	  1.50256	  4.70486	 -0.49850	 -0.26495	  5.00353	705.18402	 23.60	
 18.696	 79.417	  4.18101	  2.42730	  1.26046	  4.66671	 -0.47398	 -0.27076	  5.00912	705.37097	 23.50	
 18.690	 74.137	  4.18139	  2.68029	  1.02754	  4.60977	 -0.43390	 -0.26848	  5.01658	705.22302	 23.50	
 18.707	 68.835	  4.16874	  2.92754	  0.80123	  4.51559	 -0.37696	 -0.27154	  5.00749	705.20398	 23.60	
 18.698	 63.496	  4.17643	  3.18159	  0.59028	  4.41315	 -0.30088	 -0.26435	  5.02170	705.22400	 23.50	
 18.700	 58.206	  4.15545	  3.40201	  0.39270	  4.25752	 -0.20446	 -0.26591	  5.00512	705.24597	 23.50	
 18.713	 52.933	  4.14473	  3.62164	  0.21051	  4.09446	 -0.09371	 -0.26220	  4.99874	705.34698	 23.60	
 18.705	 47.657	  4.14845	  3.83673	  0.05137	  3.91835	  0.04243	 -0.25274	  5.01143	705.39001	 23.60	
 18.699	 42.375	  4.14409	  4.02625	 -0.09308	  3.72428	  0.18707	 -0.24517	  5.01252	705.37903	 23.50	
 18.698	 37.048	  4.12479	  4.18565	 -0.22305	  3.49516	  0.35131	 -0.22970	  4.99841	705.34003	 23.50	
 18.704	 31.745	  4.12698	  4.34552	 -0.33846	  3.26970	  0.53403	 -0.21794	  5.00568	705.42401	 23.50	
 18.695	 26.463	  4.12709	  4.47745	 -0.43276	  3.03433	  0.72926	 -0.20721	  5.01271	705.36499	 23.50	
 18.706	 21.182	  4.10988	  4.56906	 -0.51003	  2.78078	  0.93033	 -0.19735	  5.00083	705.38702	 23.50	
 18.691	 15.915	  4.12241	  4.66547	 -0.56556	  2.53776	  1.16094	 -0.18948	  5.02040	705.34399	 23.50	
 18.703	 10.559	  4.10903	  4.71098	 -0.61083	  2.27191	  1.38956	 -0.18426	  5.00851	705.28302	 23.50	
 18.709	  5.325	  4.10060	  4.74215	 -0.63463	  2.02289	  1.62312	 -0.17909	  5.00865	705.39001	 23.50	
 18.700	  0.000	  4.09218	  4.74372	 -0.63924	  1.76065	  1.87358	 -0.17608	  5.00282	705.29498	 23.50	
 18.709	 -5.325	  4.10326	  4.74704	 -0.63469	  1.52038	  2.13559	 -0.17358	  5.02286	705.29498	 23.50	
 18.703	-10.559	  4.08499	  4.68733	 -0.60383	  1.27755	  2.37719	 -0.17416	  5.00247	705.37000	 23.50	
 18.691	-15.915	  4.07692	  4.61445	 -0.55702	  1.04174	  2.63441	 -0.18197	  4.99757	705.30798	 23.50	
 18.706	-21.182	  4.07682	  4.53157	 -0.49567	  0.82613	  2.88381	 -0.18218	  5.00426	705.34198	 23.50	
 18.695	-26.463	  4.07603	  4.41737	 -0.41216	  0.62511	  3.12890	 -0.17576	  5.00720	705.22601	 23.50	
 18.704	-31.745	  4.06278	  4.27215	 -0.31961	  0.42441	  3.35883	 -0.17105	  4.99475	705.22900	 23.50	
 18.698	-37.048	  4.07461	  4.12324	 -0.20322	  0.24998	  3.59404	 -0.17004	  5.01095	705.45502	 23.50	
 18.699	-42.375	  4.06453	  3.93437	 -0.06863	  0.08958	  3.79774	 -0.17621	  4.99946	705.43701	 23.60	
 18.705	-47.657	  4.05813	  3.73122	  0.07983	 -0.05443	  3.98819	 -0.17745	  4.99765	705.36700	 23.50	
 18.713	-52.933	  4.06790	  3.52757	  0.23887	 -0.18932	  4.17429	 -0.17278	  5.01182	705.23297	 23.50	
 18.700	-58.206	  4.05521	  3.28645	  0.41991	 -0.29729	  4.31450	 -0.17097	  4.99229	705.43500	 23.50	
 18.698	-63.496	  4.06174	  3.05366	  0.61769	 -0.38621	  4.44643	 -0.16735	  4.99824	705.49701	 23.50	
 18.707	-68.835	  4.07718	  2.81425	  0.82887	 -0.46735	  4.57129	 -0.16465	  5.01241	705.38702	 23.50	
 18.690	-74.137	  4.08268	  2.56168	  1.05558	 -0.52240	  4.65625	 -0.16634	  5.01446	705.34802	 23.50	
 18.696	-79.417	  4.07952	  2.30325	  1.28634	 -0.56638	  4.70978	 -0.16823	  5.00944	705.39502	 23.50	
 18.700	-84.691	  4.06704	  2.04266	  1.52451	 -0.59034	  4.73306	 -0.17123	  4.99439	705.23199	 23.50	
 18.700	-90.000	  4.07355	  1.79057	  1.77608	 -0.60113	  4.74961	 -0.16847	  4.99965	705.29401	 23.50	
 18.700	-95.309	  4.08666	  1.54838	  2.03392	 -0.59352	  4.74899	 -0.17913	  5.00806	705.38098	 23.50	
 18.696	-100.583	  4.08398	  1.31050	  2.28605	 -0.56516	  4.70651	 -0.18564	  5.00203	705.38202	 23.50	
 18.690	-105.863	  4.09401	  1.08870	  2.54866	 -0.51830	  4.65508	 -0.19792	  5.00896	705.30798	 23.50	
 18.707	-111.165	  4.08062	  0.86579	  2.79084	 -0.46014	  4.55710	 -0.20713	  4.99077	705.34399	 23.50	
 18.698	-116.504	  4.09612	  0.66259	  3.04705	 -0.38091	  4.46042	 -0.21418	  5.00492	705.56799	 23.50	
 18.700	-121.794	  4.09760	  0.47475	  3.28440	 -0.28829	  4.33027	 -0.21763	  5.00719	705.55103	 23.50	
 18.713	-127.067	  4.10801	  0.30179	  3.51824	 -0.17435	  4.18157	 -0.22588	  5.01234	705.47400	 23.60	
 18.705	-132.343	  4.10771	  0.14971	  3.72525	 -0.03767	  3.99941	 -0.22963	  5.00317	705.45203	 23.60	
 18.699	-137.625	  4.11420	  0.00628	  3.92422	  0.10950	  3.80783	 -0.23447	  5.00388	705.37097	 23.60	
 18.698	-142.952	  4.11281	 -0.11592	  4.09703	  0.27454	  3.59296	 -0.23575	  4.99520	705.39801	 23.60	
 18.704	-148.255	  4.12401	 -0.22453	  4.26298	  0.45426	  3.37452	 -0.23881	  5.00432	705.24701	 23.60	
 18.695	-153.537	  4.13349	 -0.31525	  4.40178	  0.65100	  3.14049	 -0.23698	  5.00658	705.30798	 23.60	
 18.706	-158.818	  4.13395	 -0.39118	  4.51083	  0.85562	  2.89148	 -0.23756	  5.00203	705.28302	 23.60	
 18.691	-164.085	  4.15915	 -0.44194	  4.61584	  1.08473	  2.65608	 -0.24469	  5.02073	705.32501	 23.50	
 18.703	-169.441	  4.15549	 -0.48475	  4.66890	  1.31774	  2.39158	 -0.24412	  5.01252	705.39001	 23.50	
 18.709	-174.675	  4.16280	 -0.50439	  4.70723	  1.55793	  2.14122	 -0.24494	  5.01134	705.50299	 23.60	
 18.700	180.000	  4.17782	 -0.50851	  4.72927	  1.81096	  1.89539	 -0.24458	  5.01999	705.37500	 23.60	
 20.400	180.000	  3.98474	 -0.80179	  4.81219	  1.66274	  1.74516	 -0.23825	  5.00587	705.45502	 23.60	
 20.401	-175.153	  3.96971	 -0.80165	  4.79589	  1.41614	  1.98331	 -0.23656	  4.99743	705.32300	 23.60	
 20.407	-170.264	  3.97441	 -0.78729	  4.77484	  1.17804	  2.24166	 -0.23502	  5.01278	705.42401	 23.60	
 20.410	-165.423	  3.95966	 -0.74935	  4.70718	  0.94339	  2.49191	 -0.23205	  5.00118	705.33002	 23.60	
 20.392	-160.496	  3.95694	 -0.69971	  4.62850	  0.72136	  2.74488	 -0.22939	  5.00186	705.40601	 23.60	
 20.401	-155.705	  3.94770	 -0.63709	  4.52653	  0.51496	  2.98315	 -0.22944	  5.00091	705.37799	 23.60	
 20.405	-150.835	  3.94386	 -0.56280	  4.40573	  0.31407	  3.22527	 -0.22961	  5.00426	705.33398	 23.60	
 20.397	-145.903	  3.93086	 -0.46486	  4.24943	  0.12853	  3.45299	 -0.23762	  4.99734	705.39301	 23.60	
 20.392	-141.062	  3.94644	 -0.35817	  4.10585	 -0.03977	  3.68725	 -0.23706	  5.02530	705.40997	 23.60	
 20.396	-136.227	  3.93272	 -0.23054	  3.91136	 -0.19660	  3.88514	 -0.23468	  5.01194	705.51898	 23.60	
 20.408	-131.372	  3.92224	 -0.09374	  3.70351	 -0.34133	  4.07107	 -0.22759	  5.00723	705.42102	 23.60	
 20.410	-126.511	  3.92664	  0.06132	  3.49886	 -0.46681	  4.25261	 -0.22367	  5.02087	705.29999	 23.50	
 20.400	-121.604	  3.91809	  0.23502	  3.26295	 -0.57212	  4.39693	 -0.21088	  5.01052	705.42102	 23.60	
 20.403	-116.741	  3.91756	  0.41914	  3.02494	 -0.66903	  4.53267	 -0.20177	  5.01656	705.41602	 23.60	
 20.413	-111.900	  3.91610	  0.61552	  2.78102	 -0.75093	  4.64801	 -0.19448	  5.02202	705.36200	 23.60	
 20.398	-107.004	  3.91507	  0.82803	  2.52902	 -0.81375	  4.73661	 -0.18459	  5.02073	705.37299	 23.50	
 20.394	-102.132	  3.89985	  1.04863	  2.26670	 -0.85598	  4.78569	 -0.16950	  5.00806	705.30603	 23.60	
 20.403	-97.332	  3.90129	  1.27555	  2.01481	 -0.89408	  4.83461	 -0.16157	  5.01801	705.45697	 23.60	
 20.392	-92.440	  3.88872	  1.51300	  1.75866	 -0.90345	  4.84220	 -0.15437	  5.00293	705.46503	 23.60	
 20.392	-87.560	  3.88869	  1.76275	  1.50749	 -0.90659	  4.84802	 -0.15507	  5.00659	705.43500	 23.60	
 20.403	-82.668	  3.87560	  2.00750	  1.25672	 -0.89470	  4.81502	 -0.15442	  4.99600	705.51300	 23.60	
 20.394	-77.868	  3.87957	  2.26113	  1.02662	 -0.86313	  4.78216	 -0.15610	  5.00272	705.49597	 23.60	
 20.398	-72.996	  3.87520	  2.51619	  0.79626	 -0.81746	  4.71323	 -0.15508	  4.99979	705.43201	 23.60	
 20.413	-68.100	  3.87669	  2.77095	  0.57842	 -0.76037	  4.63197	 -0.15222	  5.00613	705.50000	 23.50	
 20.403	-63.259	  3.87536	  3.01249	  0.37985	 -0.67825	  4.51666	 -0.15648	  5.00240	705.52698	 23.60	
 20.400	-58.396	  3.87754	  3.25637	  0.18612	 -0.58697	  4.39098	 -0.15840	  5.01063	705.38800	 23.60	
 20.410	-53.489	  3.87616	  3.48762	  0.00704	 -0.48175	  4.23977	 -0.16301	  5.00907	705.46002	 23.60	
 20.408	-48.628	  3.88418	  3.71360	 -0.15804	 -0.36307	  4.07721	 -0.16489	  5.01869	705.44098	 23.60	
 20.396	-43.773	  3.88195	  3.91067	 -0.30020	 -0.21896	  3.87978	 -0.16763	  5.01191	705.40900	 23.60	
 20.392	-38.938	  3.88282	  4.09776	 -0.43305	 -0.06481	  3.67173	 -0.16437	  5.00973	705.37903	 23.60	
 20.397	-34.097	  3.88444	  4.26604	 -0.55047	  0.09660	  3.45747	 -0.16453	  5.01136	705.38702	 23.60	
 20.405	-29.165	  3.88432	  4.41407	 -0.65385	  0.27750	  3.22343	 -0.16843	  5.00855	705.44299	 23.60	
 20.401	-24.295	  3.88647	  4.53884	 -0.74026	  0.47940	  2.97928	 -0.17284	  5.00409	705.42401	 23.60	
 20.392	-19.504	  3.90478	  4.66033	 -0.81303	  0.68379	  2.74545	 -0.17234	  5.02517	705.42102	 23.60	
 20.410	-14.577	  3.90570	  4.74204	 -0.87046	  0.90236	  2.49113	 -0.17439	  5.02157	705.41199	 23.60	
 20.407	 -9.736	  3.90969	  4.80315	 -0.91065	  1.13543	  2.23629	 -0.17064	  5.02426	705.31702	 23.60	
 20.401	 -4.847	  3.90930	  4.83237	 -0.93113	  1.37310	  1.98139	 -0.17098	  5.01325	705.33301	 23.60	
 20.400	  0.000	  3.91407	  4.84738	 -0.94017	  1.61813	  1.73309	 -0.16441	  5.01614	705.43201	 23.60	
 20.401	  4.847	  3.90666	  4.82724	 -0.93020	  1.86521	  1.48359	 -0.16522	  4.99959	705.49902	 23.60	
 20.407	  9.736	  3.91587	  4.80623	 -0.90987	  2.11991	  1.24890	 -0.17050	  5.00926	705.46600	 23.60	
 20.410	 14.577	  3.92288	  4.75934	 -0.87351	  2.37415	  1.01843	 -0.17252	  5.00654	705.47998	 23.60	
 20.392	 19.504	  3.93759	  4.69482	 -0.81797	  2.63928	  0.79857	 -0.18066	  5.01491	705.46100	 23.60	
 20.401	 24.295	  3.93869	  4.59799	 -0.75182	  2.88025	  0.59178	 -0.18799	  5.01009	705.33398	 23.60	
 20.405	 29.165	  3.94129	  4.48126	 -0.67016	  3.12271	  0.39645	 -0.20066	  5.00794	705.37799	 23.60	
 20.397	 34.097	  3.95369	  4.34647	 -0.57025	  3.36906	  0.20875	 -0.21418	  5.01429	705.47498	 23.60	
 20.392	 38.938	  3.95194	  4.18140	 -0.45352	  3.58395	  0.03985	 -0.22166	  5.00526	705.43701	 23.60	
 20.396	 43.773	  3.96100	  4.00591	 -0.31995	  3.79493	 -0.11064	 -0.24212	  5.00676	705.42902	 23.60	
 20.408	 48.628	  3.96127	  3.81085	 -0.18164	  3.98774	 -0.25575	 -0.25697	  5.00283	705.49701	 23.60	
 20.410	 53.489	  3.96340	  3.59991	 -0.02245	  4.16513	 -0.38144	 -0.26452	  5.00191	705.39600	 23.60	
 20.400	 58.396	  3.97000	  3.37550	  0.15874	  4.32490	 -0.48768	 -0.26884	  5.00212	705.33899	 23.60	
 20.403	 63.259	  3.98841	  3.15286	  0.35300	  4.47323	 -0.57757	 -0.27392	  5.01459	705.46002	 23.60	
 20.413	 68.100	  3.98138	  2.90528	  0.55172	  4.57517	 -0.65219	 -0.27126	  5.00016	705.30603	 23.60	
 20.398	 72.996	  3.99371	  2.66223	  0.77327	  4.67404	 -0.71113	 -0.27530	  5.00710	705.36401	 23.60	
 20.394	 77.868	  4.00429	  2.41351	  1.00279	  4.75361	 -0.75762	 -0.27141	  5.01515	705.52698	 23.60	
 20.403	 82.668	  4.00148	  2.16068	  1.23347	  4.79211	 -0.78759	 -0.25535	  5.00843	705.42401	 23.60	
 20.392	 87.560	  4.00607	  1.90985	  1.48213	  4.81393	 -0.79563	 -0.24880	  5.00494	705.32599	 23.60	
 20.392	 92.440	  4.00995	  1.66143	  1.73744	  4.81241	 -0.79215	 -0.23785	  5.00312	705.23798	 23.60	
 20.403	 97.332	  4.01888	  1.42372	  1.99611	  4.80355	 -0.77776	 -0.23775	  5.01003	705.46100	 23.60	
 20.394	102.132	  4.02688	  1.19205	  2.25435	  4.76486	 -0.74457	 -0.23515	  5.01767	705.47699	 23.60	
 20.398	107.004	  4.02173	  0.96447	  2.50888	  4.69119	 -0.69747	 -0.23965	  5.01038	705.58398	 23.60	
 20.413	111.900	  4.01315	  0.74265	  2.75770	  4.59391	 -0.63542	 -0.24320	  4.99514	705.39801	 23.60	
 20.403	116.741	  4.03359	  0.54303	  3.01787	  4.50669	 -0.56227	 -0.24781	  5.02417	705.45801	 23.60	
 20.400	121.604	  4.03213	  0.35044	  3.26057	  4.37183	 -0.46920	 -0.24941	  5.02160	705.41803	 23.60	
 20.410	126.511	  4.02426	  0.16832	  3.48730	  4.21022	 -0.36262	 -0.25375	  5.01344	705.43500	 23.60	
 20.408	131.372	  4.02041	  0.00683	  3.70278	  4.03082	 -0.23589	 -0.25891	  5.00849	705.51898	 23.60	
 20.396	136.227	  4.02506	 -0.14004	  3.91135	  3.84102	 -0.08979	 -0.25871	  5.00959	705.40900	 23.60	
 20.392	141.062	  4.01506	 -0.27619	  4.09038	  3.62709	  0.05990	 -0.25486	  5.00143	705.62299	 23.60	
 20.397	145.903	  4.01429	 -0.39634	  4.25966	  3.40928	  0.22532	 -0.25388	  5.00690	705.41998	 23.60	
 20.405	150.835	  4.01653	 -0.50311	  4.41607	  3.17501	  0.40953	 -0.25630	  5.01060	705.45697	 23.60	
 20.401	155.705	  4.01310	 -0.59155	  4.54120	  2.92956	  0.61013	 -0.25808	  5.01176	705.37000	 23.60	
 20.392	160.496	  4.01511	 -0.66163	  4.64727	  2.69190	  0.81363	 -0.26106	  5.01863	705.29999	 23.60	
 20.410	165.423	  4.00588	 -0.72096	  4.72447	  2.42904	  1.03781	 -0.25375	  5.01446	705.38702	 23.60	
 20.407	170.264	  4.00796	 -0.76444	  4.78622	  2.17887	  1.26782	 -0.25072	  5.02279	705.44397	 23.60	
 20.401	175.153	  3.99609	 -0.78939	  4.80890	  1.91997	  1.50128	 -0.24216	  5.01141	705.34399	 23.60	
  0.141	 45.000	  5.01771	  2.67373	  2.55054	  2.59704	  2.66246	  0.03716	  5.01155	705.39502	 23.60	
  4.001	128.691	  4.99240	  2.24643	  2.87914	  2.99046	  2.17344	  0.01375	  5.00019	705.38702	 23.60	
  4.002	 76.995	  5.00511	  2.74353	  2.36941	  3.11556	  2.07778	  0.01036	  5.00920	705.38501	 23.60	
  4.002	 25.892	  5.00043	  3.15573	  1.98855	  2.77878	  2.36332	  0.01327	  5.01314	705.37799	 23.60	
  4.002	-25.892	  4.98933	  3.13977	  1.98417	  2.25856	  2.87982	  0.01065	  5.00658	705.37500	 23.60	
  4.002	-76.995	  4.98634	  2.71635	  2.36236	  1.96284	  3.21645	  0.00316	  5.00551	705.29999	 23.60	
  4.001	-128.691	  4.98727	  2.22245	  2.88412	  2.07001	  3.09354	  0.01005	  5.00063	705.37903	 23.60	
  4.000	180.000	  4.99720	  2.03577	  3.12455	  2.51555	  2.61893	  0.02179	  5.00747	705.36700	 23.60	
  8.000	180.000	  4.91863	  1.34954	  3.69025	  2.41346	  2.52073	 -0.04108	  5.02149	705.31897	 23.60	
  7.991	-152.370	  4.90259	  1.45435	  3.53560	  1.85811	  3.09104	 -0.03992	  5.01590	705.33398	 23.60	
  7.997	-124.550	  4.89544	  1.79741	  3.11846	  1.44572	  3.55728	 -0.05836	  5.02044	705.43500	 23.60	
  8.006	-96.837	  4.87911	  2.31147	  2.53971	  1.25584	  3.77000	 -0.07661	  5.01180	705.44000	 23.60	
  7.988	-69.228	  4.87914	  2.90017	  1.96373	  1.31990	  3.69598	 -0.07286	  5.01837	705.44000	 23.60	
  7.997	-41.563	  4.88304	  3.41357	  1.50791	  1.61546	  3.34650	 -0.06765	  5.02296	705.52002	 23.60	
  8.008	-13.821	  4.87240	  3.70506	  1.25552	  2.10358	  2.79157	 -0.05047	  5.00369	705.38098	 23.60	
  8.008	 13.821	  4.88306	  3.72025	  1.25177	  2.69044	  2.20718	 -0.05540	  5.00757	705.46600	 23.60	
  7.997	 41.563	  4.90066	  3.44586	  1.50174	  3.23722	  1.72698	 -0.05754	  5.01337	705.37903	 23.60	
  7.988	 69.228	  4.91423	  2.95037	  1.95851	  3.60222	  1.43261	 -0.05609	  5.01399	705.41302	 23.60	
  8.006	 96.837	  4.92046	  2.36894	  2.53811	  3.68606	  1.37662	 -0.06561	  5.01464	705.42401	 23.60	
  7.997	124.550	  4.91311	  1.84355	  3.10459	  3.45806	  1.55970	 -0.05132	  5.00763	705.44098	 23.60	
  7.991	152.370	  4.91535	  1.48673	  3.52976	  2.99316	  1.96459	 -0.03906	  5.01080	705.42102	 23.60	
 12.009	161.059	  4.72255	  0.72894	  4.04731	  2.84187	  1.75830	 -0.11902	  5.01242	705.40399	 23.60	
 12.013	142.081	  4.72349	  0.98212	  3.73143	  3.40510	  1.26060	 -0.12988	  5.00994	705.46802	 23.60	
 12.006	123.113	  4.73576	  1.38570	  3.25577	  3.84792	  0.90886	 -0.15047	  5.01680	705.47198	 23.60	
 12.007	104.200	  4.73167	  1.90515	  2.66530	  4.10622	  0.69721	 -0.16925	  5.01594	705.48199	 23.60	
 11.989	 85.301	  4.72099	  2.48909	  2.04988	  4.14716	  0.65308	 -0.16796	  5.01040	705.30902	 23.60	
 12.013	 66.294	  4.70264	  3.08052	  1.47542	  3.97727	  0.76751	 -0.14751	  5.00097	705.36401	 23.60	
 12.012	 47.388	  4.70846	  3.61819	  1.01254	  3.62588	  1.05608	 -0.14865	  5.01826	705.28601	 23.60	
 11.990	 28.440	  4.69512	  4.00103	  0.69071	  3.11246	  1.48388	 -0.14085	  5.02044	705.30798	 23.60	
 11.991	  9.464	  4.67822	  4.19132	  0.52384	  2.51558	  2.02024	 -0.14461	  5.01571	705.39001	 23.60	
 11.991	 -9.464	  4.66072	  4.17103	  0.52679	  1.90930	  2.61661	 -0.13305	  5.00671	705.40198	 23.60	
 11.990	-28.440	  4.65475	  3.95409	  0.69778	  1.36720	  3.21195	 -0.13983	  5.01180	705.38098	 23.60	
 12.012	-47.388	  4.64411	  3.54499	  1.02133	  0.94166	  3.70661	 -0.15494	  5.00614	705.38702	 23.60	
 12.013	-66.294	  4.64473	  3.00613	  1.48532	  0.65562	  4.06002	 -0.16605	  5.00761	705.27197	 23.60	
 11.989	-85.301	  4.65938	  2.40928	  2.06146	  0.54040	  4.22228	 -0.17466	  5.01191	705.28497	 23.60	
 12.007	-104.200	  4.66507	  1.82214	  2.66908	  0.58020	  4.17372	 -0.17043	  5.01386	705.30902	 23.60	
 12.006	-123.113	  4.67436	  1.31642	  3.25167	  0.78867	  3.92278	 -0.14042	  5.01482	705.40399	 23.60	
 12.013	-142.081	  4.68726	  0.93390	  3.73378	  1.15353	  3.48948	 -0.12847	  5.01620	705.41302	 23.60	
 12.009	-161.059	  4.69578	  0.69890	  4.04479	  1.64847	  2.93175	 -0.13170	  5.01036	705.26398	 23.60	
 16.000	180.000	  4.40880	 -0.06332	  4.51702	  1.98881	  2.08044	 -0.21962	  5.00189	705.37903	 23.60	
 15.990	-165.604	  4.40846	 -0.01961	  4.45188	  1.41434	  2.68708	 -0.22344	  5.01862	705.51099	 23.60	
 16.002	-151.165	  4.38080	  0.14280	  4.19643	  0.89258	  3.26244	 -0.21082	  5.00717	705.42603	 23.60	
 16.002	-136.836	  4.36842	  0.41701	  3.81095	  0.46036	  3.78009	 -0.20234	  5.00792	705.35400	 23.60	
 15.995	-122.439	  4.36709	  0.80955	  3.31342	  0.14498	  4.19347	 -0.20254	  5.01660	705.51398	 23.60	
 15.993	-107.966	  4.35147	  1.28878	  2.72413	 -0.06828	  4.46080	 -0.21157	  5.00936	705.46100	 23.60	
 16.005	-93.629	  4.34873	  1.84806	  2.12258	 -0.16073	  4.58531	 -0.20705	  5.01717	705.40997	 23.60	
 15.992	-79.234	  4.33606	  2.44419	  1.52766	 -0.13313	  4.53934	 -0.19005	  5.00908	705.35101	 23.60	
 16.009	-64.774	  4.33836	  3.04975	  0.98496	  0.00822	  4.35126	 -0.18453	  5.02027	705.32599	 23.60	
 15.997	-50.364	  4.33775	  3.59639	  0.53239	  0.27310	  4.00081	 -0.18797	  5.01659	705.44397	 23.60	
 15.997	-36.045	  4.34521	  4.05380	  0.18143	  0.64130	  3.53737	 -0.18352	  5.02129	705.47699	 23.60	
 16.000	-21.597	  4.34976	  4.37629	 -0.05925	  1.10936	  2.97809	 -0.17867	  5.01814	705.51398	 23.60	
 16.003	 -7.169	  4.34671	  4.53712	 -0.18329	  1.66070	  2.36549	 -0.17478	  5.00465	705.51599	 23.60	
 16.003	  7.169	  4.35662	  4.54844	 -0.18956	  2.25615	  1.76915	 -0.18846	  5.00406	705.43298	 23.60	
 16.000	 21.597	  4.36483	  4.39949	 -0.07419	  2.85845	  1.21597	 -0.20033	  4.99982	705.40601	 23.60	
 15.997	 36.045	  4.39116	  4.11450	  0.15736	  3.43293	  0.74756	 -0.21204	  5.01441	705.57501	 23.60	
 15.997	 50.364	  4.40486	  3.68384	  0.50362	  3.91834	  0.36909	 -0.22953	  5.01531	705.45697	 23.60	
 16.009	 64.774	  4.41351	  3.14702	  0.95594	  4.27215	  0.10769	 -0.23023	  5.00699	705.46899	 23.60	
 15.992	 79.234	  4.42052	  2.55215	  1.49918	  4.47704	 -0.03626	 -0.24632	  5.00430	705.38098	 23.60	
 16.005	 93.629	  4.42654	  1.95157	  2.09729	  4.52100	 -0.06055	 -0.25394	  5.00307	705.42902	 23.60	
 15.993	107.966	  4.43277	  1.39094	  2.70876	  4.40041	  0.03833	 -0.24852	  5.00053	705.40198	 23.60	
 15.995	122.439	  4.43671	  0.89152	  3.29910	  4.12880	  0.24440	 -0.23217	  5.00330	705.55103	 23.60	
 16.002	136.836	  4.43428	  0.48535	  3.80850	  3.71222	  0.55931	 -0.21553	  5.00182	705.45801	 23.60	
 16.002	151.165	  4.43979	  0.18800	  4.20793	  3.19917	  0.98819	 -0.20488	  5.01438	705.50598	 23.60	
 15.990	165.604	  4.42851	  0.00245	  4.44739	  2.59958	  1.50933	 -0.20804	  5.01347	705.40997	 23.60	
 20.003	168.362	  4.05136	 -0.67648	  4.74130	  2.29960	  1.22202	 -0.25266	  5.01502	705.54999	 23.60	
 20.008	156.764	  4.05278	 -0.54155	  4.54612	  2.88941	  0.70118	 -0.25490	  5.00694	705.45099	 23.60	
 20.000	145.147	  4.07414	 -0.31726	  4.24214	  3.46167	  0.25442	 -0.25496	  5.02672	705.52698	 23.60	
 19.995	133.545	  4.06740	  0.00221	  3.79613	  3.94082	 -0.10731	 -0.25982	  5.01186	705.37903	 23.50	
 20.009	121.926	  4.06903	  0.39129	  3.27762	  4.34204	 -0.39834	 -0.25476	  5.01286	705.46503	 23.50	
 20.005	110.327	  4.06123	  0.86034	  2.69753	  4.61022	 -0.58928	 -0.24605	  5.00260	705.38098	 23.50	
 19.989	 98.733	  4.06821	  1.39315	  2.10227	  4.77336	 -0.70192	 -0.23752	  5.01716	705.38202	 23.50	
 19.999	 87.075	  4.06078	  1.97004	  1.50439	  4.80136	 -0.72286	 -0.25709	  5.01624	705.37903	 23.50	
 19.992	 75.457	  4.05250	  2.56026	  0.94362	  4.70042	 -0.65877	 -0.27274	  5.01554	705.46503	 23.50	
 20.009	 63.844	  4.03480	  3.13339	  0.43674	  4.47212	 -0.51643	 -0.27584	  5.01307	705.49597	 23.50	
 19.989	 52.269	  4.01813	  3.65896	  0.00666	  4.11593	 -0.27537	 -0.26374	  5.00651	705.47198	 23.50	
 19.999	 40.602	  4.01049	  4.12389	 -0.34262	  3.66639	  0.05053	 -0.23861	  5.01793	705.47699	 23.50	
 20.004	 29.051	  3.99165	  4.47361	 -0.60165	  3.13107	  0.45890	 -0.20327	  5.01498	705.53900	 23.50	
 20.005	 17.433	  3.97376	  4.70275	 -0.77344	  2.54748	  0.93839	 -0.18809	  5.00746	705.40399	 23.50	
 20.006	  5.780	  3.97125	  4.82426	 -0.86161	  1.95267	  1.48314	 -0.17167	  5.02066	705.50598	 23.50	
 20.006	 -5.780	  3.95163	  4.80192	 -0.85510	  1.36840	  2.05841	 -0.16882	  5.01143	705.45801	 23.50	
 20.005	-17.433	  3.94787	  4.67650	 -0.76822	  0.82370	  2.65803	 -0.17389	  5.01801	705.51099	 23.50	
 20.004	-29.051	  3.94147	  4.41598	 -0.59050	  0.34325	  3.23385	 -0.16823	  5.02043	705.54999	 23.50	
 19.999	-40.602	  3.93467	  4.03514	 -0.32359	 -0.05605	  3.74915	 -0.16653	  5.01711	705.53601	 23.50	
 19.989	-52.269	  3.93344	  3.55824	  0.02462	 -0.38514	  4.19813	 -0.16463	  5.01908	705.61298	 23.60	
 20.009	-63.844	  3.92977	  3.00722	  0.45645	 -0.61965	  4.52511	 -0.16034	  5.01409	705.55103	 23.50	
 19.992	-75.457	  3.93004	  2.41760	  0.96297	 -0.76385	  4.73217	 -0.15938	  5.00363	705.44702	 23.50	
 19.999	-87.075	  3.93497	  1.82615	  1.51800	 -0.82738	  4.82021	 -0.16134	  5.00216	705.51599	 23.50	
 19.989	-98.733	  3.94181	  1.25255	  2.11382	 -0.80520	  4.79301	 -0.16833	  5.00279	705.53699	 23.60	
 20.005	-110.327	  3.94500	  0.73184	  2.70446	 -0.69598	  4.63933	 -0.19387	  5.00078	705.58398	 23.60	
 20.009	-121.926	  3.95522	  0.28357	  3.27513	 -0.49697	  4.36717	 -0.21266	  5.00292	705.47498	 23.60	
 19.995	-133.545	  3.98502	 -0.08892	  3.80616	 -0.21252	  3.99608	 -0.23446	  5.02284	705.40399	 23.60	
 20.000	-145.147	  3.99529	 -0.38005	  4.23040	  0.16155	  3.50754	 -0.23712	  5.01861	705.44098	 23.50	
 20.008	-156.764	  4.00451	 -0.58503	  4.54416	  0.61449	  2.95279	 -0.23421	  5.01504	705.40198	 23.60	
 20.003	-168.362	  4.01676	 -0.69922	  4.73019	  1.13104	  2.37048	 -0.23876	  5.00947	705.34003	 23.50	
 20.000	180.000	  4.03306	 -0.72913	  4.79475	  1.70083	  1.78254	 -0.23815	  5.01051	705.38202	 23.50	
