FileType=PCF
NHL=14
Date=08/29/17	08:39:27
Facility=APL
Serial=16328-13
Customer=NASA
NP=6
Mach=0.150000
Calibration=1:1
CalPts=490
TstPts=95
PortNumbering=AP Standard
Units=Torr C m/s kg/m^3 deg mm 
Theta[deg]	Phi[deg]	P1[Torr]	P2[Torr]	P3[Torr]	P4[Torr]	P5[Torr]	P6[Torr]	Pt[Torr]	Ps[Abs,Torr]	Ts[C]	
  0.000	  0.000	 11.13896	  5.83487	  5.62299	  5.65280	  5.88568	  0.09131	 11.13090	705.39301	 23.50	
  1.691	128.401	 11.15122	  5.49567	  5.96705	  6.08855	  5.44652	  0.08755	 11.14150	705.63800	 23.50	
  1.692	 77.194	 11.14108	  5.96322	  5.47810	  6.19622	  5.33041	  0.08522	 11.12876	705.60999	 23.50	
  1.699	 26.182	 11.13855	  6.33463	  5.10461	  5.89297	  5.61918	  0.08416	 11.13111	705.59003	 23.50	
  1.699	-26.182	 11.17050	  6.33833	  5.12300	  5.41285	  6.12900	  0.07965	 11.16243	705.68298	 23.50	
  1.692	-77.194	 11.14391	  5.93535	  5.49154	  5.11205	  6.42205	  0.07819	 11.13868	705.46002	 23.50	
  1.691	-128.401	 11.16648	  5.48331	  5.98053	  5.22184	  6.33075	  0.07961	 11.15413	705.65503	 23.50	
  1.700	180.000	 11.15215	  5.27874	  6.19145	  5.64323	  5.88570	  0.08683	 11.14148	705.54999	 23.50	
  3.400	180.000	 11.13478	  4.68847	  6.74564	  5.58322	  5.82858	  0.06612	 11.13825	705.52002	 23.50	
  3.388	-152.325	 11.13717	  4.80040	  6.59801	  5.07140	  6.36076	  0.04568	 11.14404	705.58698	 23.50	
  3.397	-124.529	 11.12146	  5.12232	  6.20900	  4.68256	  6.77522	  0.03910	 11.13659	705.52802	 23.50	
  3.399	-96.763	 11.12675	  5.61032	  5.68553	  4.50747	  6.97630	  0.03128	 11.14265	705.40997	 23.50	
  3.394	-69.283	 11.12556	  6.14531	  5.15464	  4.56946	  6.90315	  0.03049	 11.14860	705.42401	 23.50	
  3.400	-41.398	 11.13042	  6.61819	  4.72442	  4.85823	  6.57372	  0.04365	 11.15176	705.46600	 23.50	
  3.401	-14.021	 11.11818	  6.87840	  4.48853	  5.29101	  6.09576	  0.04666	 11.13416	705.42603	 23.50	
  3.401	 14.021	 11.12085	  6.89442	  4.48646	  5.86099	  5.53318	  0.05680	 11.13303	705.56799	 23.50	
  3.400	 41.398	 11.13627	  6.64466	  4.73065	  6.36175	  5.08865	  0.05809	 11.14140	705.52802	 23.50	
  3.394	 69.283	 11.16167	  6.21743	  5.15846	  6.67844	  4.82709	  0.05259	 11.16339	705.40198	 23.50	
  3.399	 96.763	 11.14848	  5.66264	  5.70014	  6.74821	  4.75656	  0.05291	 11.15190	705.43701	 23.50	
  3.397	124.529	 11.15697	  5.18023	  6.22014	  6.55054	  4.93820	  0.05191	 11.16103	705.49902	 23.50	
  3.388	152.325	 11.13517	  4.82414	  6.59324	  6.11064	  5.31953	  0.05728	 11.13820	705.51300	 23.40	
  5.099	161.165	 11.09139	  4.14764	  7.18261	  6.06599	  5.18781	  0.02434	 11.13562	705.59900	 23.50	
  5.109	142.013	 11.09302	  4.40438	  6.88758	  6.59326	  4.70463	  0.01834	 11.14140	705.50299	 23.50	
  5.095	123.033	 11.12704	  4.80749	  6.45437	  7.01019	  4.37479	  0.01054	 11.17036	705.51898	 23.40	
  5.105	104.191	 11.10671	  5.29801	  5.89527	  7.24511	  4.15304	  0.00320	 11.14589	705.65503	 23.40	
  5.093	 85.207	 11.08335	  5.85543	  5.30157	  7.27429	  4.10567	 -0.00066	 11.12877	705.56201	 23.40	
  5.104	 66.290	 11.10732	  6.42768	  4.77733	  7.14487	  4.23238	 -0.00024	 11.15930	705.48199	 23.40	
  5.094	 47.331	 11.10851	  6.92484	  4.32476	  6.81106	  4.52108	  0.00467	 11.16724	705.40100	 23.40	
  5.089	 28.397	 11.08445	  7.26612	  3.99896	  6.33339	  4.92668	  0.00661	 11.15295	705.44897	 23.40	
  5.096	  9.576	 11.09369	  7.46239	  3.83808	  5.78835	  5.45511	  0.00503	 11.16972	705.40997	 23.40	
  5.096	 -9.576	 11.05599	  7.42846	  3.82656	  5.19536	  6.01523	  0.00723	 11.13422	705.51099	 23.40	
  5.089	-28.397	 11.05338	  7.21910	  4.00206	  4.68844	  6.55721	  0.00196	 11.14162	705.43701	 23.40	
  5.094	-47.331	 11.07072	  6.85807	  4.33055	  4.27005	  7.04341	 -0.01218	 11.15847	705.56702	 23.40	
  5.104	-66.290	 11.06799	  6.35949	  4.78233	  3.98002	  7.38063	 -0.02524	 11.15957	705.47498	 23.40	
  5.093	-85.207	 11.04730	  5.78640	  5.31637	  3.84772	  7.51314	 -0.02720	 11.12774	705.67102	 23.40	
  5.105	-104.191	 11.07003	  5.23299	  5.90763	  3.89259	  7.48551	 -0.02482	 11.15408	705.50299	 23.40	
  5.095	-123.033	 11.08058	  4.74440	  6.45289	  4.11151	  7.24482	 -0.01109	 11.15419	705.62598	 23.40	
  5.109	-142.013	 11.10660	  4.36763	  6.91513	  4.48022	  6.85174	  0.00208	 11.17365	705.61700	 23.40	
  5.099	-161.165	 11.10049	  4.12632	  7.19964	  4.95869	  6.32174	  0.01294	 11.15901	705.60303	 23.40	
  5.100	180.000	 11.11097	  4.05930	  7.29884	  5.50557	  5.75988	  0.01941	 11.16231	705.56500	 23.40	
  6.800	180.000	 11.01495	  3.40718	  7.82079	  5.40239	  5.65822	 -0.04155	 11.15605	705.57800	 23.40	
  6.796	-166.229	 11.01707	  3.45398	  7.75823	  4.86207	  6.21809	 -0.04589	 11.16653	705.57501	 23.40	
  6.808	-152.311	 10.98083	  3.60345	  7.52800	  4.34316	  6.73961	 -0.05120	 11.13983	705.56201	 23.40	
  6.795	-138.383	 11.00431	  3.89168	  7.20261	  3.91118	  7.24649	 -0.06892	 11.17887	705.55402	 23.40	
  6.792	-124.591	 10.98183	  4.27005	  6.74262	  3.56134	  7.62570	 -0.07954	 11.15860	705.56201	 23.40	
  6.787	-110.754	 10.96634	  4.72982	  6.21594	  3.32316	  7.89085	 -0.09404	 11.14913	705.58099	 23.40	
  6.800	-96.985	 10.94393	  5.23887	  5.64893	  3.19630	  8.01639	 -0.11061	 11.13865	705.48901	 23.40	
  6.800	-83.015	 10.95566	  5.81554	  5.08279	  3.20176	  8.02596	 -0.11350	 11.15705	705.60101	 23.40	
  6.787	-69.246	 10.95170	  6.36608	  4.54973	  3.32123	  7.87984	 -0.10475	 11.15418	705.52802	 23.40	
  6.792	-55.409	 10.93130	  6.87055	  4.06597	  3.54503	  7.59131	 -0.09709	 11.13250	705.39301	 23.40	
  6.795	-41.617	 10.95336	  7.33136	  3.68170	  3.89347	  7.21126	 -0.08181	 11.15621	705.46100	 23.40	
  6.808	-27.689	 10.94174	  7.67372	  3.37652	  4.32363	  6.71229	 -0.06421	 11.14155	705.55103	 23.40	
  6.796	-13.771	 10.95494	  7.89768	  3.20347	  4.83152	  6.17465	 -0.05839	 11.14519	705.54199	 23.40	
  6.800	  0.000	 10.95296	  7.97425	  3.13944	  5.37081	  5.61616	 -0.06618	 11.13812	705.53003	 23.40	
  6.796	 13.771	 10.98377	  7.93247	  3.19815	  5.94565	  5.07689	 -0.06634	 11.16158	705.43201	 23.40	
  6.808	 27.689	 10.99569	  7.73925	  3.37533	  6.49359	  4.57296	 -0.06068	 11.16146	705.49200	 23.40	
  6.795	 41.617	 11.00608	  7.40290	  3.67919	  6.97742	  4.15221	 -0.06713	 11.16269	705.46802	 23.40	
  6.792	 55.409	 11.01598	  6.97355	  4.07408	  7.37449	  3.81874	 -0.07244	 11.15706	705.40399	 23.40	
  6.787	 69.246	 11.00937	  6.45707	  4.54328	  7.64911	  3.58479	 -0.06966	 11.14676	705.49597	 23.40	
  6.800	 83.015	 11.03228	  5.92014	  5.07967	  7.81218	  3.47440	 -0.07742	 11.15946	705.58698	 23.40	
  6.800	 96.985	 11.01679	  5.34538	  5.64330	  7.80130	  3.46840	 -0.07787	 11.13956	705.40900	 23.40	
  6.787	110.754	 11.05436	  4.84135	  6.22053	  7.68188	  3.60656	 -0.06567	 11.18086	705.53003	 23.40	
  6.792	124.591	 11.02187	  4.35714	  6.72537	  7.38494	  3.82679	 -0.05896	 11.14831	705.51398	 23.40	
  6.795	138.383	 11.00933	  3.96509	  7.16611	  6.98206	  4.16507	 -0.05008	 11.13652	705.44897	 23.40	
  6.808	152.311	 11.01330	  3.66436	  7.52143	  6.50873	  4.59059	 -0.03999	 11.14256	705.46802	 23.40	
  6.796	166.229	 11.03547	  3.48666	  7.75459	  5.97955	  5.11048	 -0.03567	 11.16852	705.54999	 23.40	
  8.491	168.704	 10.88850	  2.79956	  8.24579	  5.85699	  4.94943	 -0.11066	 11.14506	705.41602	 23.40	
  8.502	157.493	 10.89263	  2.94863	  8.07050	  6.41375	  4.42519	 -0.10617	 11.14573	705.49200	 23.40	
  8.494	146.194	 10.90903	  3.20786	  7.78174	  6.94923	  3.95926	 -0.12237	 11.16298	705.45697	 23.40	
  8.495	135.039	 10.90512	  3.53615	  7.38834	  7.41038	  3.55176	 -0.13702	 11.15422	705.37299	 23.40	
  8.487	123.723	 10.90708	  3.95515	  6.90725	  7.79871	  3.22596	 -0.14448	 11.15227	705.44000	 23.40	
  8.492	112.575	 10.93277	  4.43459	  6.39477	  8.10099	  2.99669	 -0.15273	 11.17649	705.46100	 23.40	
  8.510	101.220	 10.90067	  4.94944	  5.80325	  8.26075	  2.83566	 -0.17307	 11.14713	705.36401	 23.40	
  8.500	 90.000	 10.90557	  5.51166	  5.22795	  8.31758	  2.79004	 -0.17593	 11.15258	705.31097	 23.40	
  8.510	 78.780	 10.90112	  6.08235	  4.65553	  8.25934	  2.82662	 -0.16238	 11.16108	705.34802	 23.40	
  8.492	 67.425	 10.89748	  6.64640	  4.11940	  8.07673	  2.96901	 -0.14776	 11.16447	705.45502	 23.40	
  8.487	 56.277	 10.87430	  7.14857	  3.63605	  7.77690	  3.19647	 -0.15633	 11.14894	705.47699	 23.40	
  8.495	 44.961	 10.85418	  7.60622	  3.21245	  7.37767	  3.51344	 -0.15355	 11.14418	705.30902	 23.30	
  8.494	 33.806	 10.82652	  7.96241	  2.87995	  6.89477	  3.91193	 -0.14186	 11.12324	705.43500	 23.40	
  8.502	 22.507	 10.84015	  8.26021	  2.63974	  6.38309	  4.38757	 -0.14166	 11.15797	705.35602	 23.30	
  8.491	 11.296	 10.81263	  8.40672	  2.49653	  5.81191	  4.90609	 -0.15092	 11.13692	705.31097	 23.30	
  8.500	  0.000	 10.81522	  8.46577	  2.44955	  5.23310	  5.47958	 -0.14909	 11.15025	705.46503	 23.30	
  8.491	-11.296	 10.81460	  8.39554	  2.50718	  4.67201	  6.05674	 -0.13589	 11.15264	705.34802	 23.30	
  8.502	-22.507	 10.80140	  8.20681	  2.64828	  4.14481	  6.61061	 -0.13306	 11.14565	705.51099	 23.30	
  8.494	-33.806	 10.79246	  7.90385	  2.89362	  3.66328	  7.14128	 -0.15272	 11.14846	705.47498	 23.30	
  8.495	-44.961	 10.79116	  7.51608	  3.22407	  3.25296	  7.61192	 -0.18002	 11.15003	705.44397	 23.30	
  8.487	-56.277	 10.81274	  7.05218	  3.65313	  2.94106	  8.00380	 -0.18902	 11.16662	705.46600	 23.30	
  8.492	-67.425	 10.79288	  6.51741	  4.11999	  2.69754	  8.27835	 -0.20105	 11.14899	705.41803	 23.30	
  8.510	-78.780	 10.80567	  5.95466	  4.66214	  2.54484	  8.47162	 -0.21036	 11.16110	705.59802	 23.30	
  8.500	-90.000	 10.80174	  5.37610	  5.23236	  2.49914	  8.52319	 -0.21075	 11.14861	705.57300	 23.30	
  8.510	-101.220	 10.80945	  4.81799	  5.81101	  2.54637	  8.47293	 -0.20152	 11.15264	705.52301	 23.30	
  8.492	-112.575	 10.83224	  4.30176	  6.39458	  2.70990	  8.30245	 -0.17507	 11.16412	705.45502	 23.40	
  8.487	-123.723	 10.83885	  3.84092	  6.91854	  2.95098	  8.02213	 -0.15482	 11.16650	705.44000	 23.30	
  8.495	-135.039	 10.84978	  3.43901	  7.39690	  3.27741	  7.64901	 -0.14554	 11.16712	705.44702	 23.30	
  8.494	-146.194	 10.87014	  3.12740	  7.79402	  3.69484	  7.19407	 -0.13459	 11.17818	705.50500	 23.30	
  8.502	-157.493	 10.87379	  2.89656	  8.08653	  4.18057	  6.65790	 -0.12295	 11.16771	705.37299	 23.40	
  8.491	-168.704	 10.87713	  2.77104	  8.25443	  4.70628	  6.09767	 -0.12286	 11.16294	705.45203	 23.40	
  8.500	180.000	 10.89714	  2.73760	  8.32271	  5.27725	  5.52954	 -0.12386	 11.16939	705.56799	 23.30	
 10.200	180.000	 10.71943	  2.05646	  8.78030	  5.11549	  5.36320	 -0.21470	 11.15896	705.40900	 23.40	
 10.191	-170.497	 10.70279	  2.07611	  8.72975	  4.53962	  5.93832	 -0.22117	 11.15809	705.29102	 23.30	
 10.210	-161.034	 10.69047	  2.17868	  8.57945	  3.99497	  6.50961	 -0.21086	 11.16380	705.43701	 23.40	
 10.194	-151.526	 10.68283	  2.37230	  8.32390	  3.48548	  7.06565	 -0.21596	 11.16581	705.40601	 23.40	
 10.190	-142.105	 10.65962	  2.63485	  7.97244	  3.03165	  7.56130	 -0.22051	 11.15719	705.45099	 23.40	
 10.215	-132.646	 10.66198	  2.97186	  7.56715	  2.64513	  8.01554	 -0.22843	 11.16853	705.40900	 23.40	
 10.203	-123.092	 10.65149	  3.38462	  7.07036	  2.32251	  8.39147	 -0.24181	 11.16702	705.52698	 23.40	
 10.192	-113.678	 10.63799	  3.85216	  6.52560	  2.08064	  8.67140	 -0.26031	 11.16234	705.41998	 23.40	
 10.208	-104.249	 10.63763	  4.36370	  5.96209	  1.90896	  8.88068	 -0.29401	 11.17327	705.51099	 23.40	
 10.210	-94.801	 10.62600	  4.91250	  5.37253	  1.82096	  8.97733	 -0.31282	 11.16662	705.40399	 23.40	
 10.210	-85.199	 10.59422	  5.48431	  4.76618	  1.81327	  8.95454	 -0.31903	 11.14540	705.47400	 23.40	
 10.208	-75.751	 10.60094	  6.06765	  4.20862	  1.89568	  8.85968	 -0.31309	 11.15313	705.54999	 23.40	
 10.192	-66.322	 10.60643	  6.63679	  3.68599	  2.06762	  8.65787	 -0.30070	 11.16100	705.44702	 23.40	
 10.203	-56.908	 10.60215	  7.17167	  3.19994	  2.30424	  8.36471	 -0.29044	 11.15743	705.38098	 23.40	
 10.215	-47.354	 10.62085	  7.68129	  2.77584	  2.62502	  7.99543	 -0.27524	 11.17993	705.44397	 23.40	
 10.190	-37.895	 10.59188	  8.07410	  2.41841	  3.00032	  7.52323	 -0.25457	 11.14403	705.43500	 23.40	
 10.194	-28.474	 10.62768	  8.44325	  2.14265	  3.45199	  7.04007	 -0.22843	 11.17171	705.52698	 23.40	
 10.210	-18.966	 10.63210	  8.70758	  1.92826	  3.95919	  6.47978	 -0.21947	 11.17163	705.52197	 23.40	
 10.191	 -9.503	 10.61899	  8.84515	  1.80389	  4.49261	  5.89651	 -0.22169	 11.14805	705.37000	 23.40	
 10.200	  0.000	 10.63193	  8.91663	  1.75791	  5.06424	  5.31887	 -0.23618	 11.15425	705.71997	 23.40	
 10.191	  9.503	 10.66860	  8.90196	  1.79773	  5.67130	  4.75193	 -0.24228	 11.18235	705.51898	 23.40	
 10.210	 18.966	 10.65139	  8.74310	  1.90944	  6.23032	  4.19888	 -0.23552	 11.15378	705.49902	 23.40	
 10.194	 28.474	 10.69730	  8.53089	  2.12680	  6.80728	  3.71605	 -0.22967	 11.18542	705.46899	 23.30	
 10.190	 37.895	 10.70373	  8.20300	  2.40333	  7.32311	  3.26598	 -0.24129	 11.18291	705.37097	 23.30	
 10.215	 47.354	 10.67726	  7.77450	  2.73980	  7.75998	  2.86040	 -0.24728	 11.14588	705.34003	 23.40	
 10.203	 56.908	 10.70051	  7.30545	  3.17614	  8.14750	  2.56240	 -0.24508	 11.15524	705.44000	 23.30	
 10.192	 66.322	 10.73169	  6.79279	  3.67164	  8.45431	  2.34372	 -0.24126	 11.16926	705.43298	 23.40	
 10.208	 75.751	 10.72132	  6.22720	  4.18993	  8.65184	  2.17991	 -0.25377	 11.15253	705.39001	 23.40	
 10.210	 85.199	 10.73610	  5.65503	  4.75787	  8.76509	  2.10563	 -0.27390	 11.15720	705.45203	 23.40	
 10.210	 94.801	 10.74492	  5.06996	  5.35826	  8.77257	  2.10857	 -0.28152	 11.15911	705.39001	 23.40	
 10.208	104.249	 10.74517	  4.51583	  5.94350	  8.66866	  2.19429	 -0.27176	 11.15606	705.26398	 23.40	
 10.192	113.678	 10.75331	  4.00039	  6.51877	  8.46778	  2.36695	 -0.25039	 11.16165	705.41302	 23.40	
 10.203	123.092	 10.75440	  3.51806	  7.06387	  8.18541	  2.59802	 -0.24038	 11.16430	705.32599	 23.40	
 10.215	132.646	 10.73931	  3.08615	  7.55010	  7.80067	  2.90063	 -0.22754	 11.15240	705.43500	 23.30	
 10.190	142.105	 10.75445	  2.74162	  7.98167	  7.35623	  3.30185	 -0.21473	 11.17010	705.43500	 23.30	
 10.194	151.526	 10.74068	  2.45540	  8.31867	  6.83615	  3.74867	 -0.19721	 11.16106	705.36200	 23.40	
 10.210	161.034	 10.72155	  2.23298	  8.56485	  6.27508	  4.23993	 -0.18488	 11.14712	705.39502	 23.30	
 10.191	170.497	 10.72980	  2.11380	  8.72391	  5.70940	  4.78823	 -0.19826	 11.15966	705.27100	 23.40	
 11.899	171.783	 10.51198	  1.42100	  9.15656	  5.52258	  4.59112	 -0.29068	 11.15702	705.38702	 23.40	
 11.890	163.610	 10.53947	  1.53554	  9.03829	  6.11140	  4.05502	 -0.27407	 11.17481	705.41602	 23.30	
 11.889	155.445	 10.53674	  1.71674	  8.80927	  6.67487	  3.53862	 -0.27083	 11.16289	705.50299	 23.30	
 11.909	147.299	 10.53025	  1.95363	  8.50244	  7.21019	  3.05500	 -0.28544	 11.15756	705.52002	 23.30	
 11.902	139.148	 10.54646	  2.26830	  8.12843	  7.70725	  2.64004	 -0.29891	 11.16563	705.41602	 23.30	
 11.894	130.867	 10.54411	  2.64818	  7.67102	  8.14046	  2.27989	 -0.31321	 11.15795	705.45801	 23.30	
 11.897	122.732	 10.55989	  3.07193	  7.18182	  8.52676	  1.97587	 -0.33524	 11.17383	705.47198	 23.30	
 11.903	114.597	 10.54989	  3.54183	  6.63279	  8.82212	  1.72981	 -0.35403	 11.16527	705.52002	 23.30	
 11.893	106.346	 10.54340	  4.06508	  6.04796	  9.03662	  1.55342	 -0.37412	 11.16011	705.44397	 23.30	
 11.892	 98.155	 10.53971	  4.61328	  5.45450	  9.16539	  1.44715	 -0.38806	 11.15843	705.33002	 23.30	
 11.900	 90.000	 10.52870	  5.17855	  4.86075	  9.20286	  1.40616	 -0.38768	 11.15503	705.54401	 23.30	
 11.892	 81.845	 10.52769	  5.76357	  4.28163	  9.15633	  1.43990	 -0.36693	 11.16185	705.47400	 23.30	
 11.893	 73.654	 10.53662	  6.34784	  3.72982	  9.03374	  1.53984	 -0.34426	 11.17809	705.38702	 23.30	
 11.903	 65.403	 10.50940	  6.90262	  3.19483	  8.79424	  1.70506	 -0.32837	 11.16129	705.42401	 23.30	
 11.897	 57.268	 10.47991	  7.41715	  2.71025	  8.47123	  1.93415	 -0.32710	 11.14498	705.24402	 23.30	
 11.894	 49.133	 10.48466	  7.90991	  2.29099	  8.10083	  2.24386	 -0.33048	 11.15811	705.37799	 23.30	
 11.902	 40.852	 10.45514	  8.32907	  1.91151	  7.64858	  2.59238	 -0.33394	 11.14801	705.37500	 23.30	
 11.909	 32.701	 10.45655	  8.69974	  1.60979	  7.16243	  3.01340	 -0.32561	 11.16308	705.41199	 23.30	
 11.889	 24.555	 10.45354	  8.98572	  1.38084	  6.62072	  3.49692	 -0.32367	 11.17103	705.37799	 23.30	
 11.890	 16.390	 10.45123	  9.19855	  1.20974	  6.06037	  4.01112	 -0.32910	 11.17983	705.31897	 23.30	
 11.899	  8.217	 10.41795	  9.29759	  1.10513	  5.46818	  4.54736	 -0.32950	 11.16072	705.40997	 23.30	
 11.900	  0.000	 10.39424	  9.31813	  1.07285	  4.86538	  5.12279	 -0.31495	 11.14917	705.49103	 23.30	
 11.899	 -8.217	 10.40196	  9.27761	  1.10976	  4.29932	  5.71078	 -0.30249	 11.16447	705.47400	 23.30	
 11.890	-16.390	 10.37990	  9.12271	  1.21824	  3.74939	  6.28154	 -0.28845	 11.15079	705.34698	 23.30	
 11.889	-24.555	 10.38221	  8.90191	  1.39726	  3.23234	  6.85797	 -0.29502	 11.16027	705.39801	 23.30	
 11.909	-32.701	 10.35623	  8.58172	  1.63277	  2.75455	  7.37694	 -0.31572	 11.14285	705.36401	 23.30	
 11.902	-40.852	 10.36728	  8.21481	  1.94213	  2.34732	  7.87028	 -0.33578	 11.15340	705.40198	 23.30	
 11.894	-49.133	 10.36349	  7.76209	  2.31530	  1.97986	  8.31069	 -0.35680	 11.15279	705.54401	 23.30	
 11.897	-57.268	 10.37166	  7.27318	  2.73853	  1.67581	  8.69213	 -0.37381	 11.16739	705.42700	 23.30	
 11.903	-65.403	 10.37710	  6.73576	  3.21834	  1.43671	  8.99550	 -0.37975	 11.17098	705.47198	 23.30	
 11.893	-73.654	 10.35477	  6.14538	  3.74002	  1.26655	  9.18927	 -0.38998	 11.14085	705.41199	 23.30	
 11.892	-81.845	 10.38147	  5.57831	  4.30488	  1.17081	  9.34013	 -0.39446	 11.16348	705.35699	 23.30	
 11.900	-90.000	 10.40402	  5.00406	  4.89238	  1.13990	  9.40147	 -0.40053	 11.17952	705.39600	 23.30	
 11.892	-98.155	 10.39611	  4.43082	  5.47414	  1.17705	  9.34571	 -0.39921	 11.16728	705.35101	 23.30	
 11.893	-106.346	 10.39790	  3.88718	  6.05665	  1.27736	  9.21545	 -0.37549	 11.15720	705.37000	 23.30	
 11.903	-114.597	 10.40871	  3.38051	  6.63239	  1.44859	  9.01284	 -0.34631	 11.16574	705.35901	 23.30	
 11.897	-122.732	 10.40086	  2.91581	  7.16380	  1.69123	  8.69982	 -0.32006	 11.14403	705.37903	 23.30	
 11.894	-130.867	 10.42913	  2.51299	  7.67556	  2.00572	  8.34943	 -0.30526	 11.16256	705.38702	 23.30	
 11.902	-139.148	 10.43714	  2.15264	  8.12249	  2.37770	  7.90557	 -0.30449	 11.15849	705.44098	 23.30	
 11.909	-147.299	 10.45795	  1.86523	  8.50664	  2.79876	  7.43185	 -0.30382	 11.17011	705.33002	 23.30	
 11.889	-155.445	 10.46152	  1.64418	  8.79831	  3.27484	  6.89525	 -0.30417	 11.15741	705.39301	 23.30	
 11.890	-163.610	 10.46926	  1.49087	  9.01354	  3.79740	  6.32361	 -0.30876	 11.15185	705.26801	 23.30	
 11.899	-171.783	 10.48368	  1.39800	  9.15053	  4.34861	  5.74909	 -0.31487	 11.15419	705.40601	 23.30	
 11.900	180.000	 10.52669	  1.37857	  9.22254	  4.93799	  5.18539	 -0.30658	 11.18256	705.30200	 23.30	
 13.600	180.000	 10.25878	  0.70279	  9.59584	  4.71665	  4.95684	 -0.39730	 11.16707	705.26001	 23.30	
 13.608	-172.853	 10.23319	  0.71296	  9.55010	  4.14207	  5.51967	 -0.40638	 11.15659	705.41803	 23.30	
 13.611	-165.583	 10.23335	  0.78561	  9.44514	  3.58587	  6.11458	 -0.40559	 11.17361	705.52002	 23.30	
 13.601	-158.353	 10.21333	  0.92146	  9.23953	  3.04733	  6.69106	 -0.39340	 11.16843	705.35400	 23.30	
 13.609	-151.210	 10.17795	  1.10340	  8.95517	  2.55584	  7.21779	 -0.38893	 11.14713	705.49701	 23.30	
 13.611	-143.999	 10.17759	  1.35388	  8.62544	  2.11182	  7.74113	 -0.38187	 11.15662	705.41602	 23.30	
 13.601	-136.825	 10.16398	  1.65657	  8.22171	  1.70920	  8.21264	 -0.37501	 11.15862	705.43701	 23.30	
 13.596	-129.640	 10.15516	  2.01963	  7.75990	  1.35809	  8.63979	 -0.37694	 11.15922	705.42401	 23.30	
 13.611	-122.431	 10.15540	  2.42592	  7.26587	  1.06463	  9.00846	 -0.39255	 11.17320	705.41803	 23.30	
 13.604	-115.211	 10.15212	  2.88883	  6.72599	  0.83284	  9.30375	 -0.41568	 11.17419	705.43298	 23.30	
 13.595	-108.042	 10.12804	  3.38173	  6.14019	  0.65527	  9.51068	 -0.43789	 11.15749	705.44299	 23.30	
 13.607	-100.793	 10.11618	  3.91079	  5.54998	  0.52940	  9.66097	 -0.46120	 11.15324	705.37097	 23.30	
 13.601	-93.617	 10.11617	  4.47031	  4.96354	  0.46940	  9.74170	 -0.46371	 11.16026	705.40198	 23.30	
 13.601	-86.383	 10.10275	  5.04677	  4.37069	  0.46909	  9.73625	 -0.44870	 11.15392	705.31702	 23.30	
 13.607	-79.207	 10.10030	  5.63192	  3.80005	  0.51994	  9.66495	 -0.43418	 11.16126	705.40601	 23.30	
 13.595	-71.958	 10.09671	  6.21722	  3.25660	  0.64300	  9.50578	 -0.42845	 11.16216	705.27698	 23.30	
 13.604	-64.789	 10.10065	  6.78694	  2.74511	  0.81362	  9.28687	 -0.42601	 11.17047	705.42401	 23.30	
 13.611	-57.569	 10.08178	  7.32260	  2.26352	  1.03611	  8.97707	 -0.42436	 11.15557	705.40997	 23.30	
 13.596	-50.360	 10.10702	  7.84656	  1.84352	  1.32748	  8.63413	 -0.41242	 11.18095	705.37903	 23.30	
 13.601	-43.175	 10.08864	  8.29020	  1.46563	  1.67168	  8.19081	 -0.39451	 11.15890	705.37000	 23.30	
 13.611	-36.001	 10.08672	  8.69598	  1.13957	  2.06512	  7.70816	 -0.38361	 11.15348	705.27698	 23.30	
 13.609	-28.790	 10.09088	  9.03755	  0.87497	  2.50449	  7.18936	 -0.37280	 11.14759	705.30200	 23.30	
 13.601	-21.647	 10.12971	  9.33679	  0.67109	  2.99782	  6.66356	 -0.36236	 11.18081	705.37000	 23.30	
 13.611	-14.417	 10.10756	  9.51540	  0.51277	  3.51789	  6.06316	 -0.35838	 11.14834	705.31403	 23.30	
 13.608	 -7.147	 10.12562	  9.64968	  0.42290	  4.07768	  5.48330	 -0.36334	 11.15985	705.31598	 23.30	
 13.600	  0.000	 10.14075	  9.70183	  0.39264	  4.64878	  4.91066	 -0.37840	 11.15951	705.33002	 23.30	
 13.608	  7.147	 10.13981	  9.66999	  0.41223	  5.23135	  4.32715	 -0.39032	 11.15289	705.26398	 23.30	
 13.611	 14.417	 10.14515	  9.56362	  0.49429	  5.81511	  3.77038	 -0.40835	 11.14621	705.33899	 23.30	
 13.601	 21.647	 10.17914	  9.40164	  0.64486	  6.40882	  3.25402	 -0.41367	 11.17133	705.33301	 23.30	
 13.609	 28.790	 10.17710	  9.14221	  0.84279	  6.95844	  2.76036	 -0.40756	 11.15743	705.29401	 23.30	
 13.611	 36.001	 10.19923	  8.83210	  1.10414	  7.49062	  2.32166	 -0.41156	 11.16608	705.29102	 23.30	
 13.601	 43.175	 10.22773	  8.45511	  1.43078	  7.97903	  1.93669	 -0.41427	 11.17544	705.33301	 23.30	
 13.596	 50.360	 10.24651	  8.01680	  1.80672	  8.42251	  1.59029	 -0.40725	 11.18346	705.33099	 23.30	
 13.611	 57.569	 10.22785	  7.50422	  2.22071	  8.78325	  1.28619	 -0.40874	 11.15086	705.26398	 23.30	
 13.604	 64.789	 10.25533	  6.98448	  2.69848	  9.10822	  1.05587	 -0.41409	 11.17007	705.27802	 23.30	
 13.595	 71.958	 10.24717	  6.41296	  3.20978	  9.32369	  0.88749	 -0.42954	 11.14356	705.20502	 23.30	
 13.607	 79.207	 10.27357	  5.84670	  3.76560	  9.50196	  0.77564	 -0.45407	 11.16353	705.33301	 23.30	
 13.601	 86.383	 10.27586	  5.26458	  4.33810	  9.57129	  0.73290	 -0.47440	 11.15586	705.27698	 23.30	
 13.601	 93.617	 10.29297	  4.68649	  4.93872	  9.58477	  0.73458	 -0.48838	 11.16141	705.33099	 23.30	
 13.607	100.793	 10.28911	  4.12449	  5.52478	  9.50257	  0.79776	 -0.48243	 11.15309	705.29199	 23.30	
 13.595	108.042	 10.31561	  3.59189	  6.13148	  9.36969	  0.92261	 -0.46842	 11.17560	705.23999	 23.30	
 13.604	115.211	 10.30207	  3.07326	  6.70146	  9.13575	  1.09218	 -0.45227	 11.16794	705.23297	 23.30	
 13.611	122.431	 10.29854	  2.60165	  7.24755	  8.83128	  1.32700	 -0.42747	 11.16001	705.25500	 23.30	
 13.596	129.640	 10.31077	  2.18265	  7.76557	  8.46565	  1.62963	 -0.40651	 11.17211	705.37903	 23.30	
 13.601	136.825	 10.29694	  1.80241	  8.22291	  8.02521	  1.98048	 -0.38892	 11.15755	705.44702	 23.30	
 13.611	143.999	 10.29514	  1.47622	  8.63222	  7.55425	  2.37048	 -0.37239	 11.16718	705.34198	 23.30	
 13.609	151.210	 10.28227	  1.20531	  8.96519	  7.02760	  2.81155	 -0.35952	 11.15483	705.40601	 23.30	
 13.601	158.353	 10.27876	  0.99176	  9.23881	  6.47323	  3.29841	 -0.35508	 11.16276	705.38202	 23.30	
 13.611	165.583	 10.27622	  0.83403	  9.44117	  5.89566	  3.82541	 -0.36429	 11.16522	705.37799	 23.30	
 13.608	172.853	 10.25373	  0.73493	  9.54571	  5.30041	  4.37161	 -0.38788	 11.15206	705.34802	 23.30	
 15.298	173.587	  9.98369	  0.07526	  9.90609	  5.06933	  4.13951	 -0.45957	 11.16615	705.44397	 23.30	
 15.291	167.167	  9.99109	  0.15340	  9.80635	  5.65081	  3.58769	 -0.44167	 11.16947	705.40198	 23.30	
 15.307	160.676	 10.00441	  0.28776	  9.63960	  6.24160	  3.05978	 -0.43209	 11.17650	705.32300	 23.30	
 15.300	154.261	 10.00352	  0.47199	  9.38922	  6.80882	  2.55328	 -0.43514	 11.16618	705.32501	 23.30	
 15.288	147.854	 10.01486	  0.71168	  9.08501	  7.34618	  2.10561	 -0.44466	 11.17180	705.30798	 23.30	
 15.293	141.428	 10.02625	  0.99625	  8.71957	  7.85624	  1.68966	 -0.45312	 11.17955	705.31403	 23.30	
 15.299	134.985	 10.01108	  1.32339	  8.27653	  8.31380	  1.30365	 -0.46463	 11.15761	705.29401	 23.30	
 15.305	128.583	 10.00850	  1.70029	  7.79834	  8.73291	  0.96950	 -0.48293	 11.15304	705.30200	 23.30	
 15.309	122.142	 10.02697	  2.12576	  7.29430	  9.11086	  0.68984	 -0.50188	 11.17601	705.41602	 23.30	
 15.304	115.711	 10.01924	  2.59018	  6.73850	  9.39638	  0.47106	 -0.52419	 11.16093	705.32501	 23.30	
 15.297	109.291	 10.01411	  3.08658	  6.16218	  9.62745	  0.29222	 -0.53875	 11.15652	705.31097	 23.30	
 15.293	102.897	 10.01271	  3.61463	  5.57580	  9.79840	  0.16293	 -0.54758	 11.15694	705.28003	 23.30	
 15.293	 96.458	 10.02808	  4.17633	  4.99193	  9.92048	  0.08348	 -0.55900	 11.18188	705.30798	 23.30	
 15.300	 90.000	  9.99470	  4.73513	  4.38783	  9.92715	  0.05385	 -0.55645	 11.15359	705.20398	 23.30	
 15.293	 83.542	  9.97900	  5.31455	  3.80232	  9.87625	  0.07835	 -0.54402	 11.14321	705.28802	 23.30	
 15.293	 77.103	  9.99868	  5.91078	  3.25139	  9.79289	  0.15230	 -0.51875	 11.17448	705.22302	 23.30	
 15.297	 70.709	  9.97791	  6.47465	  2.71366	  9.60463	  0.27431	 -0.49338	 11.16464	705.29999	 23.30	
 15.304	 64.289	  9.97127	  7.03530	  2.20866	  9.36795	  0.43972	 -0.47790	 11.17267	705.15302	 23.30	
 15.309	 57.858	  9.96470	  7.57152	  1.74135	  9.07005	  0.65348	 -0.47754	 11.18670	705.35699	 23.30	
 15.305	 51.417	  9.93556	  8.05298	  1.31781	  8.68505	  0.92892	 -0.47735	 11.16638	705.41803	 23.30	
 15.299	 45.015	  9.92931	  8.50936	  0.94644	  8.26310	  1.26108	 -0.48198	 11.17092	705.32300	 23.30	
 15.293	 38.572	  9.91262	  8.91063	  0.62115	  7.77781	  1.64408	 -0.47412	 11.16389	705.27502	 23.30	
 15.288	 32.146	  9.88294	  9.24109	  0.34202	  7.25573	  2.05675	 -0.46086	 11.14927	705.29999	 23.30	
 15.300	 25.739	  9.88137	  9.54374	  0.11279	  6.72849	  2.50817	 -0.45360	 11.16538	705.34698	 23.30	
 15.307	 19.324	  9.86533	  9.76233	 -0.06202	  6.15459	  3.00662	 -0.44675	 11.15733	705.32501	 23.30	
 15.291	 12.833	  9.86363	  9.92371	 -0.17946	  5.57425	  3.54448	 -0.43914	 11.16857	705.44397	 23.30	
 15.298	  6.413	  9.85058	 10.01432	 -0.25634	  4.99253	  4.08696	 -0.43089	 11.17120	705.30298	 23.30	
 15.300	  0.000	  9.83790	 10.03586	 -0.27792	  4.40392	  4.66300	 -0.41402	 11.16605	705.38202	 23.30	
 15.298	 -6.413	  9.82725	  9.99188	 -0.25163	  3.83535	  5.23773	 -0.39609	 11.16929	705.36200	 23.30	
 15.291	-12.833	  9.84231	  9.89871	 -0.16527	  3.29526	  5.83324	 -0.38948	 11.19092	705.27100	 23.30	
 15.307	-19.324	  9.80964	  9.69653	 -0.04100	  2.74605	  6.40859	 -0.39044	 11.16883	705.38501	 23.30	
 15.300	-25.739	  9.79430	  9.44180	  0.14412	  2.25725	  6.95884	 -0.39273	 11.15629	705.29102	 23.30	
 15.288	-32.146	  9.79176	  9.13353	  0.37797	  1.80807	  7.49298	 -0.40544	 11.16319	705.34198	 23.30	
 15.293	-38.572	  9.78918	  8.76677	  0.65554	  1.38613	  8.00548	 -0.41392	 11.17217	705.23297	 23.30	
 15.299	-45.015	  9.77729	  8.33758	  0.98603	  1.00899	  8.46600	 -0.42169	 11.16206	705.32300	 23.30	
 15.305	-51.417	  9.78314	  7.87400	  1.36034	  0.68878	  8.87830	 -0.42372	 11.17156	705.26001	 23.30	
 15.309	-57.858	  9.81752	  7.39111	  1.78927	  0.41832	  9.26935	 -0.42061	 11.20726	705.38098	 23.30	
 15.304	-64.289	  9.78051	  6.81767	  2.24769	  0.19583	  9.53045	 -0.41028	 11.16060	705.41803	 23.30	
 15.297	-70.709	  9.79210	  6.25666	  2.75355	  0.02349	  9.77098	 -0.41873	 11.16638	705.38501	 23.30	
 15.293	-77.103	  9.78579	  5.67205	  3.27797	 -0.10378	  9.93187	 -0.42601	 11.15839	705.44000	 23.30	
 15.293	-83.542	  9.81548	  5.09847	  3.84846	 -0.18148	 10.06361	 -0.44432	 11.18333	705.35699	 23.30	
 15.300	-90.000	  9.81652	  4.50534	  4.42935	 -0.21105	 10.09660	 -0.46408	 11.17630	705.41199	 23.30	
 15.293	-96.458	  9.82838	  3.94008	  5.02186	 -0.18003	 10.06746	 -0.47398	 11.18245	705.46802	 23.30	
 15.293	-102.897	  9.81717	  3.38670	  5.60259	 -0.10290	  9.95062	 -0.48774	 11.16329	705.41998	 23.30	
 15.297	-109.291	  9.83301	  2.87639	  6.18793	  0.02852	  9.79300	 -0.47741	 11.16924	705.43500	 23.30	
 15.304	-115.711	  9.84135	  2.39278	  6.75591	  0.20736	  9.55908	 -0.45650	 11.16972	705.23999	 23.30	
 15.309	-122.142	  9.85464	  1.94156	  7.30563	  0.44373	  9.26280	 -0.44195	 11.17360	705.24597	 23.30	
 15.305	-128.583	  9.87952	  1.54109	  7.82782	  0.72601	  8.92009	 -0.43485	 11.18879	705.30603	 23.30	
 15.299	-134.985	  9.86360	  1.17507	  8.27612	  1.04557	  8.49497	 -0.43426	 11.16160	705.26099	 23.30	
 15.293	-141.428	  9.89110	  0.86346	  8.71146	  1.42989	  8.04321	 -0.44176	 11.17873	705.17603	 23.30	
 15.288	-147.854	  9.90012	  0.60267	  9.07515	  1.86175	  7.53088	 -0.46115	 11.16886	705.35699	 23.30	
 15.300	-154.261	  9.91609	  0.38761	  9.38558	  2.31963	  7.00289	 -0.46784	 11.17088	705.19800	 23.30	
 15.307	-160.676	  9.91771	  0.22307	  9.61810	  2.80881	  6.44461	 -0.47491	 11.16058	705.13397	 23.30	
 15.291	-167.167	  9.92799	  0.11569	  9.78440	  3.35259	  5.85191	 -0.48641	 11.15474	705.27698	 23.30	
 15.298	-173.587	  9.95623	  0.04932	  9.90455	  3.91016	  5.28377	 -0.48818	 11.16592	705.28601	 23.30	
 15.300	180.000	  9.97255	  0.03672	  9.94266	  4.48014	  4.71069	 -0.48214	 11.17339	705.23602	 23.30	
 17.000	180.000	  9.64436	 -0.61759	 10.24915	  4.21524	  4.43849	 -0.53505	 11.17069	705.21802	 23.30	
 16.990	-174.179	  9.62305	 -0.60585	 10.20929	  3.64819	  5.00691	 -0.53945	 11.16513	705.27100	 23.30	
 17.009	-168.383	  9.60741	 -0.55941	 10.11867	  3.09693	  5.58101	 -0.52765	 11.16304	705.29498	 23.30	
 17.000	-162.596	  9.59693	 -0.46451	  9.96632	  2.56439	  6.16199	 -0.52394	 11.17088	705.30298	 23.30	
 16.990	-156.759	  9.58651	 -0.31661	  9.74697	  2.06794	  6.72639	 -0.51692	 11.17315	705.27100	 23.30	
 16.995	-150.919	  9.58153	 -0.12958	  9.47594	  1.59761	  7.27998	 -0.51146	 11.17999	705.31403	 23.30	
 16.988	-145.161	  9.53864	  0.09861	  9.11350	  1.15977	  7.77458	 -0.50263	 11.14749	705.33301	 23.30	
 17.014	-139.343	  9.53484	  0.36309	  8.73920	  0.75774	  8.27615	 -0.49117	 11.16739	705.44098	 23.30	
 17.007	-133.546	  9.53552	  0.68910	  8.31285	  0.41582	  8.72394	 -0.48451	 11.17565	705.37000	 23.30	
 17.001	-127.699	  9.51652	  1.04703	  7.82503	  0.09786	  9.12068	 -0.47241	 11.16491	705.30298	 23.30	
 17.006	-121.937	  9.49804	  1.44346	  7.30726	 -0.17028	  9.46685	 -0.47659	 11.15916	705.31403	 23.30	
 17.002	-116.134	  9.49962	  1.88134	  6.77164	 -0.39829	  9.77480	 -0.48111	 11.17328	705.32599	 23.30	
 17.001	-110.310	  9.48421	  2.35080	  6.20063	 -0.58378	 10.01095	 -0.48524	 11.16652	705.22101	 23.30	
 16.988	-104.517	  9.48962	  2.85920	  5.62872	 -0.70831	 10.19269	 -0.48050	 11.17246	705.35699	 23.30	
 17.008	-98.662	  9.46501	  3.38718	  5.03099	 -0.79864	 10.29610	 -0.45888	 11.15821	705.29901	 23.30	
 16.996	-92.909	  9.46837	  3.93780	  4.45845	 -0.84558	 10.36273	 -0.43702	 11.17145	705.31897	 23.30	
 16.996	-87.091	  9.45801	  4.51148	  3.87660	 -0.84743	 10.35890	 -0.42085	 11.16823	705.22998	 23.30	
 17.012	-81.253	  9.44433	  5.08977	  3.30308	 -0.81109	 10.29764	 -0.40249	 11.16254	705.29999	 23.30	
 16.988	-75.483	  9.44769	  5.67285	  2.77098	 -0.71595	 10.18011	 -0.39329	 11.16649	705.34003	 23.30	
 17.001	-69.690	  9.43962	  6.24710	  2.24905	 -0.60124	 10.00778	 -0.38384	 11.17300	705.37000	 23.30	
 17.002	-63.866	  9.40636	  6.79118	  1.75164	 -0.42242	  9.73072	 -0.38711	 11.13305	705.30902	 23.30	
 17.006	-58.063	  9.41828	  7.34348	  1.30134	 -0.20539	  9.44742	 -0.39298	 11.15560	705.27698	 23.30	
 17.001	-52.301	  9.41901	  7.85584	  0.88805	  0.05562	  9.09318	 -0.40394	 11.15033	705.39001	 23.30	
 17.007	-46.454	  9.43366	  8.35034	  0.50823	  0.36192	  8.70352	 -0.40542	 11.17125	705.37500	 23.30	
 17.014	-40.657	  9.43948	  8.79005	  0.17173	  0.70216	  8.26560	 -0.40968	 11.17739	705.29498	 23.30	
 16.988	-34.839	  9.44180	  9.16972	 -0.11116	  1.10024	  7.76574	 -0.40953	 11.16511	705.33899	 23.30	
 16.995	-29.081	  9.44664	  9.50410	 -0.35261	  1.53282	  7.24523	 -0.40452	 11.16463	705.22400	 23.30	
 16.990	-23.241	  9.44780	  9.78500	 -0.55911	  1.99371	  6.68956	 -0.40332	 11.15774	705.16998	 23.30	
 17.000	-17.404	  9.45791	 10.01032	 -0.71966	  2.48785	  6.12605	 -0.39675	 11.15704	705.14697	 23.30	
 17.009	-11.617	  9.45991	 10.16491	 -0.83497	  3.01486	  5.54093	 -0.40154	 11.14846	705.20099	 23.30	
 16.990	 -5.821	  9.49708	 10.28978	 -0.90015	  3.57364	  4.97648	 -0.40821	 11.17678	705.34198	 23.30	
 17.000	  0.000	  9.49433	 10.32279	 -0.93137	  4.13246	  4.39674	 -0.39981	 11.16767	705.16803	 23.30	
 16.990	  5.821	  9.50766	 10.30416	 -0.91013	  4.71837	  3.82426	 -0.41573	 11.16482	705.20697	 23.30	
 17.009	 11.617	  9.52012	 10.23608	 -0.86152	  5.29576	  3.27557	 -0.42853	 11.16827	705.27502	 23.30	
 17.000	 17.404	  9.53541	 10.10064	 -0.75531	  5.87573	  2.75174	 -0.44049	 11.17624	705.21198	 23.30	
 16.990	 23.241	  9.54792	  9.89640	 -0.59760	  6.45766	  2.24694	 -0.45361	 11.17466	705.25403	 23.30	
 16.995	 29.081	  9.55388	  9.62802	 -0.39804	  7.00465	  1.78430	 -0.47376	 11.16443	705.19098	 23.30	
 16.988	 34.839	  9.57199	  9.31909	 -0.15528	  7.53163	  1.35998	 -0.49245	 11.16995	705.31702	 23.30	
 17.014	 40.657	  9.58651	  8.96046	  0.11642	  8.04270	  0.94964	 -0.52154	 11.17503	705.21503	 23.30	
 17.007	 46.454	  9.58982	  8.53395	  0.44877	  8.49545	  0.59633	 -0.52710	 11.16597	705.28302	 23.30	
 17.001	 52.301	  9.60567	  8.06939	  0.83095	  8.91188	  0.28869	 -0.53153	 11.16295	705.12598	 23.30	
 17.006	 58.063	  9.62333	  7.57688	  1.24268	  9.28346	  0.02466	 -0.53240	 11.17114	705.19897	 23.30	
 17.002	 63.866	  9.63801	  7.04869	  1.69551	  9.59912	 -0.19826	 -0.53307	 11.17283	705.33698	 23.30	
 17.001	 69.690	  9.63158	  6.48451	  2.17723	  9.83807	 -0.37263	 -0.54206	 11.15061	705.23798	 23.30	
 16.988	 75.483	  9.66365	  5.92677	  2.70780	 10.05115	 -0.49872	 -0.56103	 11.18107	705.21503	 23.30	
 17.012	 81.253	  9.66888	  5.35334	  3.24203	 10.18538	 -0.59280	 -0.57709	 11.17772	705.17798	 23.30	
 16.996	 87.091	  9.67815	  4.77251	  3.81798	 10.24198	 -0.62053	 -0.58502	 11.17307	705.25403	 23.30	
 16.996	 92.909	  9.67862	  4.19229	  4.40344	 10.23783	 -0.61672	 -0.58724	 11.16527	705.26801	 23.30	
 17.008	 98.662	  9.68727	  3.63607	  4.98726	 10.18772	 -0.57357	 -0.57493	 11.16723	705.28601	 23.30	
 16.988	104.517	  9.69906	  3.09939	  5.58603	 10.06731	 -0.47694	 -0.56822	 11.16725	705.26099	 23.30	
 17.001	110.310	  9.70412	  2.58127	  6.17366	  9.88695	 -0.34140	 -0.56060	 11.17028	705.21503	 23.30	
 17.002	116.134	  9.70824	  2.09699	  6.74738	  9.64282	 -0.15744	 -0.56182	 11.17573	705.12903	 23.30	
 17.006	121.937	  9.69672	  1.63918	  7.29007	  9.32760	  0.06699	 -0.55204	 11.15569	705.21503	 23.30	
 17.001	127.699	  9.71295	  1.22654	  7.82274	  8.98991	  0.32908	 -0.53760	 11.17936	705.23297	 23.30	
 17.007	133.546	  9.71335	  0.84664	  8.30983	  8.58719	  0.63746	 -0.53010	 11.18555	705.19299	 23.30	
 17.014	139.343	  9.69750	  0.50941	  8.74205	  8.12155	  0.98994	 -0.51803	 11.16954	705.30298	 23.30	
 16.988	145.161	  9.68829	  0.22938	  9.12195	  7.61210	  1.40047	 -0.50741	 11.15555	705.22302	 23.30	
 16.995	150.919	  9.69306	 -0.01966	  9.47045	  7.10168	  1.82809	 -0.50572	 11.17076	705.23297	 23.30	
 16.990	156.759	  9.68882	 -0.22413	  9.75260	  6.55119	  2.29575	 -0.50287	 11.17223	705.07397	 23.30	
 17.000	162.596	  9.67165	 -0.39394	  9.96640	  5.96493	  2.79685	 -0.50240	 11.16550	705.08002	 23.30	
 17.009	168.383	  9.67061	 -0.51476	 10.13306	  5.38866	  3.32440	 -0.51477	 11.17594	705.24103	 23.30	
 16.990	174.179	  9.65555	 -0.58233	 10.21494	  4.80832	  3.86717	 -0.52645	 11.16640	705.29999	 23.30	
 18.709	174.675	  9.30512	 -1.22522	 10.49995	  4.52851	  3.58489	 -0.56255	 11.18741	705.21198	 23.30	
 18.703	169.441	  9.28623	 -1.15595	 10.38414	  5.08048	  3.04187	 -0.55888	 11.14858	705.35400	 23.30	
 18.691	164.085	  9.31796	 -1.05398	 10.26808	  5.67995	  2.52083	 -0.55516	 11.16974	705.34399	 23.30	
 18.706	158.818	  9.32186	 -0.91910	 10.07131	  6.25270	  2.01428	 -0.55554	 11.16797	705.36499	 23.30	
 18.695	153.537	  9.33386	 -0.73819	  9.82060	  6.80573	  1.55279	 -0.55345	 11.17265	705.29199	 23.30	
 18.704	148.255	  9.33523	 -0.52233	  9.51107	  7.34198	  1.11264	 -0.56212	 11.17056	705.31403	 23.30	
 18.698	142.952	  9.33839	 -0.25955	  9.14196	  7.85673	  0.70068	 -0.56352	 11.16571	705.34198	 23.30	
 18.699	137.625	  9.32299	  0.03834	  8.71152	  8.32178	  0.32888	 -0.56312	 11.14391	705.39502	 23.30	
 18.705	132.343	  9.35606	  0.37348	  8.28987	  8.78293	  0.00350	 -0.57001	 11.17442	705.25500	 23.30	
 18.713	127.067	  9.34657	  0.73812	  7.79694	  9.18194	 -0.29933	 -0.56266	 11.17445	705.24701	 23.30	
 18.700	121.794	  9.36390	  1.15071	  7.28536	  9.54977	 -0.55269	 -0.55839	 11.18913	705.33002	 23.30	
 18.698	116.504	  9.33663	  1.59209	  6.71637	  9.82333	 -0.76785	 -0.55516	 11.15555	705.32501	 23.30	
 18.707	111.165	  9.35566	  2.06923	  6.15983	 10.09799	 -0.95229	 -0.54792	 11.18537	705.26898	 23.30	
 18.690	105.863	  9.34493	  2.57158	  5.57450	 10.27095	 -1.08115	 -0.54568	 11.16884	705.35101	 23.30	
 18.696	100.583	  9.35150	  3.10369	  4.99539	 10.41971	 -1.17838	 -0.54024	 11.18046	705.30298	 23.30	
 18.700	 95.309	  9.33445	  3.64189	  4.40650	 10.48435	 -1.23707	 -0.55032	 11.16886	705.16498	 23.30	
 18.700	 90.000	  9.33825	  4.21092	  3.83063	 10.51809	 -1.25562	 -0.56104	 11.18352	705.29999	 23.30	
 18.700	 84.691	  9.33331	  4.78419	  3.25955	 10.48747	 -1.24223	 -0.57392	 11.18083	705.15997	 23.30	
 18.696	 79.417	  9.32200	  5.35731	  2.71071	 10.39931	 -1.18753	 -0.58304	 11.17974	705.30603	 23.30	
 18.690	 74.137	  9.31144	  5.92425	  2.18084	 10.25419	 -1.09792	 -0.58767	 11.18309	705.24103	 23.30	
 18.707	 68.835	  9.27146	  6.47105	  1.66423	 10.03232	 -0.97604	 -0.58704	 11.15345	705.27100	 23.30	
 18.698	 63.496	  9.25433	  7.01599	  1.18756	  9.76398	 -0.80237	 -0.57652	 11.14926	705.26801	 23.30	
 18.700	 58.206	  9.27341	  7.56919	  0.74928	  9.48452	 -0.59075	 -0.57355	 11.17941	705.38702	 23.30	
 18.713	 52.933	  9.22814	  8.04694	  0.34008	  9.09120	 -0.33603	 -0.56217	 11.14398	705.30798	 23.30	
 18.705	 47.657	  9.24566	  8.53702	 -0.02205	  8.70876	 -0.03655	 -0.55058	 11.17931	705.20697	 23.30	
 18.699	 42.375	  9.22203	  8.95071	 -0.35561	  8.25562	  0.28831	 -0.53095	 11.16657	705.28302	 23.30	
 18.698	 37.048	  9.21575	  9.34383	 -0.64552	  7.77184	  0.66501	 -0.50530	 11.17454	705.38098	 23.30	
 18.704	 31.745	  9.20806	  9.69056	 -0.90157	  7.25379	  1.07545	 -0.47340	 11.18105	705.29999	 23.30	
 18.695	 26.463	  9.19249	  9.97116	 -1.10549	  6.70893	  1.51695	 -0.44192	 11.17663	705.30603	 23.30	
 18.706	 21.182	  9.16037	 10.18293	 -1.27421	  6.14268	  1.97569	 -0.41709	 11.15331	705.42401	 23.30	
 18.691	 15.915	  9.17013	 10.38073	 -1.40641	  5.58332	  2.47873	 -0.40974	 11.17964	705.38800	 23.30	
 18.703	 10.559	  9.14622	 10.49604	 -1.50230	  4.99240	  3.00482	 -0.39089	 11.16503	705.40399	 23.30	
 18.709	  5.325	  9.14165	 10.57451	 -1.55571	  4.42991	  3.53911	 -0.38032	 11.17903	705.34003	 23.30	
 18.700	  0.000	  9.12540	 10.57703	 -1.55956	  3.84637	  4.11259	 -0.38024	 11.16646	705.43201	 23.30	
 18.709	 -5.325	  9.11396	 10.54582	 -1.54252	  3.28640	  4.67838	 -0.37581	 11.17116	705.36401	 23.30	
 18.703	-10.559	  9.11255	 10.46397	 -1.48153	  2.75348	  5.25182	 -0.37501	 11.17969	705.35602	 23.30	
 18.691	-15.915	  9.09794	 10.30566	 -1.37734	  2.22136	  5.83484	 -0.38606	 11.17461	705.41803	 23.30	
 18.706	-21.182	  9.07781	 10.09558	 -1.23997	  1.72950	  6.38824	 -0.38583	 11.16105	705.40399	 23.30	
 18.695	-26.463	  9.09531	  9.86257	 -1.06213	  1.26660	  6.95658	 -0.38603	 11.19166	705.37903	 23.30	
 18.704	-31.745	  9.05225	  9.51686	 -0.84863	  0.82079	  7.46720	 -0.38435	 11.15079	705.35101	 23.30	
 18.698	-37.048	  9.04173	  9.14943	 -0.58797	  0.42442	  7.96558	 -0.37871	 11.13859	705.40100	 23.30	
 18.699	-42.375	  9.07460	  8.78011	 -0.29422	  0.06347	  8.47183	 -0.37350	 11.18546	705.37000	 23.30	
 18.705	-47.657	  9.07021	  8.33450	  0.03688	 -0.26753	  8.91056	 -0.38041	 11.18742	705.28003	 23.30	
 18.713	-52.933	  9.03656	  7.82533	  0.40044	 -0.56039	  9.27448	 -0.37043	 11.15225	705.43201	 23.30	
 18.700	-58.206	  9.05375	  7.32267	  0.81570	 -0.80323	  9.63949	 -0.35582	 11.16893	705.43201	 23.30	
 18.698	-63.496	  9.07028	  6.79473	  1.26553	 -0.99871	  9.93988	 -0.35620	 11.17896	705.37299	 23.30	
 18.707	-68.835	  9.04926	  6.21729	  1.73613	 -1.16742	 10.15556	 -0.34215	 11.14233	705.37097	 23.30	
 18.690	-74.137	  9.07400	  5.65742	  2.24860	 -1.29454	 10.36142	 -0.34915	 11.16364	705.30298	 23.30	
 18.696	-79.417	  9.07828	  5.08269	  2.77250	 -1.38908	 10.49605	 -0.35348	 11.16054	705.29401	 23.30	
 18.700	-84.691	  9.06605	  4.49692	  3.30845	 -1.45123	 10.56374	 -0.35688	 11.14476	705.46503	 23.30	
 18.700	-90.000	  9.07921	  3.92791	  3.88522	 -1.46495	 10.59586	 -0.36582	 11.15286	705.37500	 23.30	
 18.700	-95.309	  9.10382	  3.37922	  4.46698	 -1.45108	 10.59176	 -0.39546	 11.17332	705.40900	 23.30	
 18.696	-100.583	  9.11247	  2.84497	  5.04275	 -1.39230	 10.51564	 -0.41433	 11.17633	705.42700	 23.30	
 18.690	-105.863	  9.11950	  2.32635	  5.62399	 -1.29193	 10.37960	 -0.44600	 11.17366	705.38501	 23.30	
 18.707	-111.165	  9.10353	  1.83092	  6.18469	 -1.16133	 10.17538	 -0.45919	 11.14854	705.46600	 23.30	
 18.698	-116.504	  9.13856	  1.37969	  6.76335	 -0.98179	  9.95627	 -0.47498	 11.18175	705.37903	 23.30	
 18.700	-121.794	  9.12474	  0.95218	  7.28639	 -0.77035	  9.64276	 -0.48695	 11.15770	705.44897	 23.30	
 18.713	-127.067	  9.13676	  0.55991	  7.80022	 -0.51819	  9.30171	 -0.50059	 11.16310	705.34399	 23.30	
 18.705	-132.343	  9.15158	  0.21210	  8.28076	 -0.21996	  8.90948	 -0.50255	 11.16110	705.26099	 23.30	
 18.699	-137.625	  9.17393	 -0.09806	  8.73472	  0.12609	  8.47932	 -0.51056	 11.17216	705.46002	 23.30	
 18.698	-142.952	  9.19347	 -0.37957	  9.14641	  0.49000	  8.01704	 -0.52701	 11.17937	705.29401	 23.30	
 18.704	-148.255	  9.18844	 -0.62869	  9.48949	  0.89229	  7.49735	 -0.52351	 11.16184	705.39801	 23.30	
 18.695	-153.537	  9.20452	 -0.81971	  9.79661	  1.33882	  6.96618	 -0.52899	 11.15892	705.34003	 23.30	
 18.706	-158.818	  9.22673	 -0.98898	 10.06006	  1.80640	  6.42172	 -0.52447	 11.16894	705.27802	 23.30	
 18.691	-164.085	  9.24319	 -1.10709	 10.25522	  2.30440	  5.86631	 -0.53148	 11.16949	705.37903	 23.30	
 18.703	-169.441	  9.24897	 -1.19275	 10.38951	  2.83602	  5.27911	 -0.53973	 11.15995	705.34802	 23.30	
 18.709	-174.675	  9.24754	 -1.23750	 10.45744	  3.36814	  4.70434	 -0.54468	 11.14249	705.41302	 23.30	
 18.700	180.000	  9.27759	 -1.24662	 10.50314	  3.93850	  4.14480	 -0.55370	 11.15786	705.41302	 23.30	
 20.400	180.000	  8.88216	 -1.86314	 10.72057	  3.64066	  3.83420	 -0.53125	 11.15631	705.26801	 23.30	
 20.401	-175.153	  8.87141	 -1.86461	 10.70528	  3.08874	  4.38927	 -0.51493	 11.16625	705.29498	 23.30	
 20.407	-170.264	  8.83845	 -1.83106	 10.61397	  2.54264	  4.94221	 -0.49758	 11.14855	705.32501	 23.30	
 20.410	-165.423	  8.82314	 -1.75510	 10.48589	  2.01990	  5.51568	 -0.50239	 11.14692	705.35699	 23.30	
 20.392	-160.496	  8.81691	 -1.64275	 10.30869	  1.52659	  6.08370	 -0.49642	 11.15100	705.30603	 23.30	
 20.401	-155.705	  8.80651	 -1.50880	 10.08580	  1.06335	  6.62997	 -0.49529	 11.15788	705.31403	 23.30	
 20.405	-150.835	  8.77610	 -1.33283	  9.79261	  0.60812	  7.16186	 -0.50837	 11.14223	705.32599	 23.30	
 20.397	-145.903	  8.78941	 -1.12184	  9.48719	  0.19773	  7.70440	 -0.51934	 11.17579	705.34399	 23.30	
 20.392	-141.062	  8.77397	 -0.87173	  9.11090	 -0.17388	  8.18645	 -0.52011	 11.16953	705.29498	 23.30	
 20.396	-136.227	  8.74840	 -0.59543	  8.68438	 -0.52595	  8.63257	 -0.51888	 11.15460	705.24103	 23.30	
 20.408	-131.372	  8.72869	 -0.28802	  8.22873	 -0.84962	  9.05684	 -0.50886	 11.15100	705.22302	 23.30	
 20.410	-126.511	  8.72997	  0.06306	  7.75194	 -1.12253	  9.44711	 -0.49751	 11.16168	705.31097	 23.30	
 20.400	-121.604	  8.71346	  0.44474	  7.23000	 -1.36514	  9.77686	 -0.48512	 11.15040	705.39502	 23.30	
 20.403	-116.741	  8.71797	  0.85563	  6.70336	 -1.57362	 10.08588	 -0.46072	 11.16636	705.34399	 23.30	
 20.413	-111.900	  8.70119	  1.29633	  6.14586	 -1.75264	 10.32961	 -0.44211	 11.16317	705.34998	 23.30	
 20.398	-107.004	  8.68200	  1.77010	  5.56743	 -1.88352	 10.50566	 -0.41052	 11.14530	705.31097	 23.30	
 20.394	-102.132	  8.68631	  2.27013	  4.99850	 -1.98373	 10.66167	 -0.37312	 11.15680	705.41302	 23.30	
 20.403	-97.332	  8.67834	  2.78278	  4.43258	 -2.05886	 10.75812	 -0.36094	 11.16207	705.40900	 23.30	
 20.392	-92.440	  8.69391	  3.33358	  3.86953	 -2.09778	 10.83068	 -0.34641	 11.18781	705.29401	 23.30	
 20.392	-87.560	  8.66548	  3.88064	  3.29191	 -2.09746	 10.80611	 -0.33701	 11.16624	705.35901	 23.30	
 20.403	-82.668	  8.65552	  4.44775	  2.73921	 -2.06656	 10.76202	 -0.33207	 11.16811	705.48199	 23.30	
 20.394	-77.868	  8.64894	  5.00831	  2.21640	 -2.00497	 10.66501	 -0.33326	 11.16670	705.45203	 23.30	
 20.398	-72.996	  8.65397	  5.59080	  1.70387	 -1.91014	 10.53011	 -0.33827	 11.17629	705.34998	 23.30	
 20.413	-68.100	  8.63850	  6.15364	  1.20863	 -1.77709	 10.32297	 -0.33820	 11.16595	705.46899	 23.30	
 20.403	-63.259	  8.64655	  6.70860	  0.75467	 -1.61068	 10.08557	 -0.33768	 11.17946	705.49200	 23.30	
 20.400	-58.396	  8.62890	  7.23151	  0.32101	 -1.40619	  9.77214	 -0.34919	 11.15730	705.45801	 23.30	
 20.410	-53.489	  8.63196	  7.75434	 -0.08520	 -1.17783	  9.44051	 -0.34853	 11.16843	705.35901	 23.30	
 20.408	-48.628	  8.62008	  8.22770	 -0.44713	 -0.90587	  9.04795	 -0.35446	 11.15572	705.39600	 23.30	
 20.396	-43.773	  8.64039	  8.69804	 -0.77239	 -0.59211	  8.63371	 -0.36035	 11.17108	705.31403	 23.30	
 20.392	-38.938	  8.63677	  9.10631	 -1.06852	 -0.24388	  8.16006	 -0.37019	 11.15733	705.30902	 23.30	
 20.397	-34.097	  8.66520	  9.51153	 -1.33090	  0.11969	  7.69501	 -0.36346	 11.18795	705.46503	 23.30	
 20.405	-29.165	  8.64399	  9.82420	 -1.55701	  0.52871	  7.15137	 -0.36803	 11.16226	705.39301	 23.30	
 20.401	-24.295	  8.64833	 10.10239	 -1.73982	  0.97340	  6.60276	 -0.36927	 11.14472	705.41602	 23.30	
 20.392	-19.504	  8.67292	 10.34706	 -1.88933	  1.43850	  6.06750	 -0.37228	 11.16518	705.38202	 23.30	
 20.410	-14.577	  8.68192	 10.53733	 -2.01685	  1.92980	  5.50112	 -0.36937	 11.16876	705.26099	 23.30	
 20.407	 -9.736	  8.71755	 10.70047	 -2.10732	  2.45698	  4.94135	 -0.36475	 11.19692	705.45203	 23.30	
 20.401	 -4.847	  8.68846	 10.73570	 -2.15389	  2.98077	  4.35361	 -0.35154	 11.15267	705.47699	 23.30	
 20.400	  0.000	  8.71468	 10.78868	 -2.18144	  3.53245	  3.80553	 -0.35249	 11.16988	705.49200	 23.30	
 20.401	  4.847	  8.72146	 10.77000	 -2.16471	  4.09659	  3.24300	 -0.34916	 11.16214	705.52197	 23.30	
 20.407	  9.736	  8.72448	 10.70480	 -2.12487	  4.65916	  2.70144	 -0.35282	 11.15695	705.31598	 23.30	
 20.410	 14.577	  8.74054	 10.60450	 -2.04960	  5.23335	  2.19017	 -0.36709	 11.16442	705.38202	 23.30	
 20.392	 19.504	  8.74885	 10.42509	 -1.92139	  5.80990	  1.69552	 -0.37785	 11.14724	705.38800	 23.30	
 20.401	 24.295	  8.76428	 10.22727	 -1.78201	  6.35751	  1.23807	 -0.39981	 11.15391	705.35602	 23.30	
 20.405	 29.165	  8.78288	  9.97670	 -1.60175	  6.91556	  0.78821	 -0.42611	 11.16747	705.44397	 23.30	
 20.397	 34.097	  8.78393	  9.64903	 -1.37919	  7.44492	  0.36250	 -0.45614	 11.15231	705.50598	 23.30	
 20.392	 38.938	  8.80438	  9.29985	 -1.12689	  7.95198	 -0.01436	 -0.49448	 11.15730	705.44299	 23.30	
 20.396	 43.773	  8.82027	  8.90983	 -0.83438	  8.41827	 -0.35173	 -0.52648	 11.15565	705.35400	 23.30	
 20.408	 48.628	  8.82851	  8.47331	 -0.51037	  8.85992	 -0.67524	 -0.55570	 11.15843	705.52301	 23.30	
 20.410	 53.489	  8.84984	  8.01194	 -0.15866	  9.27331	 -0.96452	 -0.57333	 11.17148	705.49701	 23.30	
 20.400	 58.396	  8.85230	  7.49835	  0.24470	  9.61959	 -1.20221	 -0.59125	 11.15673	705.61499	 23.30	
 20.403	 63.259	  8.87166	  6.97741	  0.67687	  9.93536	 -1.40676	 -0.59148	 11.16397	705.41302	 23.30	
 20.413	 68.100	  8.89015	  6.44502	  1.13360	 10.19837	 -1.56869	 -0.59371	 11.17121	705.39801	 23.30	
 20.398	 72.996	  8.90297	  5.88691	  1.62504	 10.40907	 -1.70281	 -0.58385	 11.16957	705.54401	 23.30	
 20.394	 77.868	  8.90061	  5.31265	  2.13872	 10.54989	 -1.79334	 -0.56775	 11.15412	705.35602	 23.30	
 20.403	 82.668	  8.91246	  4.75365	  2.66172	 10.66188	 -1.86259	 -0.54828	 11.16139	705.45801	 23.30	
 20.392	 87.560	  8.95953	  4.20565	  3.22807	 10.74995	 -1.88910	 -0.52562	 11.20057	705.36700	 23.30	
 20.392	 92.440	  8.94621	  3.63477	  3.79684	 10.72577	 -1.87757	 -0.50005	 11.16989	705.27698	 23.30	
 20.403	 97.332	  8.94845	  3.07773	  4.36976	 10.68196	 -1.84985	 -0.48639	 11.16587	705.35901	 23.30	
 20.394	102.132	  8.96624	  2.56007	  4.95255	 10.59733	 -1.77905	 -0.48596	 11.17721	705.37097	 23.30	
 20.398	107.004	  8.96372	  2.04766	  5.53202	 10.44383	 -1.67488	 -0.49089	 11.16873	705.36499	 23.30	
 20.413	111.900	  8.95051	  1.55639	  6.09900	 10.23008	 -1.53216	 -0.50746	 11.15404	705.32501	 23.30	
 20.403	116.741	  8.97101	  1.10184	  6.66734	 10.00422	 -1.36536	 -0.51791	 11.17507	705.35400	 23.30	
 20.400	121.604	  8.95972	  0.66486	  7.20825	  9.69773	 -1.15976	 -0.53424	 11.16571	705.41199	 23.30	
 20.410	126.511	  8.95100	  0.26109	  7.72640	  9.34323	 -0.92079	 -0.54152	 11.16229	705.46600	 23.30	
 20.408	131.372	  8.97158	 -0.10262	  8.23731	  8.96821	 -0.63955	 -0.55997	 11.17877	705.41302	 23.30	
 20.396	136.227	  8.96068	 -0.42278	  8.68171	  8.51781	 -0.31474	 -0.57577	 11.15860	705.33099	 23.30	
 20.392	141.062	  8.95210	 -0.72366	  9.09746	  8.05460	  0.02441	 -0.57899	 11.15571	705.48798	 23.30	
 20.397	145.903	  8.95134	 -0.98556	  9.48041	  7.56669	  0.39769	 -0.58571	 11.16804	705.39301	 23.30	
 20.405	150.835	  8.94074	 -1.21985	  9.81752	  7.02448	  0.81879	 -0.58528	 11.16129	705.47400	 23.30	
 20.401	155.705	  8.94849	 -1.40939	 10.11155	  6.48773	  1.26679	 -0.58370	 11.17235	705.44897	 23.30	
 20.392	160.496	  8.92256	 -1.55955	 10.31549	  5.93013	  1.72587	 -0.57223	 11.15068	705.54199	 23.30	
 20.410	165.423	  8.92218	 -1.68986	 10.51174	  5.35598	  2.23118	 -0.55940	 11.16471	705.50000	 23.30	
 20.407	170.264	  8.91579	 -1.77922	 10.63704	  4.78386	  2.74840	 -0.54977	 11.16879	705.39600	 23.30	
 20.401	175.153	  8.89033	 -1.83121	 10.69037	  4.20856	  3.27845	 -0.53971	 11.15002	705.54999	 23.30	
  0.141	 45.000	 11.17940	  5.89252	  5.61187	  5.70591	  5.87984	  0.09304	 11.16358	705.48499	 23.30	
  4.001	128.691	 11.15290	  4.95134	  6.40731	  6.64321	  4.81329	  0.04188	 11.16053	705.38098	 23.30	
  4.002	 76.995	 11.14219	  6.08489	  5.21678	  6.90415	  4.56673	  0.03622	 11.15082	705.43701	 23.30	
  4.002	 25.892	 11.11660	  6.99196	  4.35696	  6.15025	  5.21370	  0.03495	 11.13920	705.34998	 23.30	
  4.002	-25.892	 11.12000	  6.97387	  4.36136	  4.96942	  6.39396	  0.03555	 11.15618	705.39600	 23.30	
  4.002	-76.995	 11.12549	  6.02819	  5.22185	  4.30756	  7.15386	  0.01752	 11.16025	705.53699	 23.30	
  4.001	-128.691	 11.15315	  4.92229	  6.41586	  4.56367	  6.89406	  0.02804	 11.17853	705.46002	 23.30	
  4.000	180.000	 11.16129	  4.48032	  6.95987	  5.56000	  5.82829	  0.05066	 11.17525	705.52002	 23.30	
  8.000	180.000	 10.94524	  2.93899	  8.18540	  5.32230	  5.57250	 -0.09824	 11.17470	705.40601	 23.30	
  7.991	-152.370	 10.93561	  3.18220	  7.85733	  4.08468	  6.87188	 -0.10230	 11.18877	705.46899	 23.30	
  7.997	-124.550	 10.89613	  3.94716	  6.90469	  3.14590	  7.89928	 -0.13113	 11.17439	705.44897	 23.30	
  8.006	-96.837	 10.86791	  5.10672	  5.61349	  2.72176	  8.37651	 -0.17521	 11.15725	705.34998	 23.30	
  7.988	-69.228	 10.85617	  6.42171	  4.31168	  2.86290	  8.19730	 -0.16763	 11.15964	705.44299	 23.30	
  7.997	-41.563	 10.85097	  7.56037	  3.28272	  3.52317	  7.40922	 -0.14738	 11.15475	705.38501	 23.30	
  8.008	-13.821	 10.88976	  8.26004	  2.73171	  4.64912	  6.20145	 -0.10794	 11.18274	705.32501	 23.30	
  8.008	 13.821	 10.88368	  8.26878	  2.71937	  5.95359	  4.87690	 -0.12147	 11.15549	705.39301	 23.30	
  7.997	 41.563	 10.90374	  7.64309	  3.26982	  7.16897	  3.77988	 -0.12629	 11.15198	705.40100	 23.30	
  7.988	 69.228	 10.92608	  6.53000	  4.29731	  7.97677	  3.12762	 -0.12310	 11.14042	705.37799	 23.30	
  8.006	 96.837	 10.96302	  5.24051	  5.60519	  8.17343	  3.00627	 -0.14706	 11.16619	705.45502	 23.30	
  7.997	124.550	 10.94812	  4.05934	  6.88058	  7.67008	  3.41797	 -0.11644	 11.15142	705.41602	 23.30	
  7.991	152.370	 10.96654	  3.25391	  7.84247	  6.63276	  4.34056	 -0.08650	 11.17271	705.39301	 23.30	
 12.009	161.059	 10.53460	  1.55367	  9.00326	  6.29223	  3.87281	 -0.26631	 11.17878	705.55798	 23.30	
 12.013	142.081	 10.53163	  2.11355	  8.28938	  7.55108	  2.74775	 -0.30018	 11.16273	705.33002	 23.30	
 12.006	123.113	 10.54848	  3.02411	  7.21420	  8.53448	  1.94767	 -0.33824	 11.17096	705.40900	 23.30	
 12.007	104.200	 10.53597	  4.18890	  5.89073	  9.10985	  1.47547	 -0.38590	 11.16625	705.34003	 23.30	
 11.989	 85.301	 10.52266	  5.51256	  4.51017	  9.21475	  1.37871	 -0.37873	 11.16386	705.30298	 23.30	
 12.013	 66.294	 10.49946	  6.85031	  3.22414	  8.84569	  1.64470	 -0.33397	 11.16283	705.47998	 23.30	
 12.012	 47.388	 10.48637	  8.03564	  2.17704	  8.03785	  2.28634	 -0.33256	 11.17855	705.40997	 23.30	
 11.990	 28.440	 10.43652	  8.87632	  1.44231	  6.88320	  3.23309	 -0.32509	 11.15844	705.38202	 23.30	
 11.991	  9.464	 10.43168	  9.33085	  1.08137	  5.56584	  4.45322	 -0.33417	 11.18536	705.41998	 23.30	
 11.991	 -9.464	 10.36524	  9.26290	  1.08229	  4.19098	  5.78051	 -0.30191	 11.13883	705.43701	 23.30	
 11.990	-28.440	 10.37595	  8.79520	  1.46815	  2.97682	  7.12865	 -0.31023	 11.17342	705.47198	 23.30	
 12.012	-47.388	 10.36088	  7.88551	  2.19684	  2.01687	  8.24631	 -0.35414	 11.16481	705.38098	 23.30	
 12.013	-66.294	 10.37273	  6.68446	  3.24827	  1.37824	  9.05196	 -0.38875	 11.17964	705.40399	 23.30	
 11.989	-85.301	 10.38809	  5.33523	  4.53853	  1.12197	  9.39666	 -0.40565	 11.17088	705.26099	 23.30	
 12.007	-104.200	 10.40631	  4.01677	  5.91288	  1.20844	  9.29872	 -0.38883	 11.18321	705.26001	 23.30	
 12.006	-123.113	 10.41838	  2.87209	  7.21400	  1.67008	  8.72734	 -0.32393	 11.17433	705.40399	 23.30	
 12.013	-142.081	 10.42742	  2.00647	  8.28051	  2.49110	  7.74739	 -0.30499	 11.15313	705.52301	 23.30	
 12.009	-161.059	 10.45783	  1.48942	  8.98425	  3.60842	  6.50499	 -0.31106	 11.15648	705.27100	 23.30	
 16.000	180.000	  9.84640	 -0.23040	 10.07451	  4.37648	  4.60367	 -0.50845	 11.17320	705.33398	 23.30	
 15.990	-165.604	  9.80371	 -0.13098	  9.88493	  3.06879	  5.95057	 -0.50096	 11.16545	705.42102	 23.20	
 16.002	-151.165	  9.78648	  0.22916	  9.35426	  1.89741	  7.26813	 -0.47961	 11.18043	705.29901	 23.20	
 16.002	-136.836	  9.74644	  0.84362	  8.47737	  0.92141	  8.42596	 -0.45475	 11.17626	705.37799	 23.20	
 15.995	-122.439	  9.70053	  1.71340	  7.33020	  0.20768	  9.31417	 -0.45249	 11.14764	705.31702	 23.30	
 15.993	-107.966	  9.68414	  2.80429	  6.02941	 -0.26457	  9.93023	 -0.48281	 11.15711	705.33301	 23.30	
 16.005	-93.629	  9.66735	  4.05191	  4.66090	 -0.47203	 10.19791	 -0.44507	 11.16518	705.39801	 23.30	
 15.992	-79.234	  9.64784	  5.40120	  3.31817	 -0.41472	 10.10601	 -0.40259	 11.15974	705.42603	 23.30	
 16.009	-64.774	  9.65032	  6.76137	  2.09807	 -0.09856	  9.67973	 -0.39850	 11.17461	705.42603	 23.30	
 15.997	-50.364	  9.64511	  7.99042	  1.07584	  0.49319	  8.89350	 -0.41549	 11.16669	705.48297	 23.30	
 15.997	-36.045	  9.64506	  8.99222	  0.29012	  1.32136	  7.83638	 -0.40903	 11.15982	705.41302	 23.30	
 16.000	-21.597	  9.65974	  9.71303	 -0.24064	  2.38062	  6.58355	 -0.39554	 11.15643	705.19800	 23.20	
 16.003	 -7.169	  9.68973	 10.10688	 -0.51633	  3.63364	  5.22615	 -0.39826	 11.16556	705.24402	 23.20	
 16.003	  7.169	  9.73959	 10.15878	 -0.52739	  4.99015	  3.89401	 -0.42588	 11.19348	705.38501	 23.20	
 16.000	 21.597	  9.74999	  9.81388	 -0.27217	  6.34108	  2.64858	 -0.45251	 11.16933	705.26898	 23.20	
 15.997	 36.045	  9.78142	  9.14587	  0.25153	  7.61319	  1.58542	 -0.48566	 11.16875	705.26099	 23.20	
 15.997	 50.364	  9.80910	  8.18048	  1.02597	  8.69741	  0.73172	 -0.50486	 11.16755	705.18500	 23.20	
 16.009	 64.774	  9.83353	  6.98603	  2.04382	  9.49414	  0.14720	 -0.50072	 11.16096	705.29498	 23.20	
 15.992	 79.234	  9.87032	  5.65983	  3.27318	  9.97849	 -0.17643	 -0.54814	 11.17995	705.24597	 23.20	
 16.005	 93.629	  9.88653	  4.30431	  4.61990	 10.07449	 -0.22610	 -0.57110	 11.17479	705.34698	 23.20	
 15.993	107.966	  9.89523	  3.03554	  5.99959	  9.80263	 -0.01746	 -0.55369	 11.16300	705.25500	 23.20	
 15.995	122.439	  9.90312	  1.90785	  7.32874	  9.18582	  0.45267	 -0.52084	 11.17078	705.24402	 23.20	
 16.002	136.836	  9.88179	  0.99597	  8.45979	  8.24196	  1.16877	 -0.48544	 11.15192	705.20502	 23.20	
 16.002	151.165	  9.86384	  0.32952	  9.32908	  7.06700	  2.12141	 -0.46227	 11.14444	705.30200	 23.20	
 15.990	165.604	  9.85852	 -0.07601	  9.88228	  5.73614	  3.30065	 -0.46417	 11.15518	705.19000	 23.30	
 20.003	168.362	  9.00621	 -1.60487	 10.53962	  5.05250	  2.63989	 -0.56646	 11.16170	705.36499	 23.30	
 20.008	156.764	  9.01971	 -1.31640	 10.11059	  6.38335	  1.46839	 -0.57776	 11.15315	705.36700	 23.20	
 20.000	145.147	  9.05403	 -0.82189	  9.41521	  7.65808	  0.45939	 -0.57462	 11.18128	705.36700	 23.30	
 19.995	133.545	  9.05778	 -0.11901	  8.42941	  8.74845	 -0.35625	 -0.56267	 11.16479	705.18799	 23.30	
 20.009	121.926	  9.04690	  0.75098	  7.25096	  9.63931	 -1.01144	 -0.54063	 11.15862	705.19598	 23.30	
 20.005	110.327	  9.05835	  1.81448	  5.96197	 10.26911	 -1.43634	 -0.51071	 11.16745	705.23602	 23.30	
 19.989	 98.733	  9.05080	  3.01439	  4.60687	 10.60877	 -1.67492	 -0.49933	 11.16893	705.22302	 23.30	
 19.999	 87.075	  9.05742	  4.32532	  3.26499	 10.69860	 -1.73503	 -0.53316	 11.19607	705.28003	 23.30	
 19.992	 75.457	  9.01095	  5.64593	  2.00089	 10.43806	 -1.58671	 -0.58054	 11.16265	705.16803	 23.30	
 20.009	 63.844	  8.96395	  6.93198	  0.85250	  9.91503	 -1.27279	 -0.59541	 11.14930	705.26300	 23.30	
 19.989	 52.269	  8.94997	  8.13023	 -0.10472	  9.14421	 -0.73480	 -0.57133	 11.16458	705.15698	 23.30	
 19.999	 40.602	  8.92673	  9.17114	 -0.89419	  8.12673	 -0.00184	 -0.51329	 11.18356	705.21802	 23.30	
 20.004	 29.051	  8.88104	  9.94986	 -1.46860	  6.91804	  0.91462	 -0.42817	 11.16574	705.15302	 23.30	
 20.005	 17.433	  8.84062	 10.45750	 -1.83091	  5.61083	  1.99794	 -0.38175	 11.14866	705.16998	 23.30	
 20.006	  5.780	  8.82392	 10.72250	 -2.01945	  4.27108	  3.22303	 -0.36169	 11.16780	705.26801	 23.30	
 20.006	 -5.780	  8.80409	 10.69912	 -2.00101	  2.97378	  4.53217	 -0.35845	 11.16980	705.17603	 23.30	
 20.005	-17.433	  8.76379	 10.37967	 -1.80769	  1.74365	  5.85977	 -0.37417	 11.14633	705.24701	 23.30	
 20.004	-29.051	  8.73614	  9.79088	 -1.42146	  0.65877	  7.14560	 -0.36372	 11.14622	705.27698	 23.30	
 19.999	-40.602	  8.74091	  8.95850	 -0.83306	 -0.23152	  8.31846	 -0.35788	 11.16102	705.21301	 23.30	
 19.989	-52.269	  8.73984	  7.89081	 -0.04321	 -0.96566	  9.32851	 -0.35904	 11.16950	705.20398	 23.30	
 20.009	-63.844	  8.74239	  6.67072	  0.92648	 -1.47829	 10.06998	 -0.33035	 11.16761	705.27197	 23.20	
 19.992	-75.457	  8.76236	  5.35855	  2.06641	 -1.79627	 10.55735	 -0.33207	 11.16750	705.23798	 23.20	
 19.999	-87.075	  8.76381	  4.02056	  3.31541	 -1.93234	 10.74143	 -0.34074	 11.14982	705.37500	 23.20	
 19.989	-98.733	  8.77946	  2.73171	  4.65598	 -1.87847	 10.67744	 -0.36738	 11.15002	705.43298	 23.20	
 20.005	-110.327	  8.80092	  1.56401	  5.99616	 -1.64520	 10.35359	 -0.43822	 11.15905	705.38501	 23.30	
 20.009	-121.926	  8.83286	  0.55165	  7.28398	 -1.20943	  9.75177	 -0.48544	 11.17400	705.29498	 23.20	
 19.995	-133.545	  8.84946	 -0.28772	  8.42935	 -0.57007	  8.86970	 -0.51055	 11.15976	705.29999	 23.20	
 20.000	-145.147	  8.88148	 -0.93661	  9.39309	  0.26246	  7.78783	 -0.52384	 11.16495	705.30603	 23.20	
 20.008	-156.764	  8.92093	 -1.39920	 10.11955	  1.27319	  6.55496	 -0.51592	 11.17624	705.22302	 23.20	
 20.003	-168.362	  8.96444	 -1.65191	 10.55179	  2.44033	  5.24292	 -0.50546	 11.18576	705.39502	 23.30	
 20.000	180.000	  8.98643	 -1.71959	 10.67980	  3.71693	  3.91055	 -0.53794	 11.16308	705.24597	 23.30	
