FileType=PCF
NHL=14
Date=10/25/18	11:00:11
Facility=APL
Serial=16328-1
Customer=NASA
NP=6
Mach=0.100000
Calibration=1:1
CalPts=490
TstPts=95
PortNumbering=AP Standard
Units=Torr C m/s kg/m^3 deg mm 
Theta[deg]	Phi[deg]	P1[Torr]	P2[Torr]	P3[Torr]	P4[Torr]	P5[Torr]	P6[Torr]	Pt[Torr]	Ps[Abs,Torr]	Ts[C]	
  0.000	  0.000	  4.96966	  2.66950	  2.53542	  2.55914	  2.64746	  0.03834	  4.96702	711.54199	 14.80	
  1.691	128.401	  4.96888	  2.52425	  2.67933	  2.73991	  2.46002	  0.03716	  4.96592	711.64398	 14.70	
  1.692	 77.194	  4.98148	  2.72397	  2.48852	  2.78898	  2.42336	  0.03732	  4.97909	711.54199	 14.70	
  1.699	 26.182	  4.97810	  2.86564	  2.32818	  2.66242	  2.52829	  0.03223	  4.97683	711.62201	 14.70	
  1.699	-26.182	  4.96771	  2.85093	  2.32009	  2.43510	  2.73738	  0.02883	  4.96885	711.60400	 14.70	
  1.692	-77.194	  4.97510	  2.69923	  2.47694	  2.32061	  2.86533	  0.02892	  4.97541	711.63800	 14.70	
  1.691	-128.401	  4.97863	  2.50822	  2.68403	  2.37886	  2.81476	  0.03223	  4.97761	711.59601	 14.70	
  1.700	180.000	  4.96529	  2.42127	  2.77584	  2.55606	  2.64308	  0.03655	  4.96390	711.58398	 14.70	
  3.400	180.000	  4.96620	  2.16858	  2.99964	  2.52258	  2.62490	  0.02022	  4.96682	711.63098	 14.70	
  3.388	-152.325	  4.96858	  2.21161	  2.94642	  2.30642	  2.84866	  0.01794	  4.97368	711.63098	 14.70	
  3.397	-124.529	  4.95710	  2.33721	  2.78196	  2.13104	  3.01829	  0.01585	  4.96555	711.57599	 14.70	
  3.399	-96.763	  4.95978	  2.55113	  2.55195	  2.04200	  3.11381	  0.01289	  4.97054	711.64398	 14.70	
  3.394	-69.283	  4.94898	  2.77341	  2.31848	  2.05682	  3.07611	  0.01196	  4.95996	711.55798	 14.70	
  3.400	-41.398	  4.96764	  2.99657	  2.13372	  2.18343	  2.94618	  0.00987	  4.98080	711.61401	 14.70	
  3.401	-14.021	  4.97227	  3.11998	  2.03461	  2.38555	  2.73506	  0.01335	  4.98441	711.63800	 14.70	
  3.401	 14.021	  4.96457	  3.12373	  2.03186	  2.62191	  2.49238	  0.01613	  4.97346	711.62000	 14.70	
  3.400	 41.398	  4.96444	  3.02245	  2.13130	  2.84131	  2.28717	  0.01651	  4.97377	711.55701	 14.70	
  3.394	 69.283	  4.96742	  2.81466	  2.32873	  2.98932	  2.17077	  0.01965	  4.97237	711.61499	 14.70	
  3.399	 96.763	  4.97107	  2.58966	  2.55189	  3.02339	  2.15702	  0.02087	  4.97412	711.56598	 14.60	
  3.397	124.529	  4.97788	  2.38111	  2.78024	  2.94242	  2.23602	  0.02158	  4.98107	711.63898	 14.60	
  3.388	152.325	  4.97629	  2.22844	  2.94575	  2.76215	  2.40029	  0.02114	  4.97865	711.67902	 14.60	
  5.099	161.165	  4.95718	  1.92898	  3.20641	  2.74945	  2.34023	  0.00638	  4.97565	711.66302	 14.60	
  5.109	142.013	  4.96092	  2.03518	  3.08419	  2.97911	  2.13337	  0.00294	  4.98032	711.57898	 14.60	
  5.095	123.033	  4.95082	  2.20516	  2.88224	  3.15381	  1.96764	  0.00509	  4.97144	711.54199	 14.60	
  5.105	104.191	  4.94587	  2.42219	  2.64400	  3.25411	  1.87671	  0.00118	  4.96796	711.54401	 14.60	
  5.093	 85.207	  4.95471	  2.67709	  2.39614	  3.27323	  1.86340	  0.00061	  4.97894	711.59497	 14.60	
  5.104	 66.290	  4.95055	  2.92365	  2.15663	  3.20110	  1.90988	  0.00108	  4.97597	711.49597	 14.60	
  5.094	 47.331	  4.94393	  3.13587	  1.95712	  3.04557	  2.03344	  0.00052	  4.97338	711.44702	 14.60	
  5.089	 28.397	  4.93355	  3.28629	  1.81251	  2.82581	  2.21983	 -0.00250	  4.96659	711.45801	 14.60	
  5.096	  9.576	  4.93522	  3.36683	  1.73894	  2.58760	  2.44283	 -0.00332	  4.97158	711.50702	 14.60	
  5.096	 -9.576	  4.93705	  3.35989	  1.73767	  2.33199	  2.69881	 -0.00607	  4.97693	711.55200	 14.60	
  5.089	-28.397	  4.93743	  3.26702	  1.81419	  2.09977	  2.94170	 -0.00726	  4.97663	711.53400	 14.60	
  5.094	-47.331	  4.93846	  3.09848	  1.95805	  1.91882	  3.14885	 -0.00995	  4.97899	711.43597	 14.50	
  5.104	-66.290	  4.94306	  2.88416	  2.15453	  1.79732	  3.29851	 -0.01080	  4.98311	711.51099	 14.50	
  5.093	-85.207	  4.94211	  2.63389	  2.39527	  1.74730	  3.36216	 -0.01088	  4.97831	711.43103	 14.50	
  5.105	-104.191	  4.94562	  2.39198	  2.64620	  1.77686	  3.34234	 -0.00556	  4.97775	711.52002	 14.50	
  5.095	-123.033	  4.94761	  2.17808	  2.88097	  1.87074	  3.23939	 -0.00403	  4.97578	711.51801	 14.50	
  5.109	-142.013	  4.96179	  2.01164	  3.08899	  2.03730	  3.06974	 -0.00036	  4.98750	711.43103	 14.50	
  5.099	-161.165	  4.96930	  1.91416	  3.21961	  2.26501	  2.84002	 -0.00054	  4.99217	711.53101	 14.50	
  5.100	180.000	  4.97718	  1.89258	  3.26423	  2.51337	  2.58957	  0.00092	  4.99874	711.54999	 14.40	
  6.800	180.000	  4.92668	  1.59114	  3.49172	  2.46327	  2.53890	 -0.02479	  4.98634	711.45300	 14.40	
  6.796	-166.229	  4.91573	  1.59767	  3.45868	  2.21394	  2.77702	 -0.02943	  4.98185	711.41998	 14.40	
  6.808	-152.311	  4.93208	  1.66885	  3.38192	  1.98704	  3.02749	 -0.03205	  5.00601	711.51703	 14.30	
  6.795	-138.383	  4.91012	  1.78705	  3.21349	  1.78396	  3.23102	 -0.03084	  4.98742	711.54199	 14.30	
  6.792	-124.591	  4.91465	  1.95097	  3.02631	  1.63016	  3.40802	 -0.03512	  4.99554	711.47699	 14.30	
  6.787	-110.754	  4.91591	  2.16534	  2.79339	  1.51763	  3.53671	 -0.04014	  5.00037	711.41498	 14.20	
  6.800	-96.985	  4.90108	  2.39204	  2.53765	  1.45370	  3.59207	 -0.04105	  4.98710	711.42603	 14.20	
  6.800	-83.015	  4.91540	  2.64613	  2.29568	  1.45542	  3.60179	 -0.04495	  5.00465	711.47101	 14.20	
  6.787	-69.246	  4.90803	  2.88896	  2.05613	  1.50250	  3.53275	 -0.04880	  4.99845	711.38300	 14.20	
  6.792	-55.409	  4.90521	  3.11910	  1.84541	  1.59938	  3.40535	 -0.04527	  4.99330	711.46600	 14.20	
  6.795	-41.617	  4.90332	  3.31618	  1.67027	  1.74342	  3.23499	 -0.03904	  4.98997	711.42603	 14.20	
  6.808	-27.689	  4.89915	  3.47305	  1.53457	  1.93051	  3.01897	 -0.03917	  4.98739	711.45001	 14.20	
  6.796	-13.771	  4.89897	  3.57248	  1.45843	  2.16074	  2.77382	 -0.04043	  4.98369	711.48999	 14.20	
  6.800	  0.000	  4.90450	  3.61826	  1.42595	  2.40906	  2.52632	 -0.03386	  4.98915	711.45300	 14.10	
  6.796	 13.771	  4.90946	  3.59731	  1.45621	  2.65966	  2.28826	 -0.03201	  4.99221	711.47900	 14.10	
  6.808	 27.689	  4.91096	  3.51008	  1.53701	  2.90562	  2.06149	 -0.03480	  4.98907	711.46002	 14.10	
  6.795	 41.617	  4.90988	  3.36626	  1.66125	  3.12528	  1.86626	 -0.02865	  4.98455	711.51202	 14.10	
  6.792	 55.409	  4.92138	  3.17837	  1.84136	  3.30709	  1.72597	 -0.02712	  4.99085	711.43903	 14.10	
  6.787	 69.246	  4.91795	  2.95217	  2.04649	  3.43558	  1.62063	 -0.02843	  4.98423	711.47699	 14.10	
  6.800	 83.015	  4.91815	  2.70464	  2.28454	  3.50878	  1.56369	 -0.02913	  4.98205	711.43903	 14.10	
  6.800	 96.985	  4.92626	  2.46079	  2.53982	  3.51316	  1.57557	 -0.02558	  4.98572	711.44702	 14.10	
  6.787	110.754	  4.92416	  2.22596	  2.78213	  3.44879	  1.63549	 -0.02740	  4.98192	711.47900	 14.10	
  6.792	124.591	  4.92731	  2.01428	  3.01443	  3.33439	  1.73661	 -0.02669	  4.98398	711.44702	 14.10	
  6.795	138.383	  4.92555	  1.84314	  3.20645	  3.16487	  1.88105	 -0.02235	  4.98005	711.39099	 14.10	
  6.808	152.311	  4.92986	  1.70985	  3.36310	  2.95499	  2.07231	 -0.02321	  4.98607	711.42798	 14.10	
  6.796	166.229	  4.92775	  1.62535	  3.45905	  2.71120	  2.29633	 -0.02395	  4.98419	711.40399	 14.10	
  8.491	168.704	  4.87093	  1.31159	  3.68938	  2.66644	  2.22574	 -0.06184	  4.98302	711.45203	 14.10	
  8.502	157.493	  4.87335	  1.38112	  3.61170	  2.91900	  1.99137	 -0.06078	  4.98595	711.45801	 14.10	
  8.494	146.194	  4.87589	  1.49704	  3.47728	  3.15445	  1.78346	 -0.05567	  4.98730	711.46100	 14.10	
  8.495	135.039	  4.87434	  1.64512	  3.30841	  3.35406	  1.60745	 -0.05593	  4.98623	711.52502	 14.10	
  8.487	123.723	  4.86826	  1.82581	  3.09604	  3.52106	  1.45947	 -0.06344	  4.98104	711.49902	 14.10	
  8.492	112.575	  4.85675	  2.03629	  2.85494	  3.63628	  1.35134	 -0.06790	  4.96997	711.49500	 14.10	
  8.510	101.220	  4.86994	  2.27856	  2.60951	  3.72584	  1.28275	 -0.06665	  4.98978	711.43597	 14.10	
  8.500	 90.000	  4.85092	  2.52057	  2.34422	  3.73410	  1.25367	 -0.06410	  4.97184	711.45502	 14.10	
  8.510	 78.780	  4.85153	  2.77584	  2.09318	  3.69908	  1.27619	 -0.06689	  4.97318	711.49500	 14.10	
  8.492	 67.425	  4.84564	  3.02155	  1.85454	  3.60990	  1.33857	 -0.06489	  4.97078	711.41998	 14.10	
  8.487	 56.277	  4.84819	  3.25124	  1.64673	  3.47976	  1.44272	 -0.05897	  4.97705	711.45203	 14.10	
  8.495	 44.961	  4.84671	  3.45382	  1.46523	  3.30177	  1.58848	 -0.05984	  4.98112	711.45801	 14.10	
  8.494	 33.806	  4.84107	  3.62090	  1.31186	  3.08428	  1.76791	 -0.06876	  4.98071	711.48199	 14.20	
  8.502	 22.507	  4.82695	  3.73657	  1.19690	  2.83974	  1.97322	 -0.07093	  4.97188	711.52502	 14.20	
  8.491	 11.296	  4.83408	  3.80677	  1.13969	  2.59053	  2.21445	 -0.06802	  4.98087	711.48700	 14.10	
  8.500	  0.000	  4.82703	  3.82273	  1.11811	  2.33284	  2.45822	 -0.07000	  4.97685	711.45300	 14.20	
  8.491	-11.296	  4.82304	  3.79159	  1.13499	  2.07982	  2.71255	 -0.07640	  4.97578	711.44702	 14.20	
  8.502	-22.507	  4.82448	  3.70376	  1.20204	  1.84269	  2.96531	 -0.07633	  4.97899	711.40399	 14.20	
  8.494	-33.806	  4.82482	  3.56849	  1.31259	  1.63216	  3.19777	 -0.07568	  4.98005	711.48999	 14.20	
  8.495	-44.961	  4.81996	  3.38613	  1.46470	  1.46144	  3.39512	 -0.07724	  4.97325	711.49500	 14.20	
  8.487	-56.277	  4.81711	  3.17588	  1.64300	  1.30960	  3.57063	 -0.08711	  4.97350	711.52802	 14.20	
  8.492	-67.425	  4.81516	  2.94334	  1.84953	  1.20750	  3.69670	 -0.09106	  4.97097	711.40698	 14.20	
  8.510	-78.780	  4.81117	  2.68372	  2.09093	  1.14240	  3.77711	 -0.08627	  4.96759	711.43597	 14.20	
  8.500	-90.000	  4.81550	  2.43815	  2.33695	  1.12813	  3.80689	 -0.08191	  4.96930	711.46002	 14.20	
  8.510	-101.220	  4.82219	  2.19288	  2.59786	  1.15962	  3.78287	 -0.08136	  4.97269	711.49298	 14.20	
  8.492	-112.575	  4.82807	  1.96291	  2.85090	  1.23683	  3.70489	 -0.07659	  4.97331	711.42902	 14.20	
  8.487	-123.723	  4.84316	  1.75945	  3.09454	  1.35121	  3.58774	 -0.06806	  4.98418	711.38202	 14.30	
  8.495	-135.039	  4.83069	  1.57883	  3.29279	  1.50141	  3.40236	 -0.06226	  4.96665	711.46100	 14.30	
  8.494	-146.194	  4.84349	  1.44424	  3.46894	  1.68664	  3.20647	 -0.06535	  4.97485	711.45001	 14.30	
  8.502	-157.493	  4.84091	  1.34421	  3.59478	  1.90687	  2.96610	 -0.06901	  4.96672	711.40698	 14.30	
  8.491	-168.704	  4.85452	  1.29068	  3.68375	  2.14743	  2.72386	 -0.06490	  4.97461	711.31299	 14.30	
  8.500	180.000	  4.85118	  1.27499	  3.70462	  2.40155	  2.46712	 -0.06172	  4.96727	711.45300	 14.30	
 10.200	180.000	  4.77736	  0.96879	  3.91248	  2.33433	  2.39725	 -0.10261	  4.97028	711.37500	 14.30	
 10.191	-170.497	  4.78056	  0.97871	  3.89764	  2.08096	  2.65619	 -0.10739	  4.97792	711.31000	 14.30	
 10.210	-161.034	  4.76646	  1.01954	  3.82365	  1.83134	  2.90237	 -0.11185	  4.97100	711.34802	 14.30	
 10.194	-151.526	  4.75468	  1.09920	  3.70459	  1.59609	  3.14651	 -0.10898	  4.96545	711.40997	 14.30	
 10.190	-142.105	  4.74902	  1.21740	  3.55443	  1.39438	  3.36498	 -0.10291	  4.96318	711.41199	 14.30	
 10.215	-132.646	  4.75765	  1.37059	  3.37338	  1.21651	  3.57973	 -0.10159	  4.97967	711.36700	 14.30	
 10.203	-123.092	  4.74596	  1.54706	  3.15409	  1.06758	  3.74104	 -0.10678	  4.97333	711.37402	 14.40	
 10.192	-113.678	  4.73743	  1.75293	  2.91201	  0.95372	  3.86529	 -0.11420	  4.96887	711.40601	 14.30	
 10.208	-104.249	  4.73937	  1.98159	  2.66198	  0.87652	  3.95855	 -0.12110	  4.97622	711.40997	 14.40	
 10.210	-94.801	  4.72805	  2.22375	  2.39972	  0.83219	  3.99479	 -0.12192	  4.96709	711.37500	 14.40	
 10.210	-85.199	  4.72263	  2.47582	  2.13530	  0.82394	  3.99052	 -0.12632	  4.96241	711.36603	 14.40	
 10.208	-75.751	  4.72581	  2.73852	  1.88567	  0.85727	  3.94786	 -0.13127	  4.96683	711.40399	 14.40	
 10.192	-66.322	  4.73174	  2.98888	  1.66141	  0.92582	  3.86114	 -0.13028	  4.96937	711.42603	 14.40	
 10.203	-56.908	  4.72716	  3.21774	  1.45336	  1.02789	  3.72749	 -0.12835	  4.96448	711.38000	 14.40	
 10.215	-47.354	  4.72983	  3.44579	  1.25884	  1.16354	  3.56237	 -0.11857	  4.96607	711.28198	 14.40	
 10.190	-37.895	  4.73764	  3.63688	  1.10320	  1.33484	  3.36815	 -0.11203	  4.97320	711.42102	 14.40	
 10.194	-28.474	  4.72449	  3.78439	  0.97458	  1.53129	  3.13154	 -0.11185	  4.95724	711.41998	 14.40	
 10.210	-18.966	  4.73959	  3.91520	  0.88464	  1.75588	  2.89982	 -0.11349	  4.97629	711.34802	 14.40	
 10.191	 -9.503	  4.73585	  3.98185	  0.83066	  1.99704	  2.64165	 -0.11362	  4.96769	711.34497	 14.40	
 10.200	  0.000	  4.73116	  4.00832	  0.80921	  2.24949	  2.38066	 -0.10984	  4.96213	711.31702	 14.40	
 10.191	  9.503	  4.74114	  4.00081	  0.82895	  2.51011	  2.13310	 -0.10668	  4.96912	711.42902	 14.40	
 10.210	 18.966	  4.73972	  3.94521	  0.87805	  2.76336	  1.89157	 -0.11111	  4.96565	711.38702	 14.40	
 10.194	 28.474	  4.74178	  3.84025	  0.96830	  3.01740	  1.66593	 -0.10917	  4.96545	711.32300	 14.40	
 10.190	 37.895	  4.75512	  3.70678	  1.09359	  3.25056	  1.47447	 -0.10219	  4.97327	711.34802	 14.40	
 10.215	 47.354	  4.74900	  3.52319	  1.24850	  3.45651	  1.29217	 -0.09445	  4.96272	711.33398	 14.40	
 10.203	 56.908	  4.75563	  3.31271	  1.43908	  3.63490	  1.15777	 -0.09657	  4.96507	711.30902	 14.40	
 10.192	 66.322	  4.76244	  3.08559	  1.65070	  3.77386	  1.05564	 -0.10105	  4.96736	711.35303	 14.40	
 10.208	 75.751	  4.76800	  2.84428	  1.88185	  3.87666	  0.98056	 -0.10608	  4.97247	711.38300	 14.40	
 10.210	 85.199	  4.77295	  2.59077	  2.13502	  3.92748	  0.95044	 -0.10627	  4.97308	711.36700	 14.40	
 10.210	 94.801	  4.77419	  2.33089	  2.39355	  3.93120	  0.95809	 -0.10822	  4.96828	711.27002	 14.40	
 10.208	104.249	  4.77028	  2.07982	  2.65315	  3.89468	  0.98676	 -0.10889	  4.96446	711.35797	 14.40	
 10.192	113.678	  4.77773	  1.84928	  2.90806	  3.81302	  1.06361	 -0.10892	  4.96890	711.32397	 14.40	
 10.203	123.092	  4.77559	  1.63502	  3.14358	  3.68526	  1.17060	 -0.10415	  4.96450	711.25500	 14.40	
 10.215	132.646	  4.78586	  1.44400	  3.37057	  3.52596	  1.31202	 -0.09697	  4.97392	711.25299	 14.40	
 10.190	142.105	  4.77907	  1.28415	  3.55225	  3.32191	  1.47899	 -0.09274	  4.96546	711.30902	 14.40	
 10.194	151.526	  4.78553	  1.15637	  3.70602	  3.10434	  1.67653	 -0.09720	  4.97157	711.30200	 14.40	
 10.210	161.034	  4.77678	  1.05454	  3.81546	  2.85400	  1.89440	 -0.10327	  4.96448	711.38300	 14.40	
 10.191	170.497	  4.78604	  0.99737	  3.89366	  2.60265	  2.14216	 -0.10425	  4.97588	711.38300	 14.40	
 11.899	171.783	  4.68422	  0.68777	  4.07943	  2.52305	  2.05355	 -0.14353	  4.96741	711.33899	 14.40	
 11.890	163.610	  4.69041	  0.73708	  4.02605	  2.78326	  1.80931	 -0.14201	  4.97073	711.32300	 14.40	
 11.889	155.445	  4.68879	  0.82144	  3.92323	  3.03435	  1.58143	 -0.13833	  4.96683	711.27802	 14.40	
 11.909	147.299	  4.68572	  0.92900	  3.79239	  3.26820	  1.37110	 -0.13147	  4.96588	711.31799	 14.40	
 11.902	139.148	  4.68839	  1.07007	  3.62405	  3.48759	  1.18596	 -0.12982	  4.96814	711.29700	 14.40	
 11.894	130.867	  4.67881	  1.24306	  3.41562	  3.67436	  1.02219	 -0.13559	  4.95880	711.23102	 14.40	
 11.897	122.732	  4.69129	  1.43709	  3.20318	  3.84728	  0.88932	 -0.14471	  4.97362	711.31702	 14.40	
 11.903	114.597	  4.69088	  1.64922	  2.96364	  3.97549	  0.78518	 -0.15174	  4.97480	711.34198	 14.40	
 11.893	106.346	  4.68850	  1.88157	  2.70804	  4.06468	  0.71117	 -0.15459	  4.97307	711.31500	 14.40	
 11.892	 98.155	  4.67567	  2.12614	  2.43678	  4.10789	  0.66093	 -0.15257	  4.96269	711.30701	 14.40	
 11.900	 90.000	  4.67754	  2.37722	  2.18458	  4.12347	  0.64125	 -0.14948	  4.96666	711.31000	 14.40	
 11.892	 81.845	  4.67706	  2.63665	  1.92415	  4.09697	  0.65954	 -0.14834	  4.96928	711.25897	 14.40	
 11.893	 73.654	  4.66355	  2.88508	  1.67841	  4.02016	  0.70128	 -0.14246	  4.95730	711.34003	 14.40	
 11.903	 65.403	  4.66489	  3.13596	  1.44738	  3.92038	  0.77551	 -0.13699	  4.96235	711.37097	 14.40	
 11.897	 57.268	  4.66474	  3.37014	  1.23893	  3.78430	  0.87999	 -0.13208	  4.96761	711.28497	 14.40	
 11.894	 49.133	  4.66392	  3.58397	  1.05161	  3.61126	  1.02062	 -0.12995	  4.96947	711.31799	 14.40	
 11.902	 40.852	  4.65550	  3.77215	  0.88334	  3.40498	  1.18106	 -0.13787	  4.96770	711.34198	 14.40	
 11.909	 32.701	  4.64845	  3.92205	  0.74951	  3.17834	  1.36557	 -0.14639	  4.96458	711.34698	 14.40	
 11.889	 24.555	  4.64496	  4.04521	  0.64517	  2.93494	  1.57434	 -0.15024	  4.96539	711.27399	 14.40	
 11.890	 16.390	  4.64244	  4.13251	  0.56939	  2.68572	  1.79932	 -0.15071	  4.96734	711.30701	 14.40	
 11.899	  8.217	  4.64193	  4.18574	  0.52424	  2.42417	  2.04318	 -0.14777	  4.97055	711.32098	 14.40	
 11.900	  0.000	  4.64416	  4.19991	  0.50975	  2.16445	  2.29853	 -0.14915	  4.97584	711.21600	 14.40	
 11.899	 -8.217	  4.63956	  4.17543	  0.51771	  1.90673	  2.55676	 -0.15255	  4.97494	711.24500	 14.40	
 11.890	-16.390	  4.65594	  4.12209	  0.57205	  1.66765	  2.82437	 -0.15145	  4.99337	711.13098	 14.40	
 11.889	-24.555	  4.64808	  4.01091	  0.64955	  1.43297	  3.07464	 -0.14858	  4.98454	711.24200	 14.40	
 11.909	-32.701	  4.63753	  3.86514	  0.75398	  1.22243	  3.30374	 -0.14949	  4.97657	711.25897	 14.40	
 11.902	-40.852	  4.64407	  3.70208	  0.88970	  1.04151	  3.52545	 -0.15240	  4.98316	711.28601	 14.40	
 11.894	-49.133	  4.63198	  3.48931	  1.05132	  0.87624	  3.71698	 -0.16214	  4.97302	711.29700	 14.40	
 11.897	-57.268	  4.65224	  3.28215	  1.24895	  0.75010	  3.89689	 -0.16730	  4.99663	711.22900	 14.40	
 11.903	-65.403	  4.63433	  3.03491	  1.45183	  0.64678	  4.01066	 -0.16907	  4.97774	711.38800	 14.30	
 11.893	-73.654	  4.64192	  2.78864	  1.68679	  0.57381	  4.11457	 -0.17167	  4.98612	711.27002	 14.30	
 11.892	-81.845	  4.63748	  2.52458	  1.93220	  0.53239	  4.17169	 -0.17104	  4.98083	711.29401	 14.30	
 11.900	-90.000	  4.64765	  2.27480	  2.19105	  0.52122	  4.20221	 -0.16591	  4.99263	711.27698	 14.30	
 11.892	-98.155	  4.64316	  2.02300	  2.44861	  0.54248	  4.17940	 -0.16359	  4.98479	711.34698	 14.30	
 11.893	-106.346	  4.64546	  1.77661	  2.71227	  0.59556	  4.12119	 -0.15770	  4.98578	711.34497	 14.30	
 11.903	-114.597	  4.65542	  1.55211	  2.97240	  0.68196	  4.02798	 -0.14993	  4.98990	711.31500	 14.20	
 11.897	-122.732	  4.65156	  1.34829	  3.20274	  0.79644	  3.89008	 -0.14233	  4.97913	711.32599	 14.20	
 11.894	-130.867	  4.66760	  1.15947	  3.43581	  0.93232	  3.74078	 -0.13573	  4.99322	711.29303	 14.20	
 11.902	-139.148	  4.66804	  1.00464	  3.63324	  1.10407	  3.53976	 -0.14020	  4.98563	711.24701	 14.20	
 11.909	-147.299	  4.67388	  0.87687	  3.80394	  1.30207	  3.31720	 -0.14870	  4.98522	711.18799	 14.20	
 11.889	-155.445	  4.68850	  0.78373	  3.94040	  1.52312	  3.08856	 -0.15388	  4.99260	711.25897	 14.20	
 11.890	-163.610	  4.69051	  0.71497	  4.03703	  1.75750	  2.83452	 -0.15598	  4.98703	711.29700	 14.10	
 11.899	-171.783	  4.69803	  0.67016	  4.10386	  2.00798	  2.57758	 -0.14955	  4.99486	711.17798	 14.10	
 11.900	180.000	  4.70960	  0.66913	  4.12378	  2.27213	  2.32108	 -0.14667	  4.99805	711.28601	 14.10	
 13.600	180.000	  4.59415	  0.35841	  4.30071	  2.18087	  2.22109	 -0.18603	  4.99762	711.23499	 14.10	
 13.608	-172.853	  4.59049	  0.36081	  4.28553	  1.92140	  2.48020	 -0.19110	  4.99999	711.25500	 14.10	
 13.611	-165.583	  4.57669	  0.39092	  4.22618	  1.66508	  2.73674	 -0.19550	  4.99154	711.26703	 14.10	
 13.601	-158.353	  4.57048	  0.45592	  4.13484	  1.42543	  2.99163	 -0.19363	  4.99048	711.21002	 14.10	
 13.609	-151.210	  4.56426	  0.53892	  4.01439	  1.20085	  3.23767	 -0.18751	  4.99159	711.28497	 14.10	
 13.611	-143.999	  4.54902	  0.64666	  3.85691	  0.99046	  3.46238	 -0.17973	  4.98183	711.27399	 14.10	
 13.601	-136.825	  4.55862	  0.78716	  3.68531	  0.81050	  3.68758	 -0.17359	  5.00011	711.30499	 14.00	
 13.596	-129.640	  4.56328	  0.94787	  3.48898	  0.65202	  3.88435	 -0.17233	  5.01144	711.27698	 14.00	
 13.611	-122.431	  4.54087	  1.12321	  3.25440	  0.51066	  4.03335	 -0.17593	  4.99412	711.28198	 14.00	
 13.604	-115.211	  4.53492	  1.33199	  3.00495	  0.40187	  4.16381	 -0.18122	  4.99183	711.29102	 14.00	
 13.595	-108.042	  4.52041	  1.54890	  2.74795	  0.31400	  4.25223	 -0.18540	  4.97922	711.19397	 14.00	
 13.607	-100.793	  4.52575	  1.78933	  2.48922	  0.25327	  4.32896	 -0.19044	  4.98822	711.21002	 14.00	
 13.601	-93.617	  4.53027	  2.03764	  2.23127	  0.22276	  4.36729	 -0.19438	  4.99576	711.22601	 14.00	
 13.601	-86.383	  4.52714	  2.29445	  1.96785	  0.21810	  4.36544	 -0.19515	  4.99310	711.21600	 14.00	
 13.607	-79.207	  4.52788	  2.55771	  1.71507	  0.24281	  4.32658	 -0.19627	  4.99151	711.22101	 13.90	
 13.595	-71.958	  4.52996	  2.81482	  1.47568	  0.28866	  4.26140	 -0.19409	  4.99442	711.24200	 13.90	
 13.604	-64.789	  4.53384	  3.06687	  1.24834	  0.36039	  4.16523	 -0.19370	  4.99702	711.28302	 13.90	
 13.611	-57.569	  4.52725	  3.30097	  1.03990	  0.46617	  4.02033	 -0.19346	  4.98795	711.15302	 13.90	
 13.596	-50.360	  4.53412	  3.53398	  0.85039	  0.59502	  3.86065	 -0.19240	  4.99304	711.14801	 13.90	
 13.601	-43.175	  4.53807	  3.73890	  0.68393	  0.74416	  3.67434	 -0.18689	  4.99601	711.16498	 13.90	
 13.611	-36.001	  4.53239	  3.91810	  0.53819	  0.91081	  3.45834	 -0.18362	  4.99357	711.21002	 13.90	
 13.609	-28.790	  4.54157	  4.07632	  0.42194	  1.11299	  3.23133	 -0.18402	  5.00177	711.13098	 13.90	
 13.601	-21.647	  4.51936	  4.19032	  0.31949	  1.31958	  2.97052	 -0.18555	  4.97892	711.18903	 13.90	
 13.611	-14.417	  4.53860	  4.30206	  0.24753	  1.55834	  2.72857	 -0.19179	  5.00087	711.14801	 13.90	
 13.608	 -7.147	  4.53647	  4.35450	  0.21387	  1.80804	  2.46402	 -0.19088	  4.99218	711.09198	 13.80	
 13.600	  0.000	  4.53888	  4.38186	  0.20006	  2.05911	  2.20953	 -0.19401	  4.99276	711.11499	 13.80	
 13.608	  7.147	  4.54668	  4.38146	  0.20984	  2.32120	  1.95975	 -0.19686	  5.00040	711.14203	 13.80	
 13.611	 14.417	  4.54126	  4.32927	  0.24777	  2.58721	  1.70731	 -0.20001	  4.98967	711.15399	 13.80	
 13.601	 21.647	  4.55213	  4.25660	  0.31896	  2.85264	  1.47561	 -0.19926	  4.99544	711.31299	 13.80	
 13.609	 28.790	  4.55689	  4.14771	  0.41052	  3.10165	  1.26344	 -0.19417	  4.99489	711.29303	 13.80	
 13.611	 36.001	  4.56860	  4.01400	  0.53143	  3.34603	  1.06268	 -0.18726	  5.00328	711.17999	 13.80	
 13.601	 43.175	  4.57467	  3.84402	  0.67697	  3.56894	  0.88630	 -0.17501	  5.00308	711.26599	 13.80	
 13.596	 50.360	  4.57121	  3.64627	  0.83867	  3.76248	  0.73300	 -0.16818	  4.99486	711.22302	 13.80	
 13.611	 57.569	  4.57870	  3.43541	  1.02967	  3.93488	  0.60528	 -0.17045	  4.99692	711.37402	 13.80	
 13.604	 64.789	  4.58211	  3.19782	  1.23912	  4.07842	  0.50108	 -0.17445	  4.99394	711.27002	 13.80	
 13.595	 71.958	  4.57832	  2.95027	  1.46149	  4.18252	  0.42155	 -0.18206	  4.98728	711.34497	 13.80	
 13.607	 79.207	  4.58114	  2.68940	  1.70369	  4.26461	  0.36508	 -0.18732	  4.98924	711.26202	 13.70	
 13.601	 86.383	  4.59224	  2.43648	  1.96159	  4.31123	  0.34421	 -0.19229	  4.99546	711.20203	 13.70	
 13.601	 93.617	  4.59899	  2.18647	  2.21977	  4.32177	  0.34817	 -0.19369	  4.99852	711.17798	 13.70	
 13.607	100.793	  4.59392	  1.92741	  2.48083	  4.29885	  0.36400	 -0.19789	  4.99728	711.28302	 13.70	
 13.595	108.042	  4.59161	  1.67834	  2.74441	  4.22641	  0.42488	 -0.19467	  4.98886	711.24298	 13.70	
 13.604	115.211	  4.60269	  1.45602	  3.00450	  4.13903	  0.50640	 -0.19123	  4.99908	711.21997	 13.70	
 13.611	122.431	  4.60249	  1.24012	  3.24999	  4.00867	  0.60633	 -0.18439	  4.99797	711.26898	 13.70	
 13.596	129.640	  4.60576	  1.05108	  3.47558	  3.84715	  0.74125	 -0.17447	  4.99716	711.18597	 13.70	
 13.601	136.825	  4.60767	  0.87449	  3.68787	  3.66242	  0.89372	 -0.16951	  4.99931	711.27802	 13.70	
 13.611	143.999	  4.60869	  0.72896	  3.86650	  3.45062	  1.07265	 -0.16769	  4.99843	711.19397	 13.70	
 13.609	151.210	  4.61007	  0.60124	  4.02455	  3.21537	  1.27444	 -0.17074	  5.00054	711.28998	 13.70	
 13.601	158.353	  4.60880	  0.50513	  4.14464	  2.97393	  1.48668	 -0.17536	  5.00158	711.10999	 13.70	
 13.611	165.583	  4.59946	  0.43020	  4.22531	  2.71053	  1.71698	 -0.18036	  4.99487	711.17200	 13.70	
 13.608	172.853	  4.60261	  0.38240	  4.28417	  2.44627	  1.96876	 -0.18304	  5.00138	711.14001	 13.70	
 15.298	173.587	  4.47356	  0.08380	  4.44086	  2.34754	  1.85899	 -0.21121	  5.00055	711.20398	 13.70	
 15.291	167.167	  4.46374	  0.12145	  4.38186	  2.60236	  1.61020	 -0.20775	  4.98711	711.31299	 13.60	
 15.307	160.676	  4.47355	  0.18032	  4.31543	  2.86907	  1.37469	 -0.20817	  4.99840	711.21198	 13.60	
 15.300	154.261	  4.46932	  0.27083	  4.20008	  3.11428	  1.15280	 -0.20403	  4.98997	711.21002	 13.60	
 15.288	147.854	  4.47142	  0.37912	  4.06248	  3.35460	  0.95214	 -0.20088	  4.99260	711.20001	 13.60	
 15.293	141.428	  4.47897	  0.51179	  3.90286	  3.58621	  0.76403	 -0.19955	  5.00068	711.25500	 13.60	
 15.299	134.985	  4.48060	  0.66439	  3.71471	  3.79548	  0.59673	 -0.20417	  5.00196	711.20801	 13.60	
 15.305	128.583	  4.47425	  0.83353	  3.50122	  3.97055	  0.45191	 -0.21016	  4.99650	711.21198	 13.60	
 15.309	122.142	  4.47336	  1.02581	  3.27037	  4.12899	  0.32674	 -0.21791	  4.99577	711.21997	 13.60	
 15.304	115.711	  4.47714	  1.24119	  3.02370	  4.26754	  0.22073	 -0.22338	  5.00476	711.21600	 13.60	
 15.297	109.291	  4.47569	  1.46151	  2.77693	  4.36411	  0.14668	 -0.22597	  5.00390	711.27802	 13.60	
 15.293	102.897	  4.46611	  1.69584	  2.51034	  4.42388	  0.08985	 -0.22576	  4.99345	711.25897	 13.60	
 15.293	 96.458	  4.46837	  1.95012	  2.24534	  4.46838	  0.05433	 -0.22615	  4.99838	711.23499	 13.60	
 15.300	 90.000	  4.46189	  2.20155	  1.98019	  4.47475	  0.03937	 -0.22289	  4.99609	711.15399	 13.60	
 15.293	 83.542	  4.45951	  2.45695	  1.72892	  4.44962	  0.04715	 -0.22460	  4.99473	711.20398	 13.60	
 15.293	 77.103	  4.45750	  2.71929	  1.47925	  4.39318	  0.08383	 -0.21973	  4.99319	711.22601	 13.50	
 15.297	 70.709	  4.46329	  2.97688	  1.24946	  4.31709	  0.14269	 -0.21627	  5.00274	711.15002	 13.50	
 15.304	 64.289	  4.45310	  3.21906	  1.02379	  4.19888	  0.21999	 -0.21040	  4.99588	711.19598	 13.50	
 15.309	 57.858	  4.44896	  3.45579	  0.81391	  4.05497	  0.32283	 -0.20531	  4.99688	711.24298	 13.50	
 15.305	 51.417	  4.45066	  3.67668	  0.63192	  3.88885	  0.44651	 -0.20291	  5.00511	711.22101	 13.50	
 15.299	 45.015	  4.44358	  3.87484	  0.46586	  3.68748	  0.59896	 -0.20925	  4.99943	711.25098	 13.50	
 15.293	 38.572	  4.44286	  4.05301	  0.32013	  3.47470	  0.76742	 -0.21697	  5.00235	711.14001	 13.50	
 15.288	 32.146	  4.43752	  4.20470	  0.19228	  3.24575	  0.95143	 -0.22434	  5.00489	711.31299	 13.50	
 15.300	 25.739	  4.43203	  4.32720	  0.09036	  3.00071	  1.15159	 -0.23256	  5.00389	711.20001	 13.50	
 15.307	 19.324	  4.42553	  4.42584	  0.00826	  2.74211	  1.37078	 -0.23166	  5.00272	711.23499	 13.50	
 15.291	 12.833	  4.42055	  4.48519	 -0.04141	  2.47706	  1.61098	 -0.22695	  4.99827	711.16998	 13.50	
 15.298	  6.413	  4.42244	  4.52768	 -0.07885	  2.21682	  1.85819	 -0.22192	  5.00509	711.25000	 13.50	
 15.300	  0.000	  4.42735	  4.54339	 -0.09096	  1.95806	  2.11048	 -0.21879	  5.01501	711.17200	 13.50	
 15.298	 -6.413	  4.41112	  4.50691	 -0.07977	  1.69655	  2.36198	 -0.21873	  5.00047	711.10199	 13.50	
 15.291	-12.833	  4.41401	  4.45706	 -0.04376	  1.45664	  2.62081	 -0.21755	  5.00339	711.11603	 13.40	
 15.307	-19.324	  4.41437	  4.37408	  0.01579	  1.21754	  2.88343	 -0.21599	  5.00447	711.16998	 13.40	
 15.300	-25.739	  4.41008	  4.26286	  0.09152	  0.99491	  3.13173	 -0.21301	  5.00403	711.11499	 13.40	
 15.288	-32.146	  4.41524	  4.12064	  0.20230	  0.80076	  3.37007	 -0.20901	  5.00779	711.17798	 13.40	
 15.293	-38.572	  4.41655	  3.95712	  0.32588	  0.61614	  3.59535	 -0.20906	  5.01062	711.22803	 13.40	
 15.299	-45.015	  4.42466	  3.77497	  0.47330	  0.44826	  3.81486	 -0.21082	  5.02519	711.17999	 13.40	
 15.305	-51.417	  4.40365	  3.54745	  0.63647	  0.30357	  3.98206	 -0.20837	  5.00268	711.11798	 13.40	
 15.309	-57.858	  4.40203	  3.31923	  0.82376	  0.18083	  4.14450	 -0.20474	  5.00220	711.20001	 13.40	
 15.304	-64.289	  4.40298	  3.08107	  1.03035	  0.08325	  4.27952	 -0.20349	  5.00455	711.11298	 13.40	
 15.297	-70.709	  4.40399	  2.82940	  1.25715	  0.00833	  4.38493	 -0.20310	  5.00659	711.06500	 13.40	
 15.293	-77.103	  4.39912	  2.57493	  1.48485	 -0.04225	  4.45832	 -0.20533	  5.00298	711.12598	 13.40	
 15.293	-83.542	  4.40053	  2.32008	  1.73288	 -0.07281	  4.50817	 -0.20682	  5.00641	711.06097	 13.40	
 15.300	-90.000	  4.40064	  2.05772	  1.99063	 -0.08456	  4.52884	 -0.21005	  5.00776	711.08600	 13.40	
 15.293	-96.458	  4.40021	  1.80420	  2.25457	 -0.06483	  4.51094	 -0.21000	  5.00529	711.10199	 13.40	
 15.293	-102.897	  4.39642	  1.55664	  2.51529	 -0.02249	  4.46048	 -0.21164	  4.99826	711.16199	 13.40	
 15.297	-109.291	  4.40210	  1.32963	  2.77563	  0.03267	  4.39443	 -0.20968	  5.00368	711.13098	 13.40	
 15.304	-115.711	  4.40600	  1.11362	  3.02816	  0.12087	  4.28790	 -0.20444	  5.00175	711.11603	 13.40	
 15.309	-122.142	  4.42403	  0.91824	  3.27874	  0.23106	  4.16949	 -0.20285	  5.01587	711.08899	 13.30	
 15.305	-128.583	  4.42278	  0.73440	  3.50352	  0.36635	  3.99793	 -0.20119	  5.00509	711.10498	 13.30	
 15.299	-134.985	  4.42646	  0.57154	  3.71350	  0.51964	  3.81249	 -0.20089	  5.00313	711.08398	 13.30	
 15.293	-141.428	  4.42994	  0.43000	  3.89940	  0.69447	  3.60347	 -0.20560	  5.00035	711.15399	 13.30	
 15.288	-147.854	  4.43973	  0.30899	  4.07090	  0.88532	  3.38152	 -0.21366	  5.00483	711.14203	 13.30	
 15.300	-154.261	  4.43965	  0.20923	  4.20282	  1.09731	  3.13745	 -0.21505	  4.99769	711.09998	 13.30	
 15.307	-160.676	  4.45098	  0.13525	  4.31911	  1.32526	  2.88968	 -0.21973	  5.00522	711.12402	 13.30	
 15.291	-167.167	  4.46270	  0.08868	  4.40100	  1.56994	  2.63712	 -0.21909	  5.00908	711.07501	 13.30	
 15.298	-173.587	  4.46636	  0.06226	  4.44277	  1.82408	  2.37273	 -0.21741	  5.00373	711.11798	 13.30	
 15.300	180.000	  4.47263	  0.05853	  4.46185	  2.08363	  2.11527	 -0.21319	  5.00611	711.04901	 13.30	
 17.000	180.000	  4.32998	 -0.23126	  4.60075	  1.97881	  1.99685	 -0.22797	  5.01121	711.13702	 13.30	
 16.990	-174.179	  4.32105	 -0.22712	  4.58133	  1.71923	  2.25163	 -0.22626	  5.00646	711.09399	 13.30	
 17.009	-168.383	  4.32253	 -0.20932	  4.55242	  1.47035	  2.51676	 -0.22877	  5.01871	711.12402	 13.30	
 17.000	-162.596	  4.30618	 -0.16500	  4.47134	  1.22750	  2.76566	 -0.22636	  5.00704	711.04901	 13.30	
 16.990	-156.759	  4.29331	 -0.09671	  4.36495	  0.99772	  3.01275	 -0.22781	  4.99759	711.09399	 13.30	
 16.995	-150.919	  4.29486	 -0.01732	  4.25104	  0.77812	  3.26697	 -0.22588	  5.00855	711.12598	 13.30	
 16.988	-145.161	  4.27532	  0.08482	  4.09063	  0.58583	  3.48514	 -0.22489	  4.99386	711.09698	 13.30	
 17.014	-139.343	  4.28690	  0.20950	  3.93345	  0.40122	  3.71732	 -0.22769	  5.01530	710.99402	 13.30	
 17.007	-133.546	  4.27065	  0.35350	  3.72678	  0.23116	  3.91748	 -0.22491	  5.00557	711.02899	 13.30	
 17.001	-127.699	  4.26707	  0.51924	  3.50772	  0.09045	  4.09853	 -0.22208	  5.00575	711.08398	 13.20	
 17.006	-121.937	  4.26185	  0.69153	  3.28722	 -0.03829	  4.25435	 -0.22065	  5.00763	711.03998	 13.20	
 17.002	-116.134	  4.26095	  0.89251	  3.04271	 -0.14285	  4.39199	 -0.21947	  5.01202	710.96997	 13.20	
 17.001	-110.310	  4.25608	  1.10536	  2.78792	 -0.22850	  4.49682	 -0.21895	  5.00993	711.04901	 13.30	
 16.988	-104.517	  4.25415	  1.32625	  2.53549	 -0.29013	  4.57626	 -0.21418	  5.01176	711.11499	 13.20	
 17.008	-98.662	  4.24942	  1.56677	  2.26831	 -0.34047	  4.63273	 -0.21411	  5.01166	711.05103	 13.30	
 16.996	-92.909	  4.24298	  1.80494	  2.01055	 -0.36230	  4.64707	 -0.20300	  5.00270	711.01898	 13.20	
 16.996	-87.091	  4.24613	  2.06063	  1.75078	 -0.36989	  4.65435	 -0.19931	  5.01090	711.04797	 13.20	
 17.012	-81.253	  4.23981	  2.31526	  1.49606	 -0.35177	  4.61600	 -0.19680	  4.99978	711.12097	 13.20	
 16.988	-75.483	  4.24979	  2.57494	  1.25918	 -0.31547	  4.56980	 -0.19290	  5.01073	711.06500	 13.20	
 17.001	-69.690	  4.24618	  2.82028	  1.03244	 -0.26146	  4.48084	 -0.19328	  5.00168	711.09100	 13.20	
 17.002	-63.866	  4.25407	  3.07735	  0.81616	 -0.18322	  4.37849	 -0.19574	  5.00933	711.08398	 13.20	
 17.006	-58.063	  4.25441	  3.31667	  0.61428	 -0.09154	  4.24483	 -0.20087	  5.00531	711.08099	 13.20	
 17.001	-52.301	  4.24692	  3.53534	  0.43453	  0.02641	  4.07888	 -0.20887	  4.99333	711.15002	 13.20	
 17.007	-46.454	  4.25530	  3.75963	  0.26471	  0.16088	  3.90253	 -0.21833	  5.00343	711.07599	 13.20	
 17.014	-40.657	  4.25327	  3.95200	  0.11505	  0.31308	  3.69893	 -0.22125	  4.99770	711.07501	 13.20	
 16.988	-34.839	  4.26242	  4.13292	 -0.00819	  0.49167	  3.48527	 -0.22448	  5.00290	711.03400	 13.20	
 16.995	-29.081	  4.26177	  4.28082	 -0.11367	  0.67833	  3.25367	 -0.22791	  4.99977	711.06702	 13.20	
 16.990	-23.241	  4.25969	  4.40596	 -0.20556	  0.88332	  3.01274	 -0.23134	  4.99806	711.09399	 13.20	
 17.000	-17.404	  4.25721	  4.50206	 -0.27266	  1.10555	  2.75439	 -0.23474	  4.99110	711.11298	 13.20	
 17.009	-11.617	  4.25662	  4.58015	 -0.32877	  1.33585	  2.49896	 -0.23576	  4.99282	711.06702	 13.20	
 16.990	 -5.821	  4.26424	  4.63431	 -0.35841	  1.57662	  2.24753	 -0.23315	  5.00059	711.01599	 13.20	
 17.000	  0.000	  4.27042	  4.66065	 -0.37053	  1.83568	  1.99126	 -0.24031	  5.00407	711.08899	 13.20	
 16.990	  5.821	  4.27828	  4.66153	 -0.36271	  2.09443	  1.74455	 -0.24418	  5.00896	711.07501	 13.20	
 17.009	 11.617	  4.27837	  4.62722	 -0.33583	  2.35394	  1.50688	 -0.24851	  5.00766	711.00500	 13.20	
 17.000	 17.404	  4.27948	  4.56463	 -0.28489	  2.61125	  1.26636	 -0.25421	  5.00416	711.03400	 13.20	
 16.990	 23.241	  4.27937	  4.47562	 -0.21484	  2.86573	  1.03996	 -0.25398	  4.99852	711.16101	 13.20	
 16.995	 29.081	  4.28897	  4.37365	 -0.13102	  3.12057	  0.83383	 -0.25836	  5.00871	711.07300	 13.20	
 16.988	 34.839	  4.29130	  4.23184	 -0.02252	  3.35835	  0.64078	 -0.25355	  5.00470	711.09198	 13.20	
 17.014	 40.657	  4.29348	  4.07555	  0.10265	  3.58842	  0.46367	 -0.24842	  5.00491	711.12402	 13.20	
 17.007	 46.454	  4.30166	  3.89243	  0.25044	  3.79753	  0.30450	 -0.24639	  5.00654	711.09100	 13.20	
 17.001	 52.301	  4.29801	  3.68327	  0.41547	  3.98007	  0.16485	 -0.24260	  4.99764	711.08301	 13.20	
 17.006	 58.063	  4.30408	  3.47127	  0.59697	  4.14944	  0.04963	 -0.23940	  4.99978	711.05701	 13.20	
 17.002	 63.866	  4.31658	  3.24082	  0.80268	  4.30025	 -0.04548	 -0.24378	  5.00614	711.08002	 13.20	
 17.001	 69.690	  4.32123	  2.99224	  1.01917	  4.42020	 -0.12448	 -0.24932	  5.00576	711.17200	 13.20	
 16.988	 75.483	  4.32499	  2.74543	  1.24795	  4.50728	 -0.18262	 -0.24795	  5.00599	711.05103	 13.20	
 17.012	 81.253	  4.32815	  2.49091	  1.48127	  4.57520	 -0.22907	 -0.24507	  5.00917	711.10498	 13.20	
 16.996	 87.091	  4.32196	  2.22332	  1.73175	  4.60220	 -0.24582	 -0.23979	  4.99939	711.12402	 13.20	
 16.996	 92.909	  4.33024	  1.97082	  1.99585	  4.61936	 -0.24767	 -0.23865	  5.00713	711.08301	 13.20	
 17.008	 98.662	  4.32959	  1.72626	  2.24872	  4.59913	 -0.23107	 -0.23688	  5.00628	711.12097	 13.20	
 16.988	104.517	  4.32796	  1.47393	  2.51735	  4.54618	 -0.19002	 -0.23778	  5.00179	711.05298	 13.20	
 17.001	110.310	  4.33136	  1.24596	  2.77366	  4.47402	 -0.13164	 -0.23699	  5.00272	711.05603	 13.20	
 17.002	116.134	  4.32915	  1.02236	  3.02664	  4.36829	 -0.05401	 -0.23653	  5.00099	711.03400	 13.20	
 17.006	121.937	  4.33002	  0.81992	  3.26892	  4.24093	  0.04580	 -0.23613	  4.99933	711.03400	 13.20	
 17.001	127.699	  4.33204	  0.63046	  3.49812	  4.08599	  0.16484	 -0.23133	  4.99917	711.01898	 13.20	
 17.007	133.546	  4.33094	  0.45872	  3.71214	  3.90376	  0.30528	 -0.22926	  4.99430	711.04303	 13.20	
 17.014	139.343	  4.34097	  0.29992	  3.92166	  3.71297	  0.46031	 -0.22410	  5.00784	711.13397	 13.20	
 16.988	145.161	  4.33926	  0.16618	  4.09299	  3.49360	  0.63457	 -0.22523	  5.00433	711.03998	 13.20	
 16.995	150.919	  4.33918	  0.05416	  4.24362	  3.26147	  0.82680	 -0.22560	  5.00385	711.03497	 13.20	
 16.990	156.759	  4.33593	 -0.04233	  4.36961	  3.01236	  1.03698	 -0.22953	  5.00136	710.97198	 13.20	
 17.000	162.596	  4.34326	 -0.11736	  4.47396	  2.76042	  1.26646	 -0.23155	  5.01057	710.98401	 13.20	
 17.009	168.383	  4.32231	 -0.18173	  4.53105	  2.49437	  1.49158	 -0.22915	  4.99390	710.99701	 13.20	
 16.990	174.179	  4.32919	 -0.21093	  4.57689	  2.23879	  1.74077	 -0.22997	  5.00138	710.96399	 13.20	
 18.709	174.675	  4.16408	 -0.49221	  4.69722	  2.11494	  1.61762	 -0.22986	  4.99970	710.98602	 13.20	
 18.703	169.441	  4.17439	 -0.46149	  4.66579	  2.37565	  1.37912	 -0.23280	  5.00686	711.02600	 13.20	
 18.691	164.085	  4.18019	 -0.41090	  4.60372	  2.63795	  1.14975	 -0.23664	  5.00787	711.01001	 13.20	
 18.706	158.818	  4.17180	 -0.34225	  4.50564	  2.88740	  0.92150	 -0.23943	  4.99733	711.02899	 13.20	
 18.695	153.537	  4.18305	 -0.25828	  4.40049	  3.14122	  0.71474	 -0.23920	  5.00721	710.97803	 13.20	
 18.704	148.255	  4.18102	 -0.15819	  4.26372	  3.37583	  0.51479	 -0.24286	  5.00825	710.96198	 13.20	
 18.698	142.952	  4.18641	 -0.03746	  4.10735	  3.60431	  0.33981	 -0.24440	  5.01087	711.02100	 13.20	
 18.699	137.625	  4.18224	  0.09631	  3.92304	  3.81525	  0.17027	 -0.24377	  5.01004	711.01300	 13.20	
 18.705	132.343	  4.18134	  0.25568	  3.71925	  4.00713	  0.02750	 -0.24355	  5.00655	711.01001	 13.20	
 18.713	127.067	  4.17228	  0.42139	  3.49675	  4.17657	 -0.10757	 -0.24283	  5.00035	711.01099	 13.20	
 18.700	121.794	  4.17450	  0.60724	  3.26847	  4.33002	 -0.21485	 -0.24103	  5.00418	710.95398	 13.20	
 18.698	116.504	  4.17587	  0.80764	  3.02804	  4.46009	 -0.31077	 -0.23861	  5.00623	710.95398	 13.20	
 18.707	111.165	  4.16374	  1.02280	  2.76463	  4.55707	 -0.39116	 -0.23176	  4.99479	710.97302	 13.20	
 18.690	105.863	  4.17468	  1.25406	  2.51534	  4.64756	 -0.45019	 -0.23081	  5.00823	710.96198	 13.20	
 18.696	100.583	  4.16451	  1.48134	  2.25461	  4.69316	 -0.49604	 -0.22876	  4.99818	710.93201	 13.20	
 18.700	 95.309	  4.16409	  1.72632	  1.99299	  4.72504	 -0.52247	 -0.22683	  5.00193	711.02399	 13.20	
 18.700	 90.000	  4.16760	  1.97698	  1.74349	  4.73237	 -0.53099	 -0.23440	  5.00620	711.06500	 13.20	
 18.700	 84.691	  4.16958	  2.23629	  1.49172	  4.71442	 -0.51876	 -0.24234	  5.00838	710.96002	 13.20	
 18.696	 79.417	  4.17459	  2.49697	  1.25194	  4.67375	 -0.48947	 -0.25445	  5.01355	710.98401	 13.10	
 18.690	 74.137	  4.15906	  2.74249	  1.01843	  4.59487	 -0.44656	 -0.26082	  5.00221	710.90302	 13.10	
 18.707	 68.835	  4.15975	  2.99480	  0.79414	  4.50356	 -0.38577	 -0.26528	  5.00714	710.92999	 13.10	
 18.698	 63.496	  4.15579	  3.23795	  0.58956	  4.37535	 -0.29846	 -0.26617	  5.00177	710.91901	 13.10	
 18.700	 58.206	  4.15403	  3.47041	  0.39778	  4.23782	 -0.20182	 -0.26660	  5.00511	711.01898	 13.10	
 18.713	 52.933	  4.15290	  3.69489	  0.21784	  4.07687	 -0.09217	 -0.27082	  5.00962	710.96002	 13.10	
 18.705	 47.657	  4.14829	  3.89991	  0.05290	  3.89290	  0.03742	 -0.27420	  5.01197	710.89801	 13.10	
 18.699	 42.375	  4.14627	  4.08616	 -0.09301	  3.68818	  0.18632	 -0.27154	  5.01412	710.92902	 13.10	
 18.698	 37.048	  4.13946	  4.25007	 -0.22062	  3.46152	  0.35380	 -0.27107	  5.00830	710.90503	 13.10	
 18.704	 31.745	  4.12819	  4.38510	 -0.32905	  3.22982	  0.53149	 -0.26898	  5.00041	710.89697	 13.10	
 18.695	 26.463	  4.12558	  4.51510	 -0.43092	  2.97985	  0.72735	 -0.26329	  5.00473	710.96802	 13.10	
 18.706	 21.182	  4.11387	  4.60484	 -0.50607	  2.72901	  0.93021	 -0.26393	  4.99806	710.97302	 13.10	
 18.691	 15.915	  4.11595	  4.68439	 -0.56356	  2.47797	  1.15277	 -0.26129	  5.00367	710.96503	 13.10	
 18.703	 10.559	  4.10872	  4.73507	 -0.60933	  2.21129	  1.38678	 -0.25558	  5.00005	710.98401	 13.10	
 18.709	  5.325	  4.10804	  4.76838	 -0.63989	  1.95972	  1.61747	 -0.24814	  5.00752	710.92401	 13.10	
 18.700	  0.000	  4.10869	  4.77130	 -0.64091	  1.70781	  1.86794	 -0.24482	  5.00784	711.03198	 13.10	
 18.709	 -5.325	  4.10061	  4.75135	 -0.63797	  1.44625	  2.12196	 -0.23978	  5.00522	711.03400	 13.10	
 18.703	-10.559	  4.10477	  4.70839	 -0.60803	  1.21547	  2.37278	 -0.24586	  5.00599	711.00500	 13.10	
 18.691	-15.915	  4.09880	  4.63614	 -0.56356	  0.98302	  2.62704	 -0.24531	  5.00134	711.05103	 13.10	
 18.706	-21.182	  4.10606	  4.55137	 -0.50149	  0.76891	  2.88063	 -0.24117	  5.00964	711.05298	 13.10	
 18.695	-26.463	  4.10357	  4.43225	 -0.42024	  0.56634	  3.12204	 -0.23750	  5.00525	710.99402	 13.10	
 18.704	-31.745	  4.10238	  4.28965	 -0.32136	  0.37471	  3.35734	 -0.23132	  5.00426	710.95599	 13.10	
 18.698	-37.048	  4.09018	  4.12127	 -0.21381	  0.19286	  3.57455	 -0.22367	  4.99439	711.00299	 13.10	
 18.699	-42.375	  4.09213	  3.94553	 -0.08953	  0.02944	  3.79131	 -0.22074	  5.00338	710.98602	 13.10	
 18.705	-47.657	  4.09972	  3.74910	  0.06220	 -0.11793	  3.99728	 -0.21246	  5.01206	710.93201	 13.10	
 18.713	-52.933	  4.09176	  3.53427	  0.22031	 -0.24583	  4.16889	 -0.20372	  5.00906	710.97803	 13.10	
 18.700	-58.206	  4.08145	  3.29705	  0.40121	 -0.35026	  4.31470	 -0.18937	  4.99906	710.96802	 13.10	
 18.698	-63.496	  4.08575	  3.06521	  0.59349	 -0.44633	  4.45643	 -0.18618	  5.00923	710.98401	 13.10	
 18.707	-68.835	  4.07983	  2.80899	  0.80731	 -0.51868	  4.56228	 -0.18265	  5.00429	710.98602	 13.10	
 18.690	-74.137	  4.07226	  2.55536	  1.02701	 -0.57825	  4.64564	 -0.17942	  5.00043	711.01300	 13.10	
 18.696	-79.417	  4.07718	  2.30853	  1.26016	 -0.61924	  4.71607	 -0.19313	  5.01058	710.98602	 13.10	
 18.700	-84.691	  4.07041	  2.05477	  1.50048	 -0.63711	  4.74277	 -0.18990	  5.00261	710.97198	 13.10	
 18.700	-90.000	  4.07540	  1.80392	  1.75557	 -0.64091	  4.76134	 -0.19172	  5.00881	711.00201	 13.10	
 18.700	-95.309	  4.07340	  1.55767	  2.00624	 -0.62877	  4.74883	 -0.20316	  5.00365	710.95697	 13.10	
 18.696	-100.583	  4.08093	  1.32682	  2.26957	 -0.59595	  4.72060	 -0.20667	  5.01075	710.87903	 13.10	
 18.690	-105.863	  4.08266	  1.09872	  2.53073	 -0.54427	  4.65742	 -0.21548	  5.00646	710.91400	 13.10	
 18.707	-111.165	  4.07815	  0.88204	  2.77313	 -0.48294	  4.57242	 -0.21997	  4.99988	710.93701	 13.10	
 18.698	-116.504	  4.08361	  0.67186	  3.03135	 -0.39558	  4.46083	 -0.22368	  5.00123	710.88397	 13.10	
 18.700	-121.794	  4.09184	  0.48093	  3.27657	 -0.29430	  4.33311	 -0.23105	  5.00540	710.96802	 13.10	
 18.713	-127.067	  4.09131	  0.30553	  3.49869	 -0.17724	  4.17497	 -0.22997	  4.99907	711.04102	 13.10	
 18.705	-132.343	  4.09916	  0.15019	  3.71530	 -0.03821	  3.99999	 -0.23475	  4.99809	710.96802	 13.10	
 18.699	-137.625	  4.10171	  0.01118	  3.90964	  0.11477	  3.80354	 -0.23351	  4.99397	710.98700	 13.00	
 18.698	-142.952	  4.11780	 -0.11695	  4.10126	  0.29000	  3.59514	 -0.23023	  5.00341	710.94397	 13.10	
 18.704	-148.255	  4.12333	 -0.22453	  4.25829	  0.47425	  3.37091	 -0.22280	  5.00287	710.93701	 13.10	
 18.695	-153.537	  4.13396	 -0.31301	  4.39668	  0.67870	  3.13630	 -0.21691	  5.00535	710.92902	 13.00	
 18.706	-158.818	  4.13572	 -0.38634	  4.50662	  0.89295	  2.88646	 -0.21466	  5.00087	710.97900	 13.00	
 18.691	-164.085	  4.14749	 -0.44421	  4.60223	  1.12250	  2.63904	 -0.21595	  5.00836	711.00000	 13.00	
 18.703	-169.441	  4.15170	 -0.48043	  4.66093	  1.35972	  2.38140	 -0.21827	  5.00401	710.95599	 13.10	
 18.709	-174.675	  4.15678	 -0.50184	  4.69966	  1.60527	  2.12236	 -0.22131	  5.00407	710.96802	 13.10	
 18.700	180.000	  4.16356	 -0.50439	  4.71273	  1.86006	  1.86805	 -0.22158	  5.00569	710.94000	 13.00	
 20.400	180.000	  3.98045	 -0.79016	  4.80757	  1.72928	  1.72463	 -0.21257	  5.00186	710.83600	 13.10	
 20.401	-175.153	  3.98020	 -0.78880	  4.80357	  1.47926	  1.97474	 -0.20841	  5.00858	710.91302	 13.10	
 20.407	-170.264	  3.96833	 -0.77440	  4.76392	  1.22822	  2.22774	 -0.20625	  5.00271	710.91602	 13.10	
 20.410	-165.423	  3.96156	 -0.74109	  4.70512	  0.99485	  2.48121	 -0.20127	  4.99935	710.89203	 13.00	
 20.392	-160.496	  3.96248	 -0.69539	  4.63349	  0.76410	  2.74376	 -0.19685	  5.01026	710.95203	 13.00	
 20.401	-155.705	  3.96298	 -0.63295	  4.54222	  0.55306	  2.99034	 -0.20051	  5.02015	710.92999	 13.10	
 20.405	-150.835	  3.94971	 -0.55918	  4.41042	  0.34699	  3.22743	 -0.20661	  5.01394	710.90002	 13.00	
 20.397	-145.903	  3.92297	 -0.46091	  4.24054	  0.14985	  3.44629	 -0.21772	  4.98970	711.00201	 13.10	
 20.392	-141.062	  3.92741	 -0.35742	  4.08609	 -0.02592	  3.67521	 -0.22878	  5.00537	710.87500	 13.00	
 20.396	-136.227	  3.92526	 -0.23352	  3.90656	 -0.18628	  3.88455	 -0.23692	  5.01244	710.90302	 13.00	
 20.408	-131.372	  3.91510	 -0.09234	  3.70227	 -0.33636	  4.07171	 -0.23602	  5.00791	710.83600	 13.00	
 20.410	-126.511	  3.91569	  0.06770	  3.48708	 -0.46319	  4.24854	 -0.23180	  5.01236	710.80798	 13.00	
 20.400	-121.604	  3.89736	  0.23633	  3.24198	 -0.57936	  4.39404	 -0.22625	  5.00101	710.87500	 13.00	
 20.403	-116.741	  3.89385	  0.42001	  3.00618	 -0.68368	  4.52825	 -0.21798	  5.00433	710.87598	 13.00	
 20.413	-111.900	  3.89219	  0.62089	  2.75882	 -0.76534	  4.63958	 -0.21235	  5.00811	710.83502	 13.00	
 20.398	-107.004	  3.88611	  0.83005	  2.50455	 -0.83139	  4.72293	 -0.20493	  5.00416	710.83197	 13.00	
 20.394	-102.132	  3.88617	  1.05258	  2.24994	 -0.87833	  4.78521	 -0.19542	  5.00458	710.78198	 13.00	
 20.403	-97.332	  3.88665	  1.28353	  1.99356	 -0.91175	  4.83022	 -0.18582	  5.00654	710.92902	 13.00	
 20.392	-92.440	  3.88148	  1.52215	  1.74129	 -0.92931	  4.84029	 -0.17675	  4.99805	710.84698	 13.00	
 20.392	-87.560	  3.88560	  1.76644	  1.49180	 -0.93124	  4.84562	 -0.17192	  5.00439	710.83502	 13.00	
 20.403	-82.668	  3.88138	  2.01793	  1.23684	 -0.92819	  4.82249	 -0.16998	  5.00203	710.78998	 13.00	
 20.394	-77.868	  3.87563	  2.25953	  1.00499	 -0.89675	  4.76780	 -0.16823	  4.98872	710.84900	 13.00	
 20.398	-72.996	  3.89885	  2.52950	  0.78172	 -0.85784	  4.72415	 -0.16611	  5.01407	710.92999	 13.00	
 20.413	-68.100	  3.88861	  2.77083	  0.55711	 -0.80448	  4.62364	 -0.16630	  5.00131	710.93500	 13.00	
 20.403	-63.259	  3.89725	  3.01942	  0.35821	 -0.73555	  4.52245	 -0.17143	  5.00902	710.84399	 13.00	
 20.400	-58.396	  3.90001	  3.25953	  0.16549	 -0.64520	  4.38652	 -0.18059	  5.00681	710.87903	 13.00	
 20.410	-53.489	  3.90137	  3.49068	 -0.01499	 -0.54283	  4.23152	 -0.18695	  5.00870	710.88397	 13.00	
 20.408	-48.628	  3.89803	  3.70298	 -0.17773	 -0.42198	  4.04973	 -0.19714	  4.99946	710.92200	 13.00	
 20.396	-43.773	  3.91211	  3.91141	 -0.31589	 -0.27750	  3.86635	 -0.20756	  5.00832	710.91101	 13.00	
 20.392	-38.938	  3.90825	  4.09334	 -0.44512	 -0.13153	  3.65845	 -0.21359	  5.00097	710.89801	 13.00	
 20.397	-34.097	  3.91162	  4.26461	 -0.56365	  0.03301	  3.44277	 -0.22393	  5.00594	710.84003	 13.00	
 20.405	-29.165	  3.91706	  4.42664	 -0.66811	  0.21609	  3.21122	 -0.22670	  5.01297	710.79498	 13.00	
 20.401	-24.295	  3.91014	  4.54570	 -0.74844	  0.40782	  2.96553	 -0.23018	  5.00191	710.90503	 13.00	
 20.392	-19.504	  3.91353	  4.64999	 -0.81575	  0.61257	  2.72972	 -0.23750	  5.00277	710.88202	 13.00	
 20.410	-14.577	  3.91267	  4.73474	 -0.86865	  0.83263	  2.47167	 -0.24048	  5.00105	710.95398	 13.00	
 20.407	 -9.736	  3.91818	  4.79982	 -0.91048	  1.06214	  2.22570	 -0.24199	  5.00630	710.92200	 13.00	
 20.401	 -4.847	  3.92178	  4.83873	 -0.92750	  1.30470	  1.97256	 -0.23630	  5.00727	710.82001	 13.00	
 20.400	  0.000	  3.91917	  4.84798	 -0.93106	  1.54895	  1.72258	 -0.23695	  4.99840	710.87097	 13.00	
 20.401	  4.847	  3.93508	  4.86679	 -0.93413	  1.80596	  1.48367	 -0.24228	  5.01750	710.89697	 13.00	
 20.407	  9.736	  3.92548	  4.83511	 -0.91349	  2.05694	  1.23751	 -0.24283	  5.00640	710.94000	 13.00	
 20.410	 14.577	  3.93254	  4.79330	 -0.87334	  2.31163	  1.01468	 -0.24948	  5.00792	710.91101	 13.00	
 20.392	 19.504	  3.93711	  4.72360	 -0.81774	  2.56872	  0.79765	 -0.24818	  5.00785	710.87500	 13.00	
 20.401	 24.295	  3.93877	  4.63705	 -0.75344	  2.82397	  0.58384	 -0.25432	  5.00579	710.90802	 13.00	
 20.405	 29.165	  3.94801	  4.52438	 -0.66494	  3.07506	  0.39172	 -0.26051	  5.00743	710.93701	 13.00	
 20.397	 34.097	  3.94240	  4.37946	 -0.56203	  3.30507	  0.20991	 -0.27120	  4.99390	710.97900	 12.90	
 20.392	 38.938	  3.94449	  4.22748	 -0.45148	  3.53054	  0.03875	 -0.28039	  4.99200	711.00299	 13.00	
 20.396	 43.773	  3.95291	  4.05997	 -0.32072	  3.74578	 -0.11285	 -0.28803	  4.99567	710.90802	 13.00	
 20.408	 48.628	  3.95811	  3.87386	 -0.18028	  3.94491	 -0.25147	 -0.28890	  4.99761	710.94598	 13.00	
 20.410	 53.489	  3.96641	  3.67024	 -0.01655	  4.13049	 -0.37236	 -0.28589	  5.00150	710.92102	 13.00	
 20.400	 58.396	  3.97662	  3.44951	  0.16453	  4.30094	 -0.48001	 -0.28037	  5.00490	710.86798	 12.90	
 20.403	 63.259	  3.96898	  3.21348	  0.34879	  4.43832	 -0.57950	 -0.27617	  4.99681	710.87299	 12.90	
 20.413	 68.100	  3.97455	  2.97448	  0.54813	  4.55756	 -0.65620	 -0.27142	  4.99676	710.92102	 12.90	
 20.398	 72.996	  3.97431	  2.72378	  0.76854	  4.64895	 -0.71175	 -0.26229	  4.98791	710.89203	 12.90	
 20.394	 77.868	  3.98131	  2.47945	  0.99084	  4.73188	 -0.76324	 -0.25257	  4.99822	710.86298	 12.90	
 20.403	 82.668	  3.98156	  2.22700	  1.22332	  4.78302	 -0.79432	 -0.23608	  4.99545	710.79797	 12.90	
 20.392	 87.560	  4.00089	  1.98181	  1.47512	  4.82770	 -0.80726	 -0.22647	  5.01355	710.80103	 12.90	
 20.392	 92.440	  3.98991	  1.72920	  1.71773	  4.82654	 -0.80738	 -0.21869	  5.00314	710.76300	 12.90	
 20.403	 97.332	  3.98810	  1.48071	  1.97336	  4.80704	 -0.78920	 -0.21127	  4.99616	710.89502	 12.90	
 20.394	102.132	  3.99209	  1.24621	  2.23347	  4.77515	 -0.76061	 -0.21192	  5.00137	710.86499	 12.90	
 20.398	107.004	  3.99663	  1.01658	  2.49177	  4.72229	 -0.71965	 -0.21809	  5.00639	710.79199	 12.90	
 20.413	111.900	  3.99404	  0.79233	  2.74742	  4.63746	 -0.66259	 -0.21869	  5.00344	710.85699	 12.90	
 20.403	116.741	  3.98752	  0.58554	  2.98733	  4.52508	 -0.58669	 -0.22653	  4.99588	710.88202	 12.90	
 20.400	121.604	  3.99275	  0.39590	  3.22926	  4.39549	 -0.48237	 -0.23193	  4.99155	710.89502	 13.00	
 20.410	126.511	  4.00611	  0.21521	  3.47116	  4.26234	 -0.38163	 -0.24152	  5.00760	710.91101	 13.00	
 20.408	131.372	  3.99673	  0.04298	  3.68514	  4.08165	 -0.25947	 -0.24768	  4.99780	710.88898	 13.00	
 20.396	136.227	  4.00374	 -0.10751	  3.89137	  3.89757	 -0.11742	 -0.24935	  5.00185	710.77600	 13.00	
 20.392	141.062	  4.00570	 -0.23963	  4.07954	  3.69316	  0.03731	 -0.25188	  5.00114	710.82397	 13.00	
 20.397	145.903	  4.00978	 -0.36306	  4.25135	  3.47753	  0.20992	 -0.24624	  5.00454	710.77100	 13.00	
 20.405	150.835	  4.00090	 -0.47664	  4.39854	  3.23685	  0.38654	 -0.24220	  5.00072	710.79303	 13.00	
 20.401	155.705	  3.99901	 -0.56266	  4.51864	  2.99621	  0.58377	 -0.23942	  4.99613	710.81702	 13.00	
 20.392	160.496	  3.99531	 -0.63851	  4.62110	  2.75168	  0.78870	 -0.23523	  4.99685	710.84302	 13.00	
 20.410	165.423	  3.99748	 -0.70209	  4.71256	  2.49877	  1.00844	 -0.23122	  5.00710	710.85101	 13.00	
 20.407	170.264	  3.98543	 -0.73784	  4.75197	  2.23833	  1.23668	 -0.22270	  4.99172	710.72198	 13.00	
 20.401	175.153	  4.00006	 -0.77599	  4.81049	  1.98540	  1.48636	 -0.21785	  5.01751	710.77399	 13.00	
  0.141	 45.000	  4.98777	  2.68047	  2.53148	  2.58091	  2.63532	  0.03432	  4.99553	710.87299	 13.00	
  4.001	128.691	  4.99715	  2.28878	  2.87255	  3.00275	  2.17921	  0.00966	  5.00671	710.81097	 13.00	
  4.002	 76.995	  4.98651	  2.77231	  2.36234	  3.11082	  2.05895	  0.00889	  4.99817	710.80499	 13.00	
  4.002	 25.892	  4.98635	  3.18408	  1.98070	  2.76639	  2.35312	  0.00809	  5.00420	710.80103	 13.00	
  4.002	-25.892	  4.98571	  3.16705	  1.98132	  2.24816	  2.86752	  0.00365	  5.01060	710.75000	 13.10	
  4.002	-76.995	  4.97433	  2.73835	  2.35531	  1.94924	  3.19997	  0.00167	  4.99670	710.80902	 13.10	
  4.001	-128.691	  4.98293	  2.26213	  2.86986	  2.07793	  3.08090	  0.00853	  4.99572	710.77600	 13.10	
  4.000	180.000	  5.00451	  2.08319	  3.11741	  2.53711	  2.62616	  0.01078	  5.00992	710.81097	 13.10	
  8.000	180.000	  4.90009	  1.37540	  3.66565	  2.43413	  2.49786	 -0.05153	  4.99565	710.81598	 13.10	
  7.991	-152.370	  4.88950	  1.47468	  3.51206	  1.86819	  3.07340	 -0.05833	  4.99582	710.73102	 13.10	
  7.997	-124.550	  4.88647	  1.81144	  3.10131	  1.44459	  3.54306	 -0.05782	  5.00786	710.80798	 13.10	
  8.006	-96.837	  4.86794	  2.32351	  2.52199	  1.23828	  3.75662	 -0.06856	  4.99975	710.72198	 13.10	
  7.988	-69.228	  4.86752	  2.90915	  1.95239	  1.28679	  3.67999	 -0.07852	  5.00039	710.74402	 13.10	
  7.997	-41.563	  4.86889	  3.42219	  1.49592	  1.58578	  3.32478	 -0.06551	  5.00050	710.73602	 13.10	
  8.008	-13.821	  4.87140	  3.73779	  1.24259	  2.07403	  2.78752	 -0.06722	  5.00059	710.72302	 13.10	
  8.008	 13.821	  4.87096	  3.75175	  1.24001	  2.66264	  2.20143	 -0.05843	  4.99520	710.75403	 13.10	
  7.997	 41.563	  4.88189	  3.48052	  1.49073	  3.21822	  1.71134	 -0.05405	  4.99776	710.74402	 13.10	
  7.988	 69.228	  4.89499	  2.99170	  1.94754	  3.59096	  1.41638	 -0.05571	  4.99909	710.73798	 13.10	
  8.006	 96.837	  4.90157	  2.41312	  2.52025	  3.68734	  1.36161	 -0.05552	  5.00072	710.70001	 13.10	
  7.997	124.550	  4.90796	  1.88163	  3.09677	  3.47816	  1.54759	 -0.05149	  5.00244	710.78699	 13.10	
  7.991	152.370	  4.90571	  1.52124	  3.50660	  3.01855	  1.95127	 -0.04704	  4.99860	710.77899	 13.10	
 12.009	161.059	  4.71388	  0.75230	  4.03024	  2.88276	  1.73664	 -0.14263	  5.00042	710.74402	 13.10	
 12.013	142.081	  4.71042	  1.00595	  3.71767	  3.43724	  1.24478	 -0.13356	  4.99768	710.77399	 13.10	
 12.006	123.113	  4.71103	  1.42026	  3.23498	  3.87027	  0.88315	 -0.14577	  5.00050	710.72198	 13.20	
 12.007	104.200	  4.70939	  1.94856	  2.65183	  4.11689	  0.67693	 -0.15776	  5.00263	710.70599	 13.20	
 11.989	 85.301	  4.69669	  2.53456	  2.03906	  4.14825	  0.62963	 -0.15269	  4.99519	710.69800	 13.20	
 12.013	 66.294	  4.68955	  3.13225	  1.46539	  3.96952	  0.75357	 -0.14091	  4.99364	710.72998	 13.20	
 12.012	 47.388	  4.68143	  3.64962	  1.00512	  3.59887	  1.03747	 -0.13186	  4.99779	710.78699	 13.20	
 11.990	 28.440	  4.67189	  4.02724	  0.67986	  3.07682	  1.46825	 -0.15215	  4.99967	710.71600	 13.20	
 11.991	  9.464	  4.66201	  4.21554	  0.51046	  2.47576	  2.00529	 -0.15122	  4.99896	710.75000	 13.20	
 11.991	 -9.464	  4.65161	  4.18906	  0.50902	  1.86511	  2.60280	 -0.15431	  4.99548	710.77399	 13.20	
 11.990	-28.440	  4.65256	  3.96232	  0.68251	  1.32317	  3.19406	 -0.15089	  4.99712	710.73499	 13.20	
 12.012	-47.388	  4.64792	  3.55683	  1.00580	  0.89579	  3.69449	 -0.16315	  4.99824	710.74402	 13.20	
 12.013	-66.294	  4.64410	  3.01585	  1.46676	  0.61534	  4.05105	 -0.16961	  4.99893	710.75800	 13.20	
 11.989	-85.301	  4.64860	  2.41726	  2.04119	  0.50719	  4.21161	 -0.16873	  5.00132	710.72803	 13.20	
 12.007	-104.200	  4.66016	  1.83469	  2.65781	  0.56147	  4.17083	 -0.16139	  5.00996	710.69800	 13.20	
 12.006	-123.113	  4.67183	  1.32784	  3.24010	  0.78354	  3.91568	 -0.14603	  5.00827	710.72302	 13.20	
 12.013	-142.081	  4.67884	  0.94041	  3.71681	  1.15708	  3.48057	 -0.14879	  5.00228	710.70300	 13.20	
 12.009	-161.059	  4.69322	  0.71221	  4.03104	  1.67608	  2.91931	 -0.16044	  5.00224	710.74298	 13.20	
 16.000	180.000	  4.40840	 -0.06187	  4.51495	  2.03817	  2.06300	 -0.21871	  4.99970	710.75201	 13.20	
 15.990	-165.604	  4.39506	 -0.02056	  4.43431	  1.44813	  2.66778	 -0.22376	  4.99951	710.71198	 13.10	
 16.002	-151.165	  4.38122	  0.14291	  4.18991	  0.90676	  3.26014	 -0.21931	  5.00182	710.73602	 13.20	
 16.002	-136.836	  4.36235	  0.42188	  3.80185	  0.46819	  3.77102	 -0.21351	  4.99928	710.79199	 13.10	
 15.995	-122.439	  4.35542	  0.81457	  3.29893	  0.12878	  4.19201	 -0.20898	  5.00836	710.77100	 13.20	
 15.993	-107.966	  4.33828	  1.29833	  2.71311	 -0.09498	  4.45793	 -0.21464	  5.00119	710.77600	 13.20	
 16.005	-93.629	  4.33886	  1.85593	  2.10417	 -0.19033	  4.57653	 -0.20623	  5.00737	710.70001	 13.10	
 15.992	-79.234	  4.33445	  2.45010	  1.51046	 -0.17127	  4.52835	 -0.19900	  4.99973	710.71198	 13.10	
 16.009	-64.774	  4.34166	  3.05485	  0.96833	 -0.03373	  4.33274	 -0.19949	  5.00234	710.74597	 13.20	
 15.997	-50.364	  4.33975	  3.59098	  0.51568	  0.21930	  3.98418	 -0.21469	  4.99589	710.70001	 13.10	
 15.997	-36.045	  4.34733	  4.04959	  0.16890	  0.58898	  3.51092	 -0.21588	  4.99645	710.60901	 13.20	
 16.000	-21.597	  4.35347	  4.37994	 -0.06812	  1.06095	  2.95863	 -0.22414	  5.00176	710.73901	 13.20	
 16.003	 -7.169	  4.35511	  4.55779	 -0.19135	  1.60894	  2.35997	 -0.22986	  5.00219	710.76599	 13.10	
 16.003	  7.169	  4.35403	  4.57079	 -0.19109	  2.20639	  1.76553	 -0.23233	  4.99430	710.71399	 13.20	
 16.000	 21.597	  4.36455	  4.44347	 -0.08139	  2.81450	  1.21509	 -0.24289	  4.99938	710.76202	 13.10	
 15.997	 36.045	  4.38201	  4.15607	  0.15805	  3.39826	  0.74079	 -0.23535	  5.00466	710.76202	 13.10	
 15.997	 50.364	  4.39103	  3.73467	  0.49962	  3.88619	  0.36189	 -0.21716	  5.00365	710.71997	 13.10	
 16.009	 64.774	  4.40251	  3.20745	  0.95448	  4.26030	  0.09760	 -0.22535	  5.00462	710.66302	 13.10	
 15.992	 79.234	  4.41117	  2.62061	  1.49339	  4.47816	 -0.04806	 -0.23489	  5.00593	710.70398	 13.10	
 16.005	 93.629	  4.41634	  2.01850	  2.08894	  4.54060	 -0.07775	 -0.23076	  5.00750	710.64600	 13.10	
 15.993	107.966	  4.42204	  1.44805	  2.70049	  4.44040	  0.01244	 -0.23275	  5.00839	710.70801	 13.10	
 15.995	122.439	  4.41378	  0.93178	  3.28277	  4.16522	  0.21858	 -0.22589	  4.99525	710.60901	 13.10	
 16.002	136.836	  4.41742	  0.52027	  3.78871	  3.75960	  0.54067	 -0.21429	  4.99308	710.66498	 13.10	
 16.002	151.165	  4.42484	  0.20718	  4.19297	  3.24893	  0.96214	 -0.21706	  5.00676	710.66498	 13.10	
 15.990	165.604	  4.41973	  0.01305	  4.43464	  2.65834	  1.48124	 -0.22052	  5.00338	710.64203	 13.10	
 20.003	168.362	  4.04126	 -0.66326	  4.72852	  2.36512	  1.19622	 -0.23162	  5.00635	710.66498	 13.10	
 20.008	156.764	  4.03739	 -0.52330	  4.52854	  2.95463	  0.67522	 -0.24024	  4.99980	710.70300	 13.10	
 20.000	145.147	  4.04833	 -0.28716	  4.21595	  3.51268	  0.23502	 -0.24703	  5.00509	710.63800	 13.10	
 19.995	133.545	  4.04567	  0.03406	  3.78237	  3.99729	 -0.13780	 -0.24529	  5.00733	710.72998	 13.10	
 20.009	121.926	  4.03424	  0.43557	  3.25392	  4.37200	 -0.41504	 -0.23488	  4.99362	710.67401	 13.10	
 20.005	110.327	  4.02944	  0.91112	  2.67817	  4.63783	 -0.60709	 -0.22428	  4.99284	710.53601	 13.10	
 19.989	 98.733	  4.02909	  1.44995	  2.08100	  4.77823	 -0.71742	 -0.22103	  4.99798	710.62201	 13.10	
 19.999	 87.075	  4.03233	  2.02802	  1.49226	  4.79629	 -0.73905	 -0.23289	  5.00282	710.61700	 13.10	
 19.992	 75.457	  4.03001	  2.62389	  0.93107	  4.68322	 -0.66750	 -0.25862	  5.00188	710.63898	 13.10	
 20.009	 63.844	  4.01936	  3.19837	  0.43309	  4.44527	 -0.52018	 -0.27660	  5.00359	710.76599	 13.10	
 19.989	 52.269	  4.01544	  3.72598	  0.01072	  4.08157	 -0.27094	 -0.28465	  5.00410	710.66803	 13.10	
 19.999	 40.602	  4.00265	  4.16764	 -0.33562	  3.61880	  0.04736	 -0.28105	  5.00420	710.71100	 13.10	
 20.004	 29.051	  3.98061	  4.50120	 -0.59547	  3.06966	  0.45167	 -0.26260	  4.99503	710.67297	 13.10	
 20.005	 17.433	  3.97035	  4.72261	 -0.76917	  2.48238	  0.93026	 -0.25375	  4.99500	710.67603	 13.10	
 20.006	  5.780	  3.96052	  4.81819	 -0.84981	  1.87798	  1.46962	 -0.24411	  4.99274	710.74597	 13.10	
 20.006	 -5.780	  3.95526	  4.80320	 -0.85454	  1.29874	  2.03888	 -0.24016	  4.99337	710.60101	 13.10	
 20.005	-17.433	  3.96556	  4.68274	 -0.77222	  0.75870	  2.63942	 -0.23839	  5.01188	710.70398	 13.10	
 20.004	-29.051	  3.95689	  4.40554	 -0.59089	  0.28166	  3.20887	 -0.22435	  5.00049	710.67102	 13.10	
 19.999	-40.602	  3.94645	  4.02161	 -0.33852	 -0.11798	  3.72629	 -0.21503	  4.99519	710.65399	 13.10	
 19.989	-52.269	  3.94598	  3.54629	  0.01549	 -0.43323	  4.16741	 -0.18936	  4.99529	710.75500	 13.10	
 20.009	-63.844	  3.93435	  3.00208	  0.43586	 -0.66997	  4.50851	 -0.17782	  4.99726	710.70001	 13.10	
 19.992	-75.457	  3.93995	  2.42482	  0.94371	 -0.80870	  4.73650	 -0.17459	  5.00852	710.69800	 13.10	
 19.999	-87.075	  3.92181	  1.83052	  1.50177	 -0.85932	  4.81215	 -0.17785	  4.98974	710.59003	 13.10	
 19.989	-98.733	  3.93231	  1.26785	  2.09519	 -0.82559	  4.79537	 -0.19417	  5.00105	710.61102	 13.10	
 20.005	-110.327	  3.93947	  0.74906	  2.69310	 -0.71261	  4.65441	 -0.21389	  5.00618	710.69598	 13.20	
 20.009	-121.926	  3.94331	  0.28945	  3.26214	 -0.50344	  4.37040	 -0.22840	  4.99801	710.71899	 13.20	
 19.995	-133.545	  3.96284	 -0.07733	  3.77967	 -0.20042	  3.98116	 -0.23478	  4.99907	710.61499	 13.20	
 20.000	-145.147	  3.98054	 -0.37381	  4.21410	  0.18566	  3.49453	 -0.21982	  5.00407	710.53601	 13.20	
 20.008	-156.764	  4.00385	 -0.57846	  4.53886	  0.64655	  2.95087	 -0.20563	  5.01335	710.54401	 13.10	
 20.003	-168.362	  4.00871	 -0.69165	  4.71976	  1.17871	  2.35290	 -0.20297	  4.99948	710.65399	 13.10	
 20.000	180.000	  4.02545	 -0.71696	  4.78412	  1.76150	  1.76207	 -0.21439	  5.00135	710.63898	 13.10	
