FileType=PCF
NHL=14
Date=10/23/18	12:19:19
Facility=APL
Serial=16328-1
Customer=NASA
NP=6
Mach=0.150000
Calibration=1:1
CalPts=490
TstPts=95
PortNumbering=AP Standard
Units=Torr C m/s kg/m^3 deg mm 
Theta[deg]	Phi[deg]	P1[Torr]	P2[Torr]	P3[Torr]	P4[Torr]	P5[Torr]	P6[Torr]	Pt[Torr]	Ps[Abs,Torr]	Ts[C]	
  0.000	  0.000	 11.08065	  5.83330	  5.63740	  5.62727	  5.84305	  0.08924	 11.06092	709.45099	 29.30	
  1.691	128.401	 11.05630	  5.48757	  5.94721	  6.03720	  5.40443	  0.08622	 11.03998	709.52899	 30.00	
  1.692	 77.194	 11.09405	  5.97002	  5.50370	  6.16720	  5.30351	  0.08438	 11.07722	709.40399	 30.20	
  1.699	 26.182	 11.08407	  6.32966	  5.12637	  5.85303	  5.59526	  0.07960	 11.06677	709.42603	 30.30	
  1.699	-26.182	 11.08508	  6.31423	  5.13675	  5.36047	  6.07506	  0.07886	 11.06685	709.43701	 30.50	
  1.692	-77.194	 11.09401	  5.94075	  5.50437	  5.08185	  6.37807	  0.07684	 11.07525	709.46698	 30.60	
  1.691	-128.401	 11.08293	  5.48290	  5.96499	  5.17919	  6.27695	  0.07830	 11.06819	709.53601	 30.70	
  1.700	180.000	 11.07951	  5.28490	  6.17666	  5.62013	  5.84025	  0.08189	 11.06443	709.43701	 30.70	
  3.400	180.000	 11.05210	  4.68756	  6.71011	  5.55684	  5.79691	  0.06143	 11.04811	709.53101	 30.90	
  3.388	-152.325	 11.07604	  4.80663	  6.58936	  5.06492	  6.32357	  0.05835	 11.07177	709.58002	 30.90	
  3.397	-124.529	 11.03645	  5.10445	  6.20715	  4.66293	  6.69884	  0.04015	 11.03764	709.48999	 31.00	
  3.399	-96.763	 11.05099	  5.60477	  5.68118	  4.47356	  6.91264	  0.03291	 11.05482	709.55200	 31.10	
  3.394	-69.283	 11.05540	  6.12672	  5.17191	  4.52353	  6.84147	  0.03489	 11.06057	709.55603	 31.20	
  3.400	-41.398	 11.03702	  6.58794	  4.72720	  4.80613	  6.50983	  0.03350	 11.04485	709.54797	 31.30	
  3.401	-14.021	 11.05599	  6.86240	  4.50619	  5.25438	  6.04393	  0.04141	 11.06094	709.47998	 31.40	
  3.401	 14.021	 11.07166	  6.88769	  4.52100	  5.83079	  5.50010	  0.04840	 11.07689	709.58801	 31.50	
  3.400	 41.398	 11.03467	  6.64100	  4.72528	  6.28532	  5.04580	  0.06035	 11.03746	709.59003	 31.50	
  3.394	 69.283	 11.05008	  6.19937	  5.15693	  6.61452	  4.77379	  0.06021	 11.05063	709.52502	 31.50	
  3.399	 96.763	 11.04435	  5.65996	  5.68723	  6.68341	  4.71388	  0.05866	 11.03796	709.49103	 31.50	
  3.397	124.529	 11.05576	  5.18221	  6.19085	  6.49833	  4.90069	  0.05308	 11.04895	709.48297	 31.60	
  3.388	152.325	 11.06001	  4.83003	  6.57282	  6.08387	  5.29604	  0.05518	 11.05266	709.60101	 31.60	
  5.099	161.165	 11.00442	  4.15849	  7.13942	  6.03891	  5.15920	  0.01509	 11.03984	709.49902	 31.70	
  5.109	142.013	 10.99229	  4.39957	  6.85148	  6.55405	  4.66689	  0.01025	 11.02774	709.58002	 31.80	
  5.095	123.033	 11.00543	  4.79605	  6.41606	  6.96076	  4.32395	  0.01110	 11.04024	709.61700	 31.80	
  5.105	104.191	 11.01521	  5.30198	  5.89141	  7.19879	  4.12364	  0.00846	 11.05089	709.56897	 31.90	
  5.093	 85.207	 11.01024	  5.85170	  5.32792	  7.24214	  4.06832	  0.00714	 11.05065	709.56097	 32.00	
  5.104	 66.290	 10.99897	  6.40492	  4.79273	  7.07617	  4.17819	  0.00939	 11.03958	709.60901	 32.00	
  5.094	 47.331	 11.00118	  6.89328	  4.33790	  6.74268	  4.46808	  0.00976	 11.04825	709.50702	 32.00	
  5.089	 28.397	 10.97741	  7.23702	  4.01468	  6.25690	  4.87388	  0.00308	 11.03148	709.52899	 32.10	
  5.096	  9.576	 10.97731	  7.41812	  3.84619	  5.71753	  5.37866	  0.00200	 11.03593	709.58197	 32.10	
  5.096	 -9.576	 10.95094	  7.38704	  3.84015	  5.12620	  5.94006	 -0.00464	 11.01248	709.67200	 32.20	
  5.089	-28.397	 10.97151	  7.20185	  4.00300	  4.61742	  6.49014	  0.01114	 11.04018	709.55499	 32.20	
  5.094	-47.331	 10.96347	  6.81980	  4.32302	  4.20481	  6.94703	 -0.01598	 11.03515	709.57098	 32.30	
  5.104	-66.290	 10.96564	  6.32888	  4.76994	  3.92792	  7.28179	 -0.01616	 11.03984	709.54401	 32.40	
  5.093	-85.207	 10.97995	  5.77687	  5.31502	  3.81734	  7.44056	 -0.01444	 11.05125	709.60999	 32.40	
  5.105	-104.191	 10.95594	  5.21852	  5.85868	  3.85785	  7.37834	 -0.01084	 11.02623	709.51300	 32.40	
  5.095	-123.033	 10.97261	  4.73261	  6.40124	  4.08204	  7.15557	 -0.00784	 11.03447	709.55298	 32.40	
  5.109	-142.013	 10.97574	  4.35817	  6.83636	  4.42949	  6.76865	 -0.00448	 11.02962	709.54700	 32.50	
  5.099	-161.165	 10.97732	  4.12085	  7.12270	  4.92500	  6.24805	 -0.00078	 11.02475	709.51703	 32.50	
  5.100	180.000	 10.98876	  4.05687	  7.22713	  5.47253	  5.69554	  0.00467	 11.02901	709.52100	 32.50	
  6.800	180.000	 10.90538	  3.40830	  7.74314	  5.37746	  5.59205	 -0.05964	 11.03218	709.46100	 32.50	
  6.796	-166.229	 10.93205	  3.45196	  7.70247	  4.84505	  6.16166	 -0.06713	 11.06782	709.54700	 32.60	
  6.808	-152.311	 10.86766	  3.58674	  7.44930	  4.30518	  6.66834	 -0.07424	 11.01359	709.50897	 32.60	
  6.795	-138.383	 10.87005	  3.87107	  7.11239	  3.86939	  7.14323	 -0.07028	 11.02194	709.57703	 32.60	
  6.792	-124.591	 10.86083	  4.23846	  6.68076	  3.52766	  7.51864	 -0.07511	 11.02372	709.62500	 32.70	
  6.787	-110.754	 10.85201	  4.70455	  6.16011	  3.28008	  7.78747	 -0.08593	 11.02251	709.60101	 32.70	
  6.800	-96.985	 10.83492	  5.21627	  5.60214	  3.15197	  7.90979	 -0.08926	 11.00584	709.59497	 32.70	
  6.800	-83.015	 10.85312	  5.77697	  5.05206	  3.14320	  7.92961	 -0.09344	 11.03011	709.52802	 32.70	
  6.787	-69.246	 10.83696	  6.31370	  4.52467	  3.26029	  7.76542	 -0.10250	 11.01470	709.46100	 32.80	
  6.792	-55.409	 10.84319	  6.82901	  4.05822	  3.48958	  7.49155	 -0.09792	 11.01969	709.57703	 32.80	
  6.795	-41.617	 10.86588	  7.28642	  3.68120	  3.81965	  7.12468	 -0.08340	 11.04039	709.58197	 32.90	
  6.808	-27.689	 10.86493	  7.63436	  3.38767	  4.24887	  6.64307	 -0.08050	 11.03620	709.54700	 32.90	
  6.796	-13.771	 10.87469	  7.85996	  3.21584	  4.76585	  6.10490	 -0.08084	 11.04425	709.60101	 33.00	
  6.800	  0.000	 10.89254	  7.95706	  3.16345	  5.31371	  5.56467	 -0.06965	 11.05782	709.54797	 33.00	
  6.796	 13.771	 10.86616	  7.87852	  3.21584	  5.85909	  5.01148	 -0.06752	 11.02960	709.53101	 33.00	
  6.808	 27.689	 10.87024	  7.68852	  3.38764	  6.40763	  4.50293	 -0.07224	 11.02834	709.60602	 32.90	
  6.795	 41.617	 10.86234	  7.35007	  3.67859	  6.88910	  4.07030	 -0.06333	 11.01060	709.63702	 32.90	
  6.792	 55.409	 10.91415	  6.95493	  4.08616	  7.31181	  3.75318	 -0.06138	 11.05387	709.62598	 33.00	
  6.787	 69.246	 10.89353	  6.43817	  4.54550	  7.57107	  3.53529	 -0.06342	 11.02326	709.62201	 33.00	
  6.800	 83.015	 10.88848	  5.89294	  5.07068	  7.72359	  3.41098	 -0.06489	 11.01691	709.53601	 33.10	
  6.800	 96.985	 10.90555	  5.33387	  5.64514	  7.74582	  3.42048	 -0.06379	 11.03029	709.51501	 33.10	
  6.787	110.754	 10.91330	  4.82639	  6.18267	  7.60772	  3.55378	 -0.06646	 11.03299	709.52502	 33.10	
  6.792	124.591	 10.90313	  4.34054	  6.69572	  7.33967	  3.77346	 -0.06064	 11.02350	709.52100	 33.20	
  6.795	138.383	 10.88020	  3.94981	  7.11200	  6.93990	  4.10284	 -0.05426	 10.99759	709.56097	 33.20	
  6.808	152.311	 10.92287	  3.66758	  7.48105	  6.47924	  4.55599	 -0.05661	 11.03863	709.53101	 33.20	
  6.796	166.229	 10.90902	  3.48223	  7.67454	  5.94160	  5.05205	 -0.05808	 11.02629	709.67700	 33.30	
  8.491	168.704	 10.79128	  2.78909	  8.19375	  5.84127	  4.89924	 -0.14477	 11.04489	709.66101	 33.30	
  8.502	157.493	 10.77314	  2.93795	  8.00634	  6.38438	  4.37422	 -0.13827	 11.01944	709.49902	 33.30	
  8.494	146.194	 10.77838	  3.19438	  7.71764	  6.91091	  3.90129	 -0.13163	 11.01938	709.56299	 33.20	
  8.495	135.039	 10.79106	  3.52243	  7.35342	  7.37165	  3.51152	 -0.13456	 11.03556	709.51300	 33.30	
  8.487	123.723	 10.77954	  3.92677	  6.88719	  7.74712	  3.17877	 -0.14641	 11.02475	709.58801	 33.30	
  8.492	112.575	 10.78462	  4.41438	  6.36269	  8.02969	  2.94783	 -0.15546	 11.02947	709.43402	 33.30	
  8.510	101.220	 10.76275	  4.93538	  5.78710	  8.19486	  2.78139	 -0.15659	 11.01415	709.54797	 33.30	
  8.500	 90.000	 10.78692	  5.49831	  5.23741	  8.25984	  2.73570	 -0.14925	 11.03916	709.45801	 33.30	
  8.510	 78.780	 10.78847	  6.07534	  4.67089	  8.19001	  2.77915	 -0.15002	 11.04310	709.47699	 33.30	
  8.492	 67.425	 10.78835	  6.63239	  4.13840	  8.00257	  2.92475	 -0.14745	 11.04731	709.54797	 33.30	
  8.487	 56.277	 10.77437	  7.13934	  3.65757	  7.70611	  3.14597	 -0.13070	 11.04327	709.55298	 33.30	
  8.495	 44.961	 10.76463	  7.59064	  3.24652	  7.30684	  3.46532	 -0.13409	 11.04045	709.64398	 33.30	
  8.494	 33.806	 10.74910	  7.94234	  2.92138	  6.83700	  3.86355	 -0.14891	 11.03159	709.52100	 33.30	
  8.502	 22.507	 10.68353	  8.18273	  2.65201	  6.26982	  4.31150	 -0.14872	 10.97861	709.56097	 33.30	
  8.491	 11.296	 10.69647	  8.35388	  2.51297	  5.72197	  4.83581	 -0.14382	 10.99491	709.53998	 33.70	
  8.500	  0.000	 10.70220	  8.41514	  2.45405	  5.15484	  5.39169	 -0.14735	 11.00792	709.46698	 33.70	
  8.491	-11.296	 10.69767	  8.33637	  2.50330	  4.59223	  5.96005	 -0.15881	 11.00727	709.53302	 33.80	
  8.502	-22.507	 10.70460	  8.16128	  2.64176	  4.06934	  6.51628	 -0.16130	 11.01944	709.57898	 33.80	
  8.494	-33.806	 10.71506	  7.86745	  2.89660	  3.58983	  7.05394	 -0.15820	 11.03285	709.56299	 33.80	
  8.495	-44.961	 10.67403	  7.44894	  3.20980	  3.17460	  7.48917	 -0.17225	 10.99530	709.54700	 33.80	
  8.487	-56.277	 10.68115	  6.98756	  3.61563	  2.86546	  7.86868	 -0.19452	 11.00654	709.56799	 33.80	
  8.492	-67.425	 10.66116	  6.46219	  4.07809	  2.61728	  8.14713	 -0.19849	 10.98931	709.51300	 33.80	
  8.510	-78.780	 10.66497	  5.90030	  4.61059	  2.46702	  8.34324	 -0.19376	 11.00004	709.43597	 33.80	
  8.500	-90.000	 10.66814	  5.34312	  5.16251	  2.43655	  8.39965	 -0.18078	 10.99969	709.53900	 33.90	
  8.510	-101.220	 10.66316	  4.78608	  5.72510	  2.47514	  8.35590	 -0.17620	 10.99371	709.48499	 33.90	
  8.492	-112.575	 10.66245	  4.25087	  6.29614	  2.64158	  8.16906	 -0.16900	 10.98451	709.48999	 33.90	
  8.487	-123.723	 10.67140	  3.79884	  6.81331	  2.90460	  7.88153	 -0.15446	 10.98214	709.39600	 33.90	
  8.495	-135.039	 10.67379	  3.40125	  7.27698	  3.23119	  7.50466	 -0.14624	 10.97284	709.47400	 34.00	
  8.494	-146.194	 10.71195	  3.10314	  7.67319	  3.65555	  7.07640	 -0.15498	 11.00157	709.44202	 34.00	
  8.502	-157.493	 10.70460	  2.86458	  7.96148	  4.13655	  6.54277	 -0.16085	 10.98136	709.47699	 34.10	
  8.491	-168.704	 10.73791	  2.75353	  8.14963	  4.67923	  6.00993	 -0.14850	 11.00126	709.46399	 34.10	
  8.500	180.000	 10.75475	  2.71633	  8.23353	  5.25295	  5.44055	 -0.14136	 11.01572	709.45099	 34.10	
 10.200	180.000	 10.56540	  2.03330	  8.66477	  5.09101	  5.28411	 -0.23386	 10.99856	709.53302	 34.10	
 10.191	-170.497	 10.57272	  2.06197	  8.62624	  4.53301	  5.85567	 -0.24844	 11.01350	709.48499	 34.10	
 10.210	-161.034	 10.55186	  2.15529	  8.47147	  3.96945	  6.42633	 -0.25456	 11.00564	709.48798	 34.10	
 10.194	-151.526	 10.56082	  2.35364	  8.23174	  3.47497	  6.97128	 -0.24988	 11.02433	709.53998	 34.10	
 10.190	-142.105	 10.53810	  2.61633	  7.88044	  3.00931	  7.46655	 -0.23748	 11.01175	709.39600	 34.10	
 10.215	-132.646	 10.52535	  2.94638	  7.46792	  2.60554	  7.91120	 -0.23018	 11.01610	709.46698	 34.10	
 10.203	-123.092	 10.51558	  3.35500	  6.97845	  2.26720	  8.28945	 -0.24142	 11.01789	709.44000	 34.10	
 10.192	-113.678	 10.48699	  3.81209	  6.43595	  2.03645	  8.53896	 -0.25159	 10.99348	709.48798	 34.10	
 10.208	-104.249	 10.50037	  4.33750	  5.88172	  1.85464	  8.75508	 -0.26738	 11.01569	709.43701	 34.00	
 10.210	-94.801	 10.49381	  4.88321	  5.29840	  1.76284	  8.84953	 -0.27418	 11.01148	709.47998	 34.00	
 10.210	-85.199	 10.50072	  5.45623	  4.72393	  1.76199	  8.84557	 -0.28428	 11.01868	709.39398	 34.10	
 10.208	-75.751	 10.49607	  6.02367	  4.17156	  1.82958	  8.73900	 -0.29658	 11.01504	709.40698	 34.10	
 10.192	-66.322	 10.50946	  6.59235	  3.65945	  1.99199	  8.54010	 -0.29576	 11.02437	709.44800	 34.00	
 10.203	-56.908	 10.50472	  7.10402	  3.19173	  2.22778	  8.24175	 -0.29059	 11.01469	709.56000	 34.10	
 10.215	-47.354	 10.48391	  7.58796	  2.74817	  2.52044	  7.86133	 -0.27015	 10.99352	709.44800	 34.10	
 10.190	-37.895	 10.50764	  8.01675	  2.41432	  2.92567	  7.41778	 -0.24668	 11.00986	709.44202	 34.10	
 10.194	-28.474	 10.49059	  8.35016	  2.12895	  3.36323	  6.90892	 -0.24301	 10.99117	709.35303	 34.10	
 10.210	-18.966	 10.49322	  8.60681	  1.92880	  3.85621	  6.37162	 -0.24361	 10.98836	709.40997	 34.10	
 10.191	 -9.503	 10.49972	  8.77071	  1.81467	  4.39605	  5.80987	 -0.24062	 10.99174	709.46600	 34.20	
 10.200	  0.000	 10.53171	  8.86018	  1.78533	  4.98414	  5.24288	 -0.23543	 11.02119	709.45099	 34.20	
 10.191	  9.503	 10.53029	  8.82494	  1.81417	  5.56193	  4.67740	 -0.23026	 11.01691	709.46899	 34.20	
 10.210	 18.966	 10.52266	  8.68174	  1.93516	  6.13413	  4.13048	 -0.24149	 11.00385	709.40698	 34.20	
 10.194	 28.474	 10.53128	  8.44474	  2.14677	  6.68894	  3.63975	 -0.23775	 11.00085	709.47998	 34.20	
 10.190	 37.895	 10.54044	  8.13334	  2.42303	  7.19452	  3.21009	 -0.22185	 11.00005	709.42401	 34.20	
 10.215	 47.354	 10.55884	  7.74271	  2.78005	  7.66735	  2.81835	 -0.20706	 11.01175	709.47498	 34.20	
 10.203	 56.908	 10.57463	  7.27901	  3.20723	  8.05635	  2.51702	 -0.21155	 11.01670	709.40399	 34.20	
 10.192	 66.322	 10.57191	  6.75962	  3.67691	  8.34916	  2.28509	 -0.22575	 11.00596	709.45898	 34.20	
 10.208	 75.751	 10.57020	  6.20532	  4.19367	  8.56075	  2.12219	 -0.23630	 11.00275	709.45599	 34.20	
 10.210	 85.199	 10.57757	  5.63794	  4.75600	  8.67490	  2.04517	 -0.24197	 11.00495	709.51300	 34.20	
 10.210	 94.801	 10.58948	  5.06687	  5.34163	  8.69136	  2.05673	 -0.24471	 11.01140	709.47998	 34.30	
 10.208	104.249	 10.59373	  4.50808	  5.92073	  8.61231	  2.13244	 -0.25375	 11.01723	709.56097	 34.30	
 10.192	113.678	 10.58300	  3.98011	  6.47705	  8.40091	  2.30555	 -0.24504	 10.99925	709.51501	 34.20	
 10.203	123.092	 10.56822	  3.51137	  6.98579	  8.10349	  2.53877	 -0.23152	 10.97870	709.49298	 34.20	
 10.215	132.646	 10.57534	  3.07735	  7.47799	  7.74117	  2.85260	 -0.21383	 10.98690	709.48499	 34.30	
 10.190	142.105	 10.59438	  2.73462	  7.89920	  7.29889	  3.25203	 -0.20602	 10.99975	709.48999	 34.30	
 10.194	151.526	 10.59230	  2.44178	  8.23907	  6.80180	  3.68666	 -0.21216	 11.00280	709.46698	 34.30	
 10.210	161.034	 10.58397	  2.22293	  8.48267	  6.25234	  4.18012	 -0.22179	 11.00128	709.37500	 34.30	
 10.191	170.497	 10.59077	  2.09634	  8.63497	  5.68571	  4.72607	 -0.22783	 11.01198	709.51703	 34.30	
 11.899	171.783	 10.38115	  1.40597	  9.06498	  5.51385	  4.53625	 -0.32400	 11.01610	709.38501	 34.30	
 11.890	163.610	 10.39264	  1.52155	  8.94150	  6.09587	  3.99850	 -0.31429	 11.02119	709.40698	 34.30	
 11.889	155.445	 10.39299	  1.70698	  8.72401	  6.65134	  3.48449	 -0.30325	 11.01345	709.39899	 34.30	
 11.909	147.299	 10.38678	  1.94323	  8.43379	  7.17809	  3.00823	 -0.29353	 11.00584	709.40100	 34.30	
 11.902	139.148	 10.36455	  2.24898	  8.04633	  7.64866	  2.58612	 -0.29390	 10.98382	709.31500	 34.30	
 11.894	130.867	 10.38052	  2.63290	  7.61245	  8.09662	  2.22734	 -0.30576	 10.99760	709.41498	 34.30	
 11.897	122.732	 10.38460	  3.06487	  7.12402	  8.46288	  1.92810	 -0.32347	 11.00490	709.39099	 34.30	
 11.903	114.597	 10.36618	  3.53264	  6.58457	  8.73655	  1.68613	 -0.33906	 10.98676	709.29602	 34.40	
 11.893	106.346	 10.37679	  4.05383	  6.02602	  8.95251	  1.52144	 -0.34937	 11.00080	709.36700	 34.40	
 11.892	 98.155	 10.38319	  4.61020	  5.44817	  9.08335	  1.41241	 -0.34735	 11.01135	709.29700	 34.40	
 11.900	 90.000	 10.40624	  5.18631	  4.88624	  9.13301	  1.38075	 -0.34431	 11.03625	709.40100	 34.40	
 11.892	 81.845	 10.39792	  5.76240	  4.30655	  9.08143	  1.40088	 -0.33489	 11.03299	709.29102	 34.40	
 11.893	 73.654	 10.38610	  6.33327	  3.75167	  8.92730	  1.50063	 -0.32422	 11.02231	709.32098	 34.40	
 11.903	 65.403	 10.34029	  6.85728	  3.22689	  8.66565	  1.66103	 -0.30645	 10.97852	709.36902	 34.30	
 11.897	 57.268	 10.32596	  7.37035	  2.74584	  8.36021	  1.88849	 -0.29424	 10.97642	709.32098	 34.30	
 11.894	 49.133	 10.34737	  7.86126	  2.33739	  8.00479	  2.19186	 -0.28875	 11.00596	709.36700	 34.30	
 11.902	 40.852	 10.34550	  8.29175	  1.96573	  7.55089	  2.56538	 -0.29909	 11.00978	709.37000	 34.40	
 11.909	 32.701	 10.36507	  8.66938	  1.66123	  7.07432	  2.98530	 -0.32094	 11.04244	709.38000	 34.40	
 11.889	 24.555	 10.34954	  8.93136	  1.43134	  6.53130	  3.44816	 -0.33114	 11.03251	709.42401	 34.40	
 11.890	 16.390	 10.31141	  9.10638	  1.24891	  5.95710	  3.93840	 -0.33167	 11.00265	709.37500	 34.30	
 11.899	  8.217	 10.30474	  9.22347	  1.14710	  5.37378	  4.47432	 -0.32367	 11.00198	709.36700	 34.30	
 11.900	  0.000	 10.29211	  9.24619	  1.10403	  4.78520	  5.04094	 -0.32719	 10.99529	709.37201	 34.30	
 11.899	 -8.217	 10.31534	  9.21934	  1.13380	  4.21627	  5.63052	 -0.33181	 11.02665	709.37000	 34.30	
 11.890	-16.390	 10.31108	  9.06963	  1.23693	  3.66252	  6.20795	 -0.32981	 11.02739	709.46100	 34.30	
 11.889	-24.555	 10.29693	  8.83671	  1.40190	  3.15320	  6.75028	 -0.32711	 11.01806	709.41199	 34.30	
 11.909	-32.701	 10.28135	  8.52538	  1.63320	  2.67417	  7.27428	 -0.32651	 11.00814	709.27802	 34.20	
 11.902	-40.852	 10.29488	  8.16253	  1.93554	  2.25433	  7.77464	 -0.33781	 11.02604	709.31201	 34.30	
 11.894	-49.133	 10.30027	  7.72102	  2.30450	  1.89944	  8.21419	 -0.35991	 11.03646	709.25000	 34.30	
 11.897	-57.268	 10.26956	  7.21008	  2.71855	  1.59885	  8.55576	 -0.37380	 11.00686	709.27502	 34.30	
 11.903	-65.403	 10.25727	  6.67040	  3.18535	  1.36388	  8.84446	 -0.37957	 10.99901	709.26202	 34.20	
 11.893	-73.654	 10.24252	  6.10014	  3.69357	  1.19283	  9.05903	 -0.38428	 10.99023	709.29700	 34.20	
 11.892	-81.845	 10.25454	  5.53131	  4.24729	  1.09119	  9.21300	 -0.37977	 11.00899	709.21600	 34.30	
 11.900	-90.000	 10.23620	  4.95911	  4.79606	  1.06201	  9.24520	 -0.37073	 10.99110	709.34698	 34.30	
 11.892	-98.155	 10.25160	  4.40389	  5.38329	  1.11575	  9.21047	 -0.36052	 11.00015	709.29401	 34.30	
 11.893	-106.346	 10.25189	  3.86295	  5.96331	  1.23270	  9.07978	 -0.34848	 10.99712	709.30402	 34.40	
 11.903	-114.597	 10.25962	  3.34635	  6.53566	  1.41197	  8.87575	 -0.33219	 10.99948	709.25598	 34.40	
 11.897	-122.732	 10.25813	  2.89037	  7.05501	  1.65604	  8.58216	 -0.32015	 10.98708	709.31299	 34.40	
 11.894	-130.867	 10.30800	  2.50034	  7.57099	  1.97285	  8.25693	 -0.31434	 11.02558	709.17999	 34.40	
 11.902	-139.148	 10.28905	  2.12688	  8.00518	  2.34051	  7.80565	 -0.31958	 10.99690	709.30402	 34.40	
 11.909	-147.299	 10.31002	  1.84655	  8.38131	  2.77735	  7.32740	 -0.33570	 11.00249	709.30701	 34.40	
 11.889	-155.445	 10.31979	  1.62425	  8.67338	  3.26265	  6.80371	 -0.34278	 10.99478	709.28900	 34.40	
 11.890	-163.610	 10.30980	  1.45964	  8.88317	  3.78310	  6.22711	 -0.34766	 10.97422	709.24597	 34.40	
 11.899	-171.783	 10.33015	  1.37295	  9.02726	  4.33642	  5.66497	 -0.34294	 10.98367	709.34802	 34.40	
 11.900	180.000	 10.35757	  1.35299	  9.09636	  4.92405	  5.09260	 -0.33701	 11.00161	709.25000	 34.50	
 13.600	180.000	 10.10303	  0.67515	  9.47505	  4.71870	  4.87755	 -0.42470	 11.00188	709.25702	 34.50	
 13.608	-172.853	 10.10887	  0.68340	  9.45312	  4.14634	  5.46556	 -0.43265	 11.02193	709.21100	 34.50	
 13.611	-165.583	 10.07979	  0.75839	  9.31516	  3.57490	  6.03746	 -0.44223	 11.00258	709.26501	 34.50	
 13.601	-158.353	 10.07786	  0.90289	  9.12111	  3.04925	  6.60337	 -0.43880	 11.01066	709.21802	 34.50	
 13.609	-151.210	 10.07125	  1.08848	  8.86224	  2.55621	  7.15010	 -0.42737	 11.02234	709.17798	 34.50	
 13.611	-143.999	 10.03268	  1.33104	  8.50645	  2.08197	  7.65258	 -0.41324	 10.99923	709.22601	 34.50	
 13.601	-136.825	 10.03937	  1.64011	  8.11962	  1.69109	  8.12198	 -0.39509	 11.01785	709.23798	 34.50	
 13.596	-129.640	 10.01595	  2.00272	  7.64933	  1.32988	  8.53211	 -0.38671	 11.00285	709.18402	 34.50	
 13.611	-122.431	 10.00388	  2.40615	  7.14973	  1.03080	  8.88463	 -0.39167	 11.00312	709.24298	 34.50	
 13.604	-115.211	  9.98218	  2.86477	  6.59870	  0.78164	  9.16350	 -0.40220	 10.98918	709.18701	 34.50	
 13.595	-108.042	  9.97222	  3.35506	  6.03406	  0.59234	  9.38320	 -0.41731	 10.98697	709.09802	 34.40	
 13.607	-100.793	  9.97252	  3.89405	  5.45511	  0.47172	  9.52597	 -0.42923	 10.98843	709.22198	 34.40	
 13.601	-93.617	  9.96839	  4.43729	  4.87974	  0.40750	  9.59121	 -0.43265	 10.98521	709.21802	 34.50	
 13.601	-86.383	  9.96345	  5.00178	  4.30141	  0.40267	  9.58314	 -0.43708	 10.98344	709.32397	 34.50	
 13.607	-79.207	  9.96067	  5.57691	  3.73387	  0.44508	  9.50368	 -0.44431	 10.98015	709.25403	 34.50	
 13.595	-71.958	  9.97567	  6.16121	  3.20075	  0.56627	  9.34848	 -0.43843	 10.98689	709.20001	 34.60	
 13.604	-64.789	  9.98637	  6.70945	  2.71306	  0.73240	  9.13125	 -0.43778	 10.99084	709.27301	 34.60	
 13.611	-57.569	 10.00798	  7.26328	  2.25126	  0.96368	  8.84879	 -0.43622	 11.01095	709.35602	 34.60	
 13.596	-50.360	  9.99908	  7.75586	  1.82837	  1.24772	  8.47547	 -0.42942	 10.99440	709.32703	 34.60	
 13.601	-43.175	 10.00273	  8.20093	  1.47149	  1.60167	  8.04373	 -0.40601	 10.98699	709.29999	 34.60	
 13.611	-36.001	 10.00617	  8.60902	  1.14494	  1.99032	  7.58388	 -0.39614	 10.99270	709.23798	 34.70	
 13.609	-28.790	 10.00399	  8.94542	  0.88518	  2.43085	  7.06810	 -0.39954	 10.98697	709.21600	 34.70	
 13.601	-21.647	 10.00756	  9.21980	  0.68432	  2.90091	  6.53089	 -0.40227	 10.98478	709.16803	 34.70	
 13.611	-14.417	 10.00498	  9.41429	  0.53921	  3.42002	  5.96829	 -0.40583	 10.97760	709.16400	 34.70	
 13.608	 -7.147	 10.02737	  9.56075	  0.45228	  3.98740	  5.39243	 -0.40779	 10.99608	709.21002	 34.70	
 13.600	  0.000	 10.01996	  9.60007	  0.42643	  4.54808	  4.82291	 -0.40999	 10.98314	709.13300	 34.80	
 13.608	  7.147	 10.05449	  9.61352	  0.45110	  5.13996	  4.26872	 -0.41263	 11.01988	709.13000	 34.80	
 13.611	 14.417	 10.07153	  9.52499	  0.54194	  5.73730	  3.71866	 -0.42454	 11.03183	709.11798	 34.70	
 13.601	 21.647	 10.05129	  9.31708	  0.69596	  6.29940	  3.19109	 -0.42822	 10.99840	709.10999	 34.70	
 13.609	 28.790	 10.06520	  9.08568	  0.89794	  6.84743	  2.72187	 -0.41941	 11.00537	709.13800	 34.70	
 13.611	 36.001	 10.04672	  8.74452	  1.16110	  7.34976	  2.28506	 -0.39969	 10.97343	709.15302	 34.70	
 13.601	 43.175	 10.09804	  8.40239	  1.49247	  7.86816	  1.89727	 -0.38062	 11.01781	709.16803	 34.70	
 13.596	 50.360	 10.08670	  7.96050	  1.85548	  8.27839	  1.56168	 -0.36863	 10.99415	709.20697	 34.70	
 13.611	 57.569	 10.09778	  7.47993	  2.28062	  8.66421	  1.26580	 -0.37356	 10.99911	709.16998	 34.70	
 13.604	 64.789	 10.09221	  6.95382	  2.74026	  8.97109	  1.02876	 -0.38599	 10.98910	709.23199	 34.70	
 13.595	 71.958	 10.09905	  6.40116	  3.25036	  9.20173	  0.86987	 -0.39733	 10.98091	709.21002	 34.70	
 13.607	 79.207	 10.10482	  5.83907	  3.77842	  9.37590	  0.74776	 -0.41939	 10.98754	709.16400	 34.70	
 13.601	 86.383	 10.09687	  5.25435	  4.34232	  9.44816	  0.69832	 -0.43115	 10.97279	709.20001	 34.70	
 13.601	 93.617	 10.12642	  4.69227	  4.92942	  9.49008	  0.70040	 -0.43978	 11.00734	709.09497	 34.80	
 13.607	100.793	 10.12870	  4.12957	  5.51364	  9.43098	  0.75946	 -0.44047	 11.00617	709.10199	 34.80	
 13.595	108.042	 10.11673	  3.58039	  6.09505	  9.26383	  0.88871	 -0.43859	 10.98620	709.10999	 34.80	
 13.604	115.211	 10.14557	  3.08981	  6.66282	  9.07316	  1.06700	 -0.42797	 11.01412	709.14502	 34.80	
 13.611	122.431	 10.13588	  2.61187	  7.20172	  8.76861	  1.29819	 -0.41089	 11.00378	709.17499	 34.80	
 13.596	129.640	 10.14102	  2.18472	  7.69749	  8.42037	  1.58402	 -0.39164	 11.01097	709.15302	 34.80	
 13.601	136.825	 10.13992	  1.80567	  8.14787	  7.99411	  1.93541	 -0.37769	 11.00271	709.07800	 34.80	
 13.611	143.999	 10.11601	  1.46891	  8.53106	  7.51737	  2.30942	 -0.37099	 10.98626	709.19897	 34.80	
 13.609	151.210	 10.11157	  1.19847	  8.85800	  6.98801	  2.76631	 -0.37556	 10.97377	709.12097	 34.80	
 13.601	158.353	 10.10944	  0.97940	  9.12397	  6.44994	  3.24225	 -0.38882	 10.97887	709.10498	 34.90	
 13.611	165.583	 10.10341	  0.81685	  9.31606	  5.87660	  3.75958	 -0.40507	 10.98085	709.19202	 34.90	
 13.608	172.853	 10.09138	  0.71822	  9.42011	  5.28239	  4.31593	 -0.41555	 10.97425	709.15100	 34.90	
 15.298	173.587	  9.82547	  0.04734	  9.78833	  5.07641	  4.07260	 -0.47952	 11.00361	709.21002	 34.90	
 15.291	167.167	  9.83519	  0.14091	  9.68618	  5.64782	  3.54010	 -0.47312	 10.99891	709.10303	 35.00	
 15.307	160.676	  9.83188	  0.26963	  9.51927	  6.22789	  3.00143	 -0.46457	 10.99195	709.15302	 35.00	
 15.300	154.261	  9.82511	  0.46273	  9.27415	  6.76905	  2.51027	 -0.44856	 10.97796	709.13702	 35.00	
 15.288	147.854	  9.85905	  0.70868	  8.99236	  7.32946	  2.06237	 -0.44264	 11.00992	709.08899	 35.00	
 15.293	141.428	  9.84728	  0.99441	  8.62226	  7.81617	  1.64715	 -0.44316	 10.99579	709.10602	 35.00	
 15.299	134.985	  9.81930	  1.32634	  8.18799	  8.25484	  1.26104	 -0.45247	 10.96854	709.12097	 35.00	
 15.305	128.583	  9.85340	  1.70188	  7.75901	  8.68732	  0.94614	 -0.46281	 11.00736	709.04901	 35.00	
 15.309	122.142	  9.84894	  2.12850	  7.25055	  9.04722	  0.66140	 -0.47645	 11.00962	709.07800	 35.00	
 15.304	115.711	  9.82992	  2.59420	  6.69255	  9.32987	  0.42927	 -0.48648	 10.99147	709.13300	 35.00	
 15.297	109.291	  9.85919	  3.10628	  6.15113	  9.57199	  0.26623	 -0.49679	 11.01826	709.22998	 34.90	
 15.293	102.897	  9.84484	  3.62472	  5.57234	  9.72551	  0.12923	 -0.49772	 11.00934	709.26202	 34.90	
 15.293	 96.458	  9.83276	  4.17852	  4.97780	  9.79304	  0.06626	 -0.49431	 10.98848	709.14899	 34.90	
 15.300	 90.000	  9.82871	  4.74205	  4.40064	  9.81971	  0.03108	 -0.49234	 10.98970	709.14301	 34.90	
 15.293	 83.542	  9.83559	  5.32268	  3.83085	  9.78649	  0.04876	 -0.48984	 11.00369	709.15698	 35.00	
 15.293	 77.103	  9.85285	  5.91462	  3.28472	  9.68766	  0.12312	 -0.48744	 11.02168	709.12701	 35.00	
 15.297	 70.709	  9.84797	  6.46738	  2.77360	  9.50082	  0.25531	 -0.47396	 11.01628	709.17603	 35.00	
 15.304	 64.289	  9.83537	  7.01537	  2.27304	  9.25327	  0.42313	 -0.45797	 11.01349	709.15698	 35.00	
 15.309	 57.858	  9.82664	  7.53517	  1.81612	  8.93714	  0.64547	 -0.44646	 11.01113	709.06299	 34.90	
 15.305	 51.417	  9.80826	  8.01586	  1.39279	  8.55704	  0.91936	 -0.43835	 11.00103	709.22601	 34.90	
 15.299	 45.015	  9.80442	  8.45349	  1.02902	  8.13266	  1.24894	 -0.44496	 10.99927	709.17200	 34.90	
 15.293	 38.572	  9.76725	  8.82770	  0.69633	  7.63120	  1.61638	 -0.46691	 10.96984	709.09802	 34.90	
 15.288	 32.146	  9.78383	  9.18898	  0.41709	  7.15474	  2.01772	 -0.48924	 11.00344	709.12701	 34.90	
 15.300	 25.739	  9.76237	  9.45321	  0.18742	  6.60591	  2.46894	 -0.49990	 10.98882	709.15100	 34.90	
 15.307	 19.324	  9.75742	  9.68038	  0.00267	  6.05292	  2.94866	 -0.50132	 10.99907	709.14502	 35.00	
 15.291	 12.833	  9.74675	  9.82168	 -0.11765	  5.45880	  3.48720	 -0.49095	 10.98672	709.13702	 35.00	
 15.298	  6.413	  9.74107	  9.90765	 -0.18995	  4.88971	  4.01492	 -0.48169	 10.98752	709.16199	 35.00	
 15.300	  0.000	  9.72270	  9.91691	 -0.22165	  4.30521	  4.57108	 -0.47020	 10.97427	709.20203	 35.00	
 15.298	 -6.413	  9.71537	  9.86784	 -0.19798	  3.73490	  5.13599	 -0.47268	 10.97180	709.12201	 34.90	
 15.291	-12.833	  9.70823	  9.75015	 -0.12798	  3.19052	  5.70090	 -0.47136	 10.97005	709.22400	 35.00	
 15.307	-19.324	  9.70881	  9.58030	 -0.01103	  2.65958	  6.27468	 -0.46739	 10.98029	709.16699	 35.10	
 15.300	-25.739	  9.72882	  9.35714	  0.16538	  2.17164	  6.84305	 -0.45934	 11.00774	709.02399	 35.10	
 15.288	-32.146	  9.70371	  9.02615	  0.39062	  1.71217	  7.35901	 -0.44973	 10.98342	709.21002	 35.10	
 15.293	-38.572	  9.70590	  8.66349	  0.67007	  1.31300	  7.84899	 -0.44760	 10.98669	709.21600	 35.10	
 15.299	-45.015	  9.69727	  8.24354	  0.98595	  0.93425	  8.31079	 -0.45479	 10.98475	709.19501	 35.10	
 15.305	-51.417	  9.68897	  7.77697	  1.34937	  0.60813	  8.72075	 -0.45562	 10.98538	709.17603	 35.10	
 15.309	-57.858	  9.69652	  7.28451	  1.76260	  0.33597	  9.09114	 -0.45577	 10.99980	709.10602	 35.10	
 15.304	-64.289	  9.68172	  6.74828	  2.20978	  0.10814	  9.38537	 -0.45262	 10.99480	709.20801	 35.10	
 15.297	-70.709	  9.67092	  6.17475	  2.71332	 -0.04850	  9.60373	 -0.44991	 10.98292	709.17200	 35.10	
 15.293	-77.103	  9.67745	  5.63063	  3.22331	 -0.17784	  9.79255	 -0.44804	 10.99985	709.14600	 35.10	
 15.293	-83.542	  9.66117	  5.04674	  3.77136	 -0.24151	  9.88168	 -0.45602	 10.98665	709.17798	 35.10	
 15.300	-90.000	  9.67433	  4.48528	  4.34739	 -0.25635	  9.93085	 -0.46634	 11.00028	709.14899	 35.10	
 15.293	-96.458	  9.62789	  3.90007	  4.89350	 -0.23265	  9.86858	 -0.46959	 10.95319	709.19501	 35.10	
 15.293	-102.897	  9.64118	  3.36660	  5.48597	 -0.15660	  9.78323	 -0.47673	 10.96505	709.10999	 35.10	
 15.297	-109.291	  9.63367	  2.84883	  6.05295	 -0.01838	  9.60878	 -0.46733	 10.95082	709.16998	 35.20	
 15.304	-115.711	  9.66529	  2.37690	  6.62099	  0.15824	  9.41399	 -0.45903	 10.98104	709.18402	 35.20	
 15.309	-122.142	  9.66159	  1.92288	  7.15058	  0.39747	  9.11172	 -0.45296	 10.96594	709.15900	 35.30	
 15.305	-128.583	  9.69223	  1.52369	  7.67221	  0.69574	  8.77311	 -0.45254	 10.98651	709.16699	 35.30	
 15.299	-134.985	  9.72248	  1.16855	  8.15328	  1.03825	  8.38234	 -0.45589	 11.00498	709.12701	 35.20	
 15.293	-141.428	  9.72976	  0.86082	  8.56054	  1.42206	  7.92387	 -0.46850	 10.99423	709.09497	 35.30	
 15.288	-147.854	  9.73474	  0.58137	  8.92874	  1.84867	  7.42441	 -0.47914	 10.98782	709.11798	 35.20	
 15.300	-154.261	  9.77559	  0.37186	  9.25637	  2.31744	  6.91453	 -0.49049	 11.01612	709.11298	 35.20	
 15.307	-160.676	  9.75196	  0.20211	  9.46371	  2.81619	  6.33506	 -0.49183	 10.97126	709.01398	 35.20	
 15.291	-167.167	  9.78464	  0.08694	  9.66275	  3.35306	  5.78417	 -0.49165	 10.99648	709.07098	 35.20	
 15.298	-173.587	  9.79367	  0.01933	  9.77249	  3.91047	  5.20783	 -0.48713	 10.99438	709.10199	 35.20	
 15.300	180.000	  9.80899	  0.01249	  9.81084	  4.48582	  4.63724	 -0.48245	 10.99531	708.99402	 35.20	
 17.000	180.000	  9.47668	 -0.62783	 10.09873	  4.23959	  4.36107	 -0.50183	 10.98607	709.04901	 35.10	
 16.990	-174.179	  9.47180	 -0.61305	 10.06519	  3.67252	  4.93522	 -0.49790	 10.98955	709.03998	 35.10	
 17.009	-168.383	  9.45338	 -0.56763	  9.97004	  3.10907	  5.51286	 -0.50214	 10.98910	709.08099	 35.20	
 17.000	-162.596	  9.42801	 -0.47524	  9.80818	  2.57865	  6.06092	 -0.50413	 10.97925	708.88397	 35.20	
 16.990	-156.759	  9.40866	 -0.32188	  9.57532	  2.07481	  6.62128	 -0.50490	 10.96823	708.97803	 35.20	
 16.995	-150.919	  9.42503	 -0.14130	  9.32895	  1.60086	  7.19043	 -0.51010	 11.01074	708.90399	 35.20	
 16.988	-145.161	  9.41288	  0.09025	  9.00323	  1.17098	  7.69243	 -0.50752	 11.01186	709.01703	 35.20	
 17.014	-139.343	  9.37821	  0.36582	  8.59379	  0.75667	  8.16671	 -0.50181	 10.98822	709.01300	 35.10	
 17.007	-133.546	  9.33876	  0.68124	  8.14179	  0.39378	  8.58023	 -0.49699	 10.95946	709.05902	 35.10	
 17.001	-127.699	  9.35237	  1.04202	  7.68925	  0.07954	  8.99539	 -0.49060	 10.98920	709.01703	 35.10	
 17.006	-121.937	  9.33641	  1.43960	  7.17382	 -0.20691	  9.34417	 -0.48961	 10.98626	709.01703	 35.10	
 17.002	-116.134	  9.32609	  1.88130	  6.63166	 -0.42275	  9.62346	 -0.48961	 10.97660	709.02100	 35.10	
 17.001	-110.310	  9.31800	  2.35394	  6.07679	 -0.61192	  9.86182	 -0.49097	 10.98253	708.96198	 35.20	
 16.988	-104.517	  9.32449	  2.84542	  5.52216	 -0.74500	 10.04092	 -0.49285	 10.99349	708.95099	 35.20	
 17.008	-98.662	  9.30939	  3.37824	  4.92841	 -0.84284	 10.14540	 -0.47856	 10.98060	709.00000	 35.20	
 16.996	-92.909	  9.31637	  3.91389	  4.36974	 -0.87902	 10.19750	 -0.46159	 10.98500	708.97601	 35.20	
 16.996	-87.091	  9.32162	  4.48173	  3.79752	 -0.88339	 10.19457	 -0.44627	 10.98513	708.93500	 35.20	
 17.012	-81.253	  9.34164	  5.05660	  3.24773	 -0.86354	 10.15381	 -0.43508	 11.00729	708.96997	 35.20	
 16.988	-75.483	  9.34084	  5.62312	  2.71787	 -0.77018	 10.01524	 -0.43100	 10.99467	709.02197	 35.20	
 17.001	-69.690	  9.35089	  6.17782	  2.21949	 -0.64352	  9.83854	 -0.42451	 10.99957	708.91699	 35.30	
 17.002	-63.866	  9.33585	  6.72520	  1.72438	 -0.47981	  9.58241	 -0.42857	 10.97688	708.99200	 35.20	
 17.006	-58.063	  9.37770	  7.27845	  1.29401	 -0.26188	  9.31022	 -0.44243	 11.01306	708.95203	 35.20	
 17.001	-52.301	  9.36638	  7.76363	  0.89213	 -0.01140	  8.95032	 -0.45969	 10.99470	708.85199	 35.20	
 17.007	-46.454	  9.37731	  8.25323	  0.52007	  0.29233	  8.54669	 -0.46652	 11.00101	708.92798	 35.20	
 17.014	-40.657	  9.35828	  8.66748	  0.18985	  0.63515	  8.08327	 -0.47576	 10.97877	709.01703	 35.20	
 16.988	-34.839	  9.34766	  9.02956	 -0.07634	  1.02446	  7.59171	 -0.48271	 10.94992	708.98901	 35.20	
 16.995	-29.081	  9.37328	  9.38062	 -0.30860	  1.45619	  7.08738	 -0.49305	 10.97351	708.95203	 35.20	
 16.990	-23.241	  9.38146	  9.66240	 -0.50297	  1.91225	  6.56158	 -0.50142	 10.97773	708.94299	 35.20	
 17.000	-17.404	  9.38206	  9.88549	 -0.65206	  2.41110	  5.99586	 -0.50306	 10.97190	708.95398	 35.20	
 17.009	-11.617	  9.39813	 10.06535	 -0.76309	  2.92451	  5.44552	 -0.50681	 10.98831	708.91901	 35.30	
 16.990	 -5.821	  9.39634	 10.15830	 -0.82559	  3.46942	  4.87475	 -0.50731	 10.97930	709.00098	 35.30	
 17.000	  0.000	  9.39248	 10.19191	 -0.84678	  4.02842	  4.30421	 -0.51126	 10.96936	708.84399	 35.30	
 16.990	  5.821	  9.39937	 10.18502	 -0.82937	  4.59651	  3.75515	 -0.52097	 10.97769	708.98401	 35.20	
 17.009	 11.617	  9.38082	 10.08984	 -0.76811	  5.15904	  3.20900	 -0.52963	 10.95299	708.89001	 35.30	
 17.000	 17.404	  9.39762	  9.96158	 -0.65268	  5.73295	  2.70542	 -0.53999	 10.96137	708.84900	 35.30	
 16.990	 23.241	  9.39796	  9.75378	 -0.49116	  6.29174	  2.21357	 -0.54719	 10.94520	708.95898	 35.30	
 16.995	 29.081	  9.41338	  9.52278	 -0.30898	  6.85501	  1.74825	 -0.55060	 10.96364	709.76501	 35.40	
 16.988	 34.839	  9.43172	  9.23190	 -0.06376	  7.37850	  1.33491	 -0.54258	 10.97173	708.93298	 35.40	
 17.014	 40.657	  9.42907	  8.86776	  0.21347	  7.86583	  0.94115	 -0.52600	 10.95837	708.85400	 35.50	
 17.007	 46.454	  9.44511	  8.45788	  0.55068	  8.33356	  0.59972	 -0.51404	 10.96278	709.62000	 35.50	
 17.001	 52.301	  9.45234	  7.99916	  0.92345	  8.75146	  0.29430	 -0.50654	 10.95997	708.83801	 35.50	
 17.006	 58.063	  9.44448	  7.51302	  1.31576	  9.10059	  0.03382	 -0.50710	 10.94572	708.87903	 35.60	
 17.002	 63.866	  9.44651	  6.99052	  1.75838	  9.40727	 -0.18057	 -0.51789	 10.93926	709.46698	 35.60	
 17.001	 69.690	  9.46357	  6.45503	  2.24037	  9.66999	 -0.35168	 -0.52734	 10.94996	708.86902	 35.60	
 16.988	 75.483	  9.44450	  5.88676	  2.73828	  9.83295	 -0.47268	 -0.52361	 10.91889	708.84399	 35.70	
 17.012	 81.253	  9.43657	  5.32084	  3.25925	  9.96242	 -0.56882	 -0.52003	 10.91281	708.90399	 35.70	
 16.996	 87.091	  9.45376	  4.75628	  3.82215	 10.04085	 -0.59575	 -0.50780	 10.92199	709.67603	 35.70	
 16.996	 92.909	  9.45066	  4.19221	  4.38399	 10.05916	 -0.60580	 -0.50502	 10.92496	708.77600	 35.80	
 17.008	 98.662	  9.43227	  3.64532	  4.93669	  9.98619	 -0.55495	 -0.49971	 10.89392	709.74200	 35.90	
 16.988	104.517	  9.44637	  3.10447	  5.53257	  9.88293	 -0.46363	 -0.50505	 10.90588	709.70697	 36.00	
 17.001	110.310	  9.42165	  2.58937	  6.07922	  9.69842	 -0.34170	 -0.50724	 10.88213	709.74902	 36.00	
 17.002	116.134	  9.43948	  2.10982	  6.64336	  9.48086	 -0.16808	 -0.51019	 10.89773	709.73102	 36.10	
 17.006	121.937	  9.42962	  1.65692	  7.17361	  9.17594	  0.05481	 -0.50523	 10.88312	709.69299	 36.20	
 17.001	127.699	  9.42461	  1.23678	  7.66457	  8.84131	  0.30585	 -0.50672	 10.88391	709.69598	 36.30	
 17.007	133.546	  9.43741	  0.86699	  8.14309	  8.44329	  0.61792	 -0.50140	 10.88640	709.69598	 36.30	
 17.014	139.343	  9.40945	  0.52079	  8.55040	  7.99039	  0.94679	 -0.49615	 10.86368	709.71100	 36.40	
 16.988	145.161	  9.43494	  0.23784	  8.94356	  7.52241	  1.34974	 -0.49539	 10.88378	709.05701	 36.50	
 16.995	150.919	  9.42839	 -0.00967	  9.26432	  7.01023	  1.76859	 -0.49597	 10.87713	709.70398	 36.50	
 16.990	156.759	  9.43152	 -0.22091	  9.54172	  6.47204	  2.23979	 -0.50029	 10.88470	709.55298	 36.60	
 17.000	162.596	  9.42498	 -0.38559	  9.74953	  5.91572	  2.72873	 -0.50449	 10.88515	709.58698	 36.60	
 17.009	168.383	  9.40099	 -0.50446	  9.88189	  5.33670	  3.23490	 -0.50093	 10.86657	709.64203	 36.70	
 16.990	174.179	  9.39700	 -0.57908	  9.97063	  4.76776	  3.77549	 -0.49574	 10.87394	709.63397	 36.70	
 18.709	174.675	  9.04442	 -1.19643	 10.23735	  4.49351	  3.49091	 -0.49347	 10.87895	709.67700	 36.80	
 18.703	169.441	  9.05358	 -1.13052	 10.16190	  5.05477	  2.96654	 -0.50290	 10.87690	709.64398	 36.80	
 18.691	164.085	  9.06948	 -1.01938	 10.03295	  5.63424	  2.45565	 -0.51232	 10.88451	709.63599	 36.90	
 18.706	158.818	  9.08394	 -0.87644	  9.85253	  6.18955	  1.97697	 -0.51403	 10.88920	709.64502	 36.90	
 18.695	153.537	  9.08035	 -0.69013	  9.59734	  6.73302	  1.50916	 -0.52035	 10.88048	709.67700	 36.90	
 18.704	148.255	  9.08952	 -0.48093	  9.31264	  7.26312	  1.07597	 -0.52388	 10.89075	709.62201	 36.90	
 18.698	142.952	  9.08674	 -0.22482	  8.96327	  7.75398	  0.68452	 -0.52478	 10.88757	709.60602	 36.90	
 18.699	137.625	  9.10420	  0.06710	  8.58890	  8.24319	  0.31316	 -0.53004	 10.91606	709.59302	 36.90	
 18.705	132.343	  9.09050	  0.40577	  8.13948	  8.65422	 -0.00312	 -0.52419	 10.89604	709.64398	 36.90	
 18.713	127.067	  9.10483	  0.78214	  7.67717	  9.05158	 -0.28532	 -0.51951	 10.90995	709.62799	 36.90	
 18.700	121.794	  9.10377	  1.18924	  7.17186	  9.39434	 -0.53498	 -0.50996	 10.91443	709.61700	 36.90	
 18.698	116.504	  9.09959	  1.62606	  6.64216	  9.68283	 -0.74787	 -0.50516	 10.91362	709.57703	 36.90	
 18.707	111.165	  9.09749	  2.09678	  6.08820	  9.91747	 -0.91562	 -0.49446	 10.91410	709.62500	 36.90	
 18.690	105.863	  9.08766	  2.58612	  5.52291	 10.08537	 -1.04665	 -0.48507	 10.90189	709.61700	 36.90	
 18.696	100.583	  9.07706	  3.10239	  4.94372	 10.19955	 -1.13883	 -0.47178	 10.88964	709.53699	 36.90	
 18.700	 95.309	  9.08359	  3.64327	  4.37589	 10.27365	 -1.19525	 -0.47868	 10.89815	709.59302	 36.90	
 18.700	 90.000	  9.08785	  4.18782	  3.81436	 10.29850	 -1.21923	 -0.48648	 10.90728	709.67999	 36.90	
 18.700	 84.691	  9.05468	  4.73852	  3.25317	 10.22497	 -1.20173	 -0.50368	 10.86776	709.62500	 36.90	
 18.696	 79.417	  9.07965	  5.30833	  2.73242	 10.16094	 -1.14773	 -0.52831	 10.89653	709.59497	 36.90	
 18.690	 74.137	  9.09894	  5.87980	  2.23953	 10.02174	 -1.03934	 -0.54590	 10.91008	709.65802	 36.90	
 18.707	 68.835	  9.10080	  6.43348	  1.74622	  9.83679	 -0.91977	 -0.55855	 10.92488	709.67999	 36.90	
 18.698	 63.496	  9.09040	  6.97838	  1.26776	  9.57354	 -0.74747	 -0.56142	 10.92548	709.63702	 36.90	
 18.700	 58.206	  9.06272	  7.46748	  0.84872	  9.24974	 -0.54714	 -0.55879	 10.90155	709.65002	 36.90	
 18.713	 52.933	  9.07260	  7.96539	  0.45410	  8.91284	 -0.30875	 -0.56545	 10.92349	709.59302	 36.90	
 18.705	 47.657	  9.05907	  8.41864	  0.09602	  8.49618	 -0.01499	 -0.56291	 10.91610	709.65698	 36.80	
 18.699	 42.375	  9.05708	  8.83464	 -0.22360	  8.05805	  0.30481	 -0.56463	 10.92085	709.59802	 36.80	
 18.698	 37.048	  9.06094	  9.21893	 -0.50884	  7.58336	  0.66921	 -0.56474	 10.93462	709.63599	 36.80	
 18.704	 31.745	  9.06105	  9.55614	 -0.75489	  7.07840	  1.06607	 -0.56702	 10.94658	709.59003	 36.80	
 18.695	 26.463	  9.03317	  9.79802	 -0.95299	  6.53461	  1.49517	 -0.55218	 10.91931	709.56799	 36.70	
 18.706	 21.182	  9.00834	 10.01614	 -1.13668	  5.97091	  1.94250	 -0.53883	 10.90816	709.53302	 36.70	
 18.691	 15.915	  9.01956	 10.20235	 -1.26127	  5.41668	  2.43347	 -0.53675	 10.92535	709.67603	 36.70	
 18.703	 10.559	  9.02349	 10.33587	 -1.36368	  4.86201	  2.94028	 -0.53010	 10.94342	709.69598	 36.70	
 18.709	  5.325	  9.00132	 10.38650	 -1.42291	  4.28720	  3.45807	 -0.51729	 10.92701	709.54401	 36.70	
 18.700	  0.000	  9.01699	 10.41507	 -1.43794	  3.73639	  4.00768	 -0.50827	 10.94477	709.50098	 36.70	
 18.709	 -5.325	  8.98230	 10.34991	 -1.42255	  3.16834	  4.54976	 -0.51216	 10.91355	709.56000	 36.70	
 18.703	-10.559	  9.00788	 10.29273	 -1.37586	  2.64016	  5.12172	 -0.50742	 10.95430	709.58698	 36.60	
 18.691	-15.915	  8.97868	 10.11082	 -1.27487	  2.11875	  5.67196	 -0.50923	 10.91870	709.52802	 36.60	
 18.706	-21.182	  8.97978	  9.92224	 -1.14902	  1.63853	  6.21633	 -0.49968	 10.92754	709.46100	 36.60	
 18.695	-26.463	  8.97405	  9.65815	 -0.97823	  1.17700	  6.76005	 -0.49154	 10.92213	709.56097	 36.60	
 18.704	-31.745	  8.94523	  9.33175	 -0.77775	  0.75668	  7.25144	 -0.48659	 10.89223	709.61200	 36.60	
 18.698	-37.048	  8.94471	  8.98147	 -0.53972	  0.35790	  7.75659	 -0.47826	 10.90022	709.65302	 36.60	
 18.699	-42.375	  8.94833	  8.59467	 -0.26230	 -0.00735	  8.23739	 -0.46173	 10.91517	709.53699	 36.70	
 18.705	-47.657	  8.93545	  8.15397	  0.04839	 -0.32554	  8.65604	 -0.44173	 10.90816	709.53101	 36.70	
 18.713	-52.933	  8.94729	  7.68217	  0.41434	 -0.59954	  9.06259	 -0.41822	 10.92726	709.61798	 36.70	
 18.700	-58.206	  8.93764	  7.18934	  0.80277	 -0.83558	  9.40538	 -0.39820	 10.92318	709.60101	 36.70	
 18.698	-63.496	  8.93062	  6.66813	  1.22640	 -1.03800	  9.69796	 -0.38059	 10.92384	709.51501	 36.70	
 18.707	-68.835	  8.91156	  6.10826	  1.68969	 -1.20192	  9.93847	 -0.37739	 10.91233	709.58801	 36.70	
 18.690	-74.137	  8.91660	  5.55682	  2.18867	 -1.32215	 10.13561	 -0.38229	 10.92255	709.59497	 36.70	
 18.696	-79.417	  8.90895	  5.00539	  2.68924	 -1.41847	 10.27902	 -0.39032	 10.93069	709.57703	 36.70	
 18.700	-84.691	  8.91841	  4.46206	  3.22207	 -1.47009	 10.38000	 -0.40796	 10.94698	709.66901	 36.70	
 18.700	-90.000	  8.90070	  3.89889	  3.77009	 -1.48074	 10.39345	 -0.41634	 10.93028	709.56897	 36.70	
 18.700	-95.309	  8.90418	  3.35352	  4.33585	 -1.45828	 10.38060	 -0.43857	 10.93645	709.51202	 36.70	
 18.696	-100.583	  8.90852	  2.82777	  4.90516	 -1.40756	 10.31883	 -0.46188	 10.94485	709.56897	 36.70	
 18.690	-105.863	  8.92540	  2.33175	  5.47990	 -1.29000	 10.18930	 -0.48260	 10.95071	709.54401	 36.60	
 18.707	-111.165	  8.91724	  1.85315	  6.02785	 -1.16301	 10.00348	 -0.49400	 10.93862	709.48199	 36.50	
 18.698	-116.504	  8.93655	  1.39125	  6.59120	 -0.98697	  9.77979	 -0.49851	 10.95548	709.46600	 36.50	
 18.700	-121.794	  8.93065	  0.96775	  7.11421	 -0.76850	  9.47412	 -0.51745	 10.93508	709.45099	 36.50	
 18.713	-127.067	  8.90947	  0.57089	  7.59919	 -0.51633	  9.11371	 -0.51923	 10.90048	709.40399	 36.50	
 18.705	-132.343	  8.92785	  0.22159	  8.07931	 -0.21053	  8.73107	 -0.52374	 10.90725	709.36401	 36.50	
 18.699	-137.625	  8.93703	 -0.09657	  8.51562	  0.12264	  8.30497	 -0.51388	 10.90535	709.46698	 36.50	
 18.698	-142.952	  8.94962	 -0.36869	  8.91212	  0.50539	  7.83353	 -0.49993	 10.89864	709.38300	 36.50	
 18.704	-148.255	  8.97034	 -0.59942	  9.26106	  0.90481	  7.35278	 -0.48744	 10.90202	709.49902	 36.60	
 18.695	-153.537	  8.98623	 -0.80520	  9.57503	  1.34797	  6.83425	 -0.47726	 10.90756	709.53302	 36.60	
 18.706	-158.818	  9.00540	 -0.96823	  9.83327	  1.82270	  6.29398	 -0.47027	 10.91317	709.46100	 36.60	
 18.691	-164.085	  9.04148	 -1.08667	 10.04416	  2.32274	  5.75616	 -0.47155	 10.93392	709.48798	 36.60	
 18.703	-169.441	  9.03584	 -1.17398	 10.17060	  2.84616	  5.17854	 -0.47259	 10.91265	709.53101	 36.70	
 18.709	-174.675	  9.06117	 -1.22569	 10.27959	  3.38558	  4.62336	 -0.47891	 10.93581	709.48999	 36.70	
 18.700	180.000	  9.06875	 -1.22522	 10.29749	  3.94766	  4.05596	 -0.48491	 10.92230	709.58502	 36.60	
 20.400	180.000	  8.67227	 -1.81030	 10.49993	  3.65438	  3.74880	 -0.45102	 10.91440	709.45599	 36.60	
 20.401	-175.153	  8.67302	 -1.80402	 10.48444	  3.11459	  4.30844	 -0.44245	 10.92787	709.54797	 36.60	
 20.407	-170.264	  8.68210	 -1.78625	 10.44762	  2.57451	  4.88005	 -0.43304	 10.96576	709.54700	 36.70	
 20.410	-165.423	  8.65489	 -1.70982	 10.30460	  2.05751	  5.42467	 -0.43267	 10.94724	709.61798	 36.60	
 20.392	-160.496	  8.63125	 -1.60655	 10.10996	  1.55337	  5.98529	 -0.42745	 10.93763	709.52802	 36.60	
 20.401	-155.705	  8.61606	 -1.46981	  9.88141	  1.08184	  6.52901	 -0.43323	 10.93884	709.52899	 36.60	
 20.405	-150.835	  8.58348	 -1.29236	  9.58602	  0.63711	  7.03972	 -0.43203	 10.91692	709.45801	 36.50	
 20.397	-145.903	  8.57065	 -1.08568	  9.26138	  0.22159	  7.55702	 -0.46443	 10.92089	709.42401	 36.50	
 20.392	-141.062	  8.54939	 -0.83262	  8.87548	 -0.16539	  8.03577	 -0.48609	 10.91077	709.51501	 36.50	
 20.396	-136.227	  8.53178	 -0.57033	  8.47530	 -0.50618	  8.46926	 -0.51453	 10.91003	709.38599	 36.50	
 20.408	-131.372	  8.54618	 -0.26576	  8.05890	 -0.82518	  8.91044	 -0.52248	 10.94473	709.42401	 36.60	
 20.410	-126.511	  8.51999	  0.09005	  7.55241	 -1.10514	  9.27295	 -0.52520	 10.92191	709.48999	 36.60	
 20.400	-121.604	  8.51753	  0.46332	  7.05428	 -1.35078	  9.61681	 -0.51466	 10.93499	709.38300	 36.60	
 20.403	-116.741	  8.49045	  0.88009	  6.50410	 -1.55400	  9.88409	 -0.49857	 10.90917	709.35303	 36.60	
 20.413	-111.900	  8.48097	  1.30338	  5.96957	 -1.72154	 10.11707	 -0.47529	 10.90993	709.50098	 36.60	
 20.398	-107.004	  8.48141	  1.77855	  5.40855	 -1.86244	 10.30973	 -0.46911	 10.91502	709.45300	 36.60	
 20.394	-102.132	  8.47175	  2.25985	  4.85023	 -1.95807	 10.43598	 -0.43418	 10.90308	709.37000	 36.60	
 20.403	-97.332	  8.47253	  2.77194	  4.29220	 -2.02146	 10.51759	 -0.42154	 10.90255	709.45599	 36.70	
 20.392	-92.440	  8.49562	  3.29781	  3.74807	 -2.05593	 10.58494	 -0.39307	 10.93079	709.45300	 36.70	
 20.392	-87.560	  8.49644	  3.85182	  3.19192	 -2.06651	 10.58128	 -0.37566	 10.92874	709.38000	 36.80	
 20.403	-82.668	  8.50016	  4.40093	  2.64660	 -2.04570	 10.53696	 -0.36976	 10.93491	709.38501	 36.80	
 20.394	-77.868	  8.51551	  4.94353	  2.15339	 -1.98184	 10.44042	 -0.36911	 10.93587	709.39099	 36.80	
 20.398	-72.996	  8.51413	  5.49247	  1.65035	 -1.89588	 10.28514	 -0.35993	 10.92470	709.34003	 36.70	
 20.413	-68.100	  8.51809	  6.04757	  1.16852	 -1.78917	 10.09719	 -0.34838	 10.92970	709.39398	 36.70	
 20.403	-63.259	  8.51593	  6.57469	  0.72816	 -1.61835	  9.82698	 -0.36574	 10.91086	709.37201	 36.70	
 20.400	-58.396	  8.52011	  7.08982	  0.32203	 -1.41668	  9.51699	 -0.38284	 10.89697	709.43402	 36.70	
 20.410	-53.489	  8.51991	  7.59078	 -0.06098	 -1.18895	  9.16451	 -0.39371	 10.88635	709.40997	 36.70	
 20.408	-48.628	  8.53867	  8.08384	 -0.41991	 -0.93717	  8.80464	 -0.41671	 10.90808	709.36200	 36.80	
 20.396	-43.773	  8.56547	  8.54413	 -0.72663	 -0.63246	  8.40310	 -0.43842	 10.92852	709.35901	 36.80	
 20.392	-38.938	  8.55941	  8.91986	 -0.98253	 -0.29131	  7.94019	 -0.46850	 10.89976	709.41602	 36.80	
 20.397	-34.097	  8.58530	  9.31805	 -1.23703	  0.06350	  7.48337	 -0.46734	 10.93106	709.40399	 36.80	
 20.405	-29.165	  8.56132	  9.62530	 -1.45068	  0.46632	  6.93864	 -0.48574	 10.89821	709.43597	 36.90	
 20.401	-24.295	  8.56863	  9.90585	 -1.61913	  0.88726	  6.42469	 -0.50148	 10.90158	709.46600	 36.80	
 20.392	-19.504	  8.56239	 10.12140	 -1.76173	  1.33936	  5.88249	 -0.49803	 10.88664	709.31500	 36.90	
 20.410	-14.577	  8.59093	 10.32885	 -1.87112	  1.84160	  5.33641	 -0.50247	 10.91192	709.39398	 36.90	
 20.407	 -9.736	  8.60882	 10.46518	 -1.94758	  2.34830	  4.79419	 -0.50028	 10.92338	709.41803	 36.90	
 20.401	 -4.847	  8.62212	 10.56478	 -1.99917	  2.87549	  4.25226	 -0.51040	 10.93830	709.45099	 36.90	
 20.400	  0.000	  8.59596	 10.56873	 -2.00776	  3.40596	  3.69270	 -0.49363	 10.90447	709.46100	 36.90	
 20.401	  4.847	  8.61219	 10.58012	 -2.00037	  3.95738	  3.16342	 -0.49831	 10.92501	709.45001	 36.90	
 20.407	  9.736	  8.62345	 10.53738	 -1.96274	  4.52483	  2.64413	 -0.50062	 10.93953	709.45898	 36.90	
 20.410	 14.577	  8.62713	 10.43168	 -1.88111	  5.07527	  2.15080	 -0.50606	 10.93506	709.36902	 36.90	
 20.392	 19.504	  8.61076	 10.24789	 -1.76320	  5.63439	  1.65528	 -0.51478	 10.90330	709.33502	 36.90	
 20.401	 24.295	  8.61319	 10.04683	 -1.61342	  6.17567	  1.20316	 -0.52040	 10.89651	709.31598	 36.80	
 20.405	 29.165	  8.64370	  9.82863	 -1.44192	  6.72750	  0.77609	 -0.54090	 10.92562	709.31201	 36.90	
 20.397	 34.097	  8.66306	  9.51954	 -1.20989	  7.26782	  0.37450	 -0.57716	 10.92447	709.32898	 36.90	
 20.392	 38.938	  8.67443	  9.18706	 -0.96635	  7.76011	  0.00677	 -0.58400	 10.93156	709.37701	 36.90	
 20.396	 43.773	  8.67470	  8.80379	 -0.68178	  8.21521	 -0.32180	 -0.58471	 10.91801	709.29102	 36.90	
 20.408	 48.628	  8.68742	  8.38999	 -0.37842	  8.67038	 -0.63691	 -0.59313	 10.93721	709.25098	 36.90	
 20.410	 53.489	  8.68212	  7.92272	 -0.02328	  9.04566	 -0.89709	 -0.59644	 10.91360	709.28900	 36.90	
 20.400	 58.396	  8.68252	  7.41959	  0.36753	  9.39441	 -1.13304	 -0.59799	 10.90462	709.22601	 36.90	
 20.403	 63.259	  8.71381	  6.92873	  0.78041	  9.72689	 -1.32744	 -0.58519	 10.93338	709.28802	 36.80	
 20.413	 68.100	  8.71516	  6.40362	  1.21678	  9.98622	 -1.49695	 -0.56702	 10.93289	709.27197	 36.80	
 20.398	 72.996	  8.70717	  5.85126	  1.68850	 10.18060	 -1.61512	 -0.54416	 10.91435	709.23999	 36.80	
 20.394	 77.868	  8.72944	  5.30449	  2.19873	 10.35316	 -1.71391	 -0.50595	 10.93247	709.30798	 36.80	
 20.403	 82.668	  8.72408	  4.75223	  2.70985	 10.45239	 -1.77882	 -0.47489	 10.92428	709.29602	 36.80	
 20.392	 87.560	  8.71388	  4.17692	  3.24864	 10.50605	 -1.81170	 -0.46152	 10.91617	709.30701	 36.80	
 20.392	 92.440	  8.71296	  3.64110	  3.78615	 10.51260	 -1.80370	 -0.43555	 10.91266	709.28302	 36.90	
 20.403	 97.332	  8.72184	  3.10150	  4.35370	 10.49192	 -1.77835	 -0.43496	 10.92534	709.31299	 36.90	
 20.394	102.132	  8.71844	  2.58260	  4.91555	 10.40220	 -1.71219	 -0.44022	 10.92010	709.34302	 36.90	
 20.398	107.004	  8.72510	  2.09297	  5.47274	 10.27441	 -1.61297	 -0.44862	 10.92577	709.32703	 36.90	
 20.413	111.900	  8.72096	  1.59874	  6.03917	 10.08224	 -1.48248	 -0.45303	 10.91984	709.21503	 36.90	
 20.403	116.741	  8.71246	  1.15310	  6.57217	  9.83521	 -1.31678	 -0.48173	 10.90728	709.32397	 36.90	
 20.400	121.604	  8.72202	  0.72214	  7.11018	  9.55310	 -1.11583	 -0.48936	 10.91377	709.31201	 36.90	
 20.410	126.511	  8.72458	  0.31510	  7.61934	  9.23133	 -0.89405	 -0.49966	 10.92513	709.25403	 36.90	
 20.408	131.372	  8.70833	 -0.06499	  8.09876	  8.83584	 -0.63094	 -0.51227	 10.91024	709.25098	 36.90	
 20.396	136.227	  8.71678	 -0.38078	  8.53557	  8.41809	 -0.31323	 -0.52733	 10.90853	709.33698	 37.00	
 20.392	141.062	  8.71570	 -0.65991	  8.92779	  7.95994	  0.02741	 -0.53254	 10.89503	709.33099	 37.00	
 20.397	145.903	  8.71851	 -0.91538	  9.28975	  7.48197	  0.39331	 -0.52513	 10.89370	709.22601	 37.00	
 20.405	150.835	  8.71257	 -1.16111	  9.62484	  6.97130	  0.78642	 -0.51554	 10.90705	709.18701	 37.10	
 20.401	155.705	  8.68590	 -1.34661	  9.86955	  6.41526	  1.22742	 -0.49915	 10.87168	709.23798	 37.10	
 20.392	160.496	  8.69858	 -1.50335	 10.10865	  5.89467	  1.68093	 -0.48933	 10.89593	709.21503	 37.20	
 20.410	165.423	  8.67752	 -1.63123	 10.26622	  5.32590	  2.16479	 -0.48502	 10.88091	709.28900	 37.20	
 20.407	170.264	  8.65067	 -1.72111	 10.36399	  4.75665	  2.65997	 -0.47291	 10.85821	709.24799	 37.20	
 20.401	175.153	  8.64009	 -1.77806	 10.43043	  4.18950	  3.18983	 -0.46664	 10.85760	709.16803	 37.30	
  0.141	 45.000	 10.90819	  5.79189	  5.53892	  5.59201	  5.73241	  0.08939	 10.86691	709.16803	 37.30	
  4.001	128.691	 10.86942	  4.88273	  6.27658	  6.49483	  4.69440	  0.04015	 10.86874	709.17798	 37.40	
  4.002	 76.995	 10.86900	  5.97713	  5.15462	  6.74770	  4.45738	  0.04448	 10.87308	709.21100	 37.40	
  4.002	 25.892	 10.86486	  6.87882	  4.31001	  5.99946	  5.09807	  0.03584	 10.87471	709.28601	 37.50	
  4.002	-25.892	 10.87256	  6.84968	  4.31964	  4.86067	  6.23263	  0.03035	 10.88585	709.27502	 37.50	
  4.002	-76.995	 10.85023	  5.91359	  5.14812	  4.19896	  6.96138	  0.02496	 10.87419	709.28900	 37.50	
  4.001	-128.691	 10.87027	  4.84156	  6.28496	  4.47671	  6.70487	  0.02531	 10.88756	709.21802	 37.50	
  4.000	180.000	 10.87896	  4.42218	  6.78796	  5.45969	  5.68637	  0.03199	 10.88689	709.26202	 37.50	
  8.000	180.000	 10.68790	  2.88735	  8.00704	  5.23717	  5.43425	 -0.11266	 10.90430	709.28601	 37.50	
  7.991	-152.370	 10.68865	  3.12668	  7.68134	  4.00213	  6.71607	 -0.13281	 10.92822	709.26703	 37.50	
  7.997	-124.550	 10.66460	  3.87703	  6.77163	  3.08373	  7.72150	 -0.13303	 10.92330	709.29401	 37.40	
  8.006	-96.837	 10.65050	  5.03288	  5.51138	  2.64943	  8.19625	 -0.14731	 10.92068	709.31201	 37.40	
  7.988	-69.228	 10.63838	  6.31075	  4.24374	  2.77483	  8.00534	 -0.17089	 10.90763	709.22998	 37.30	
  7.997	-41.563	 10.62656	  7.41045	  3.25135	  3.42958	  7.21034	 -0.13610	 10.88915	709.23401	 37.30	
  8.008	-13.821	 10.62452	  8.07352	  2.70708	  4.50532	  6.02809	 -0.13847	 10.88671	709.25098	 37.20	
  8.008	 13.821	 10.62404	  8.10661	  2.70216	  5.80025	  4.74491	 -0.12023	 10.88020	709.26398	 37.30	
  7.997	 41.563	 10.67610	  7.52809	  3.25813	  7.02329	  3.68795	 -0.10528	 10.91673	709.25098	 37.30	
  7.988	 69.228	 10.70577	  6.45169	  4.27039	  7.82517	  3.05527	 -0.11623	 10.92486	709.28302	 37.30	
  8.006	 96.837	 10.72267	  5.17939	  5.54083	  8.02458	  2.93614	 -0.12153	 10.93181	709.23798	 37.20	
  7.997	124.550	 10.71409	  4.01072	  6.78033	  7.54098	  3.34915	 -0.11238	 10.91473	709.29700	 37.20	
  7.991	152.370	 10.71991	  3.21288	  7.68957	  6.52887	  4.24210	 -0.10382	 10.91784	709.27502	 37.10	
 12.009	161.059	 10.26019	  1.51919	  8.79902	  6.19702	  3.76661	 -0.31578	 10.89241	709.19501	 37.10	
 12.013	142.081	 10.27793	  2.08139	  8.14595	  7.43726	  2.67996	 -0.29743	 10.90511	709.25098	 37.10	
 12.006	123.113	 10.30315	  2.99368	  7.11096	  8.42170	  1.87808	 -0.32585	 10.94028	709.28900	 37.10	
 12.007	104.200	 10.31997	  4.16544	  5.84598	  8.97148	  1.44589	 -0.35132	 10.95240	709.25598	 37.10	
 11.989	 85.301	 10.29501	  5.45575	  4.49624	  9.05436	  1.33255	 -0.34995	 10.93161	709.21600	 37.00	
 12.013	 66.294	 10.24875	  6.75188	  3.22396	  8.65142	  1.59402	 -0.31655	 10.89610	709.24597	 37.00	
 12.012	 47.388	 10.24106	  7.90463	  2.19879	  7.84998	  2.22254	 -0.29339	 10.90575	709.23798	 37.00	
 11.990	 28.440	 10.24278	  8.74544	  1.48947	  6.73412	  3.17009	 -0.33414	 10.92615	709.28802	 37.00	
 11.991	  9.464	 10.23250	  9.17702	  1.11958	  5.42658	  4.35875	 -0.32936	 10.93335	709.19202	 37.00	
 11.991	 -9.464	 10.20351	  9.12765	  1.10941	  4.08755	  5.65629	 -0.33791	 10.91390	709.16803	 37.00	
 11.990	-28.440	 10.18678	  8.63615	  1.46491	  2.87188	  6.94710	 -0.32693	 10.90947	709.21802	 37.00	
 12.012	-47.388	 10.15247	  7.73488	  2.15693	  1.91101	  8.04085	 -0.35345	 10.88943	709.13800	 37.00	
 12.013	-66.294	 10.14505	  6.55192	  3.18611	  1.28532	  8.81523	 -0.38170	 10.89288	709.15100	 37.00	
 11.989	-85.301	 10.13732	  5.23092	  4.42410	  1.02253	  9.17589	 -0.38577	 10.89894	709.27301	 37.00	
 12.007	-104.200	 10.13010	  3.94206	  5.73924	  1.12034	  9.07031	 -0.35975	 10.89102	709.26501	 37.00	
 12.006	-123.113	 10.14672	  2.81139	  7.01875	  1.61126	  8.50868	 -0.33130	 10.88540	709.26703	 37.10	
 12.013	-142.081	 10.20957	  1.96866	  8.10665	  2.45029	  7.58942	 -0.33687	 10.92107	709.20697	 37.10	
 12.009	-161.059	 10.24003	  1.45650	  8.79971	  3.57279	  6.37134	 -0.36239	 10.91746	709.14899	 37.10	
 16.000	180.000	  9.63106	 -0.25010	  9.88139	  4.36270	  4.50928	 -0.49612	 10.93541	709.29700	 37.10	
 15.990	-165.604	  9.58138	 -0.16302	  9.68436	  3.06171	  5.80815	 -0.50640	 10.91854	709.19202	 37.00	
 16.002	-151.165	  9.55770	  0.19915	  9.15376	  1.87406	  7.11836	 -0.50425	 10.93080	709.15100	 37.00	
 16.002	-136.836	  9.51921	  0.83123	  8.28062	  0.91322	  8.24583	 -0.48276	 10.91804	709.17499	 37.00	
 15.995	-122.439	  9.48638	  1.69777	  7.16187	  0.17580	  9.13098	 -0.47509	 10.90905	709.21503	 37.00	
 15.993	-107.966	  9.46542	  2.77269	  5.88239	 -0.29477	  9.71653	 -0.48575	 10.90698	709.10199	 37.00	
 16.005	-93.629	  9.44184	  4.00396	  4.52915	 -0.51528	  9.95385	 -0.46412	 10.89085	709.09100	 37.00	
 15.992	-79.234	  9.47752	  5.33058	  3.24446	 -0.45117	  9.87331	 -0.46240	 10.91460	709.17798	 37.10	
 16.009	-64.774	  9.48120	  6.64059	  2.05226	 -0.15098	  9.42942	 -0.45588	 10.90430	709.13000	 37.10	
 15.997	-50.364	  9.49221	  7.82625	  1.06744	  0.42715	  8.65784	 -0.46121	 10.89812	709.17200	 37.10	
 15.997	-36.045	  9.51197	  8.83036	  0.31305	  1.24348	  7.63884	 -0.46523	 10.91051	709.13702	 37.10	
 16.000	-21.597	  9.53071	  9.54718	 -0.18999	  2.29353	  6.41817	 -0.48185	 10.91409	709.09100	 37.10	
 16.003	 -7.169	  9.53768	  9.91806	 -0.43875	  3.51960	  5.10179	 -0.49172	 10.91203	709.07300	 37.10	
 16.003	  7.169	  9.56107	  9.95798	 -0.43412	  4.84600	  3.80352	 -0.51029	 10.92134	709.11401	 37.10	
 16.000	 21.597	  9.55368	  9.63692	 -0.19524	  6.16927	  2.57962	 -0.54264	 10.90862	709.08099	 37.20	
 15.997	 36.045	  9.56899	  8.98913	  0.32891	  7.42166	  1.53417	 -0.51317	 10.90261	709.09698	 37.20	
 15.997	 50.364	  9.56796	  8.03838	  1.09629	  8.45895	  0.72647	 -0.47611	 10.87181	709.14502	 37.20	
 16.009	 64.774	  9.60833	  6.90311	  2.09130	  9.27950	  0.15133	 -0.48087	 10.89997	709.16803	 37.20	
 15.992	 79.234	  9.62753	  5.60965	  3.27891	  9.75794	 -0.16818	 -0.50598	 10.91042	709.14502	 37.20	
 16.005	 93.629	  9.64824	  4.29300	  4.59826	  9.88654	 -0.22642	 -0.50079	 10.92499	709.10999	 37.20	
 15.993	107.966	  9.62306	  3.02261	  5.92386	  9.62211	 -0.02836	 -0.50341	 10.89542	709.11798	 37.20	
 15.995	122.439	  9.64256	  1.90270	  7.21721	  9.04801	  0.42678	 -0.49236	 10.91141	709.05701	 37.20	
 16.002	136.836	  9.64336	  0.99234	  8.32376	  8.14125	  1.13606	 -0.46968	 10.90662	709.11798	 37.20	
 16.002	151.165	  9.63949	  0.33290	  9.16400	  6.99476	  2.08559	 -0.47272	 10.90012	709.06500	 37.20	
 15.990	165.604	  9.60895	 -0.08647	  9.66811	  5.69108	  3.21777	 -0.48948	 10.88245	709.11902	 37.30	
 20.003	168.362	  8.77067	 -1.55496	 10.30345	  5.03666	  2.55740	 -0.49677	 10.88797	709.09802	 37.30	
 20.008	156.764	  8.79279	 -1.25953	  9.91273	  6.32942	  1.44123	 -0.50959	 10.89396	709.06299	 37.30	
 20.000	145.147	  8.79703	 -0.77474	  9.21657	  7.55174	  0.44453	 -0.52649	 10.89615	709.07300	 37.30	
 19.995	133.545	  8.79105	 -0.07483	  8.26646	  8.62012	 -0.35741	 -0.53588	 10.88384	709.04102	 37.30	
 20.009	121.926	  8.78809	  0.79477	  7.14470	  9.48261	 -0.97004	 -0.49335	 10.89229	709.16998	 37.30	
 20.005	110.327	  8.78838	  1.84087	  5.88398	 10.08109	 -1.39449	 -0.45558	 10.89340	709.00500	 37.40	
 19.989	 98.733	  8.79897	  3.01173	  4.58029	 10.40393	 -1.61421	 -0.43701	 10.90298	709.05402	 37.30	
 19.999	 87.075	  8.80708	  4.28976	  3.27768	 10.45700	 -1.66799	 -0.46405	 10.91501	709.07300	 37.30	
 19.992	 75.457	  8.78941	  5.58692	  2.04554	 10.21290	 -1.54035	 -0.53466	 10.89808	709.11401	 37.30	
 20.009	 63.844	  8.78107	  6.86972	  0.94640	  9.70216	 -1.20876	 -0.56749	 10.90329	709.09497	 37.30	
 19.989	 52.269	  8.75997	  8.01719	  0.01891	  8.90418	 -0.68190	 -0.58797	 10.88590	709.05902	 37.30	
 19.999	 40.602	  8.75503	  9.02211	 -0.73414	  7.91067	  0.01209	 -0.57771	 10.90569	709.00500	 37.30	
 20.004	 29.051	  8.73288	  9.78739	 -1.29793	  6.73813	  0.90455	 -0.53233	 10.91020	709.05603	 37.30	
 20.005	 17.433	  8.71636	 10.28542	 -1.66370	  5.44479	  1.96477	 -0.52739	 10.90754	709.05402	 37.30	
 20.006	  5.780	  8.68270	 10.49224	 -1.84413	  4.12186	  3.14506	 -0.50149	 10.88113	709.09698	 37.30	
 20.006	 -5.780	  8.68116	 10.46755	 -1.84329	  2.84594	  4.40857	 -0.50912	 10.88932	709.03998	 37.30	
 20.005	-17.433	  8.66260	 10.16712	 -1.67995	  1.65575	  5.67851	 -0.52240	 10.88522	709.10498	 37.30	
 20.004	-29.051	  8.65894	  9.60101	 -1.31448	  0.59770	  6.94196	 -0.49955	 10.89805	709.10199	 37.30	
 19.999	-40.602	  8.63980	  8.77072	 -0.77018	 -0.29170	  8.08323	 -0.46428	 10.89188	709.03998	 37.30	
 19.989	-52.269	  8.61728	  7.71786	 -0.02501	 -0.99158	  9.05409	 -0.40825	 10.88545	709.07001	 37.40	
 20.009	-63.844	  8.57190	  6.51691	  0.88295	 -1.50122	  9.78990	 -0.36169	 10.86857	709.09497	 37.40	
 19.992	-75.457	  8.56156	  5.24476	  1.98086	 -1.79914	 10.27100	 -0.37315	 10.87006	709.09802	 37.40	
 19.999	-87.075	  8.55188	  3.95467	  3.20431	 -1.90484	 10.47240	 -0.39379	 10.86720	709.12903	 37.40	
 19.989	-98.733	  8.55381	  2.70594	  4.50330	 -1.85751	 10.43078	 -0.43630	 10.87766	709.09399	 37.50	
 20.005	-110.327	  8.56312	  1.56583	  5.81229	 -1.63274	 10.12117	 -0.48830	 10.88464	709.15100	 37.50	
 20.009	-121.926	  8.57967	  0.56235	  7.06329	 -1.19196	  9.52765	 -0.50913	 10.88477	709.04102	 37.60	
 19.995	-133.545	  8.61557	 -0.25720	  8.20353	 -0.54779	  8.68007	 -0.52575	 10.88927	709.12201	 37.60	
 20.000	-145.147	  8.65489	 -0.89478	  9.15446	  0.29172	  7.62002	 -0.47716	 10.89231	709.03497	 37.60	
 20.008	-156.764	  8.66951	 -1.35762	  9.84895	  1.28261	  6.40083	 -0.43425	 10.87961	709.10498	 37.60	
 20.003	-168.362	  8.70890	 -1.59558	 10.27275	  2.45288	  5.11347	 -0.44169	 10.87790	709.07800	 37.60	
 20.000	180.000	  8.74037	 -1.66980	 10.42464	  3.71182	  3.81128	 -0.45378	 10.88140	709.11102	 37.60	
