FileType=PCF
NHL=14
Date=08/29/17	14:10:52
Facility=APL
Serial=16328-15
Customer=NASA
NP=6
Mach=0.200000
Calibration=1:1
CalPts=490
TstPts=95
PortNumbering=AP Standard
Units=Torr C m/s kg/m^3 deg mm 
Theta[deg]	Phi[deg]	P1[Torr]	P2[Torr]	P3[Torr]	P4[Torr]	P5[Torr]	P6[Torr]	Pt[Torr]	Ps[Abs,Torr]	Ts[C]	
  0.000	  0.000	 19.55715	 10.35647	 10.06794	 10.12660	 10.39931	  0.15921	 19.53421	704.11499	 22.90	
  1.691	128.401	 19.53565	  9.72294	 10.64156	 10.86718	  9.60100	  0.15827	 19.51233	704.12903	 22.90	
  1.692	 77.194	 19.55770	 10.56379	  9.81985	 11.06993	  9.41508	  0.15433	 19.52911	704.10400	 22.90	
  1.699	 26.182	 19.56511	 11.24259	  9.16093	 10.53357	  9.92668	  0.13842	 19.53814	704.15503	 22.90	
  1.699	-26.182	 19.58070	 11.24347	  9.17899	  9.67307	 10.81679	  0.13837	 19.56415	704.19897	 22.90	
  1.692	-77.194	 19.55324	 10.54737	  9.83139	  9.15797	 11.34157	  0.13237	 19.54319	704.20599	 22.90	
  1.691	-128.401	 19.56479	  9.73143	 10.66816	  9.35006	 11.16601	  0.13821	 19.54555	704.13000	 22.90	
  1.700	180.000	 19.56936	  9.37113	 11.05626	 10.11274	 10.39228	  0.15364	 19.55034	704.21600	 22.90	
  3.400	180.000	 19.52661	  8.33583	 12.02194	 10.01678	 10.31001	  0.11131	 19.54380	704.14899	 23.00	
  3.388	-152.325	 19.50103	  8.51942	 11.76248	  9.10252	 11.24067	  0.11063	 19.54084	704.24701	 23.00	
  3.397	-124.529	 19.51941	  9.08588	 11.10323	  8.41977	 11.97350	  0.09079	 19.56025	704.15997	 23.00	
  3.399	-96.763	 19.50887	  9.95540	 10.16954	  8.08051	 12.32879	  0.07000	 19.55479	704.18799	 22.90	
  3.394	-69.283	 19.50733	 10.91962	  9.20973	  8.16494	 12.18301	  0.06244	 19.53901	704.23401	 23.00	
  3.400	-41.398	 19.51179	 11.76433	  8.42841	  8.66864	 11.59888	  0.06603	 19.53370	704.26202	 23.00	
  3.401	-14.021	 19.53568	 12.24504	  8.03245	  9.46702	 10.74272	  0.08004	 19.54757	704.20203	 23.00	
  3.401	 14.021	 19.54593	 12.25681	  8.04305	 10.45035	  9.76866	  0.10390	 19.53900	704.07501	 23.00	
  3.400	 41.398	 19.54028	 11.78711	  8.44722	 11.30828	  8.95419	  0.11046	 19.51945	704.17200	 23.00	
  3.394	 69.283	 19.54964	 10.97116	  9.23827	 11.90547	  8.47882	  0.11634	 19.53138	704.24103	 22.90	
  3.399	 96.763	 19.55857	 10.01887	 10.19599	 12.02537	  8.40885	  0.11801	 19.55163	704.21698	 22.90	
  3.397	124.529	 19.55909	  9.17851	 11.10089	 11.69565	  8.72324	  0.12451	 19.54973	704.15503	 22.90	
  3.388	152.325	 19.54354	  8.57950	 11.76305	 10.96680	  9.40242	  0.11744	 19.55283	704.18500	 22.90	
  5.099	161.165	 19.44546	  7.34766	 12.78577	 10.86785	  9.16312	  0.02879	 19.55390	704.21399	 22.90	
  5.109	142.013	 19.48046	  7.79622	 12.28179	 11.79470	  8.31523	  0.03001	 19.55795	704.17102	 22.90	
  5.095	123.033	 19.48400	  8.49250	 11.47411	 12.48087	  7.69639	  0.02631	 19.53915	704.16498	 22.90	
  5.105	104.191	 19.49051	  9.36798	 10.51584	 12.91380	  7.31007	  0.01776	 19.53432	704.21899	 22.90	
  5.093	 85.207	 19.49531	 10.37962	  9.48759	 12.98300	  7.22636	  0.02220	 19.54088	704.60797	 22.90	
  5.104	 66.290	 19.50924	 11.38158	  8.54053	 12.72363	  7.42604	  0.02763	 19.55404	704.14099	 22.90	
  5.094	 47.331	 19.48897	 12.24105	  7.72547	 12.11784	  7.90611	  0.01764	 19.52973	704.22498	 22.90	
  5.089	 28.397	 19.46909	 12.87799	  7.14732	 11.28499	  8.64317	  0.00023	 19.52411	704.23297	 22.90	
  5.096	  9.576	 19.45539	 13.22226	  6.84098	 10.30619	  9.57265	 -0.00555	 19.52880	704.14099	 22.90	
  5.096	 -9.576	 19.44527	 13.21720	  6.84501	  9.27634	 10.61553	 -0.01734	 19.53872	704.43597	 22.90	
  5.089	-28.397	 19.42321	 12.85488	  7.14851	  8.36194	 11.58127	 -0.02156	 19.53626	704.51398	 22.90	
  5.094	-47.331	 19.43684	 12.21305	  7.73805	  7.61975	 12.44673	 -0.03756	 19.57191	705.91302	 22.90	
  5.104	-66.290	 19.38757	 11.30871	  8.54395	  7.09263	 13.03276	 -0.05045	 19.54701	704.35699	 22.90	
  5.093	-85.207	 19.37080	 10.29569	  9.51096	  6.87838	 13.29599	 -0.04545	 19.54686	705.47198	 22.90	
  5.105	-104.191	 19.35375	  9.28250	 10.53382	  6.95003	 13.22196	 -0.02855	 19.53835	705.92200	 22.90	
  5.095	-123.033	 19.34466	  8.38730	 11.48763	  7.33675	 12.77608	 -0.01075	 19.53199	704.23901	 22.90	
  5.109	-142.013	 19.38868	  7.72185	 12.29458	  8.00366	 12.08463	  0.00394	 19.56360	704.35498	 22.90	
  5.099	-161.165	 19.39159	  7.30053	 12.78855	  8.86801	 11.14793	  0.01475	 19.54925	704.11798	 22.90	
  5.100	180.000	 19.41137	  7.17790	 12.95944	  9.84564	 10.14422	  0.02920	 19.54711	704.21002	 22.90	
  6.800	180.000	 19.24536	  5.99126	 13.89574	  9.66959	  9.96810	 -0.08863	 19.56918	704.17700	 22.90	
  6.796	-166.229	 19.19382	  6.07611	 13.75926	  8.69040	 10.94162	 -0.08996	 19.54757	704.17999	 22.90	
  6.808	-152.311	 19.18685	  6.37021	 13.40181	  7.79060	 11.91302	 -0.10304	 19.56088	704.17999	 22.90	
  6.795	-138.383	 19.13272	  6.86779	 12.77260	  6.98641	 12.74069	 -0.11306	 19.52501	704.25897	 22.90	
  6.792	-124.591	 19.15213	  7.56505	 12.00261	  6.37917	 13.45921	 -0.12794	 19.55385	704.15399	 22.90	
  6.787	-110.754	 19.13530	  8.39024	 11.08460	  5.94840	 13.91996	 -0.14639	 19.54078	704.66602	 22.90	
  6.800	-96.985	 19.12591	  9.32039	 10.08908	  5.72850	 14.15924	 -0.17405	 19.52656	705.74200	 22.90	
  6.800	-83.015	 19.15118	 10.33725	  9.08363	  5.72275	 14.16045	 -0.19144	 19.54187	704.16101	 22.90	
  6.787	-69.246	 19.19534	 11.33517	  8.14952	  5.94025	 13.92668	 -0.19951	 19.56284	704.04498	 22.90	
  6.792	-55.409	 19.19676	 12.23896	  7.29169	  6.33866	 13.42504	 -0.18769	 19.54400	705.72400	 22.90	
  6.795	-41.617	 19.24004	 13.04341	  6.59502	  6.95273	 12.73619	 -0.16482	 19.55954	704.06097	 22.90	
  6.808	-27.689	 19.22481	 13.63943	  6.05211	  7.71266	 11.84556	 -0.15935	 19.51658	704.05103	 22.90	
  6.796	-13.771	 19.27742	 14.03575	  5.74255	  8.62346	 10.89907	 -0.14075	 19.54475	704.24701	 22.90	
  6.800	  0.000	 19.31211	 14.18020	  5.63607	  9.60230	  9.91523	 -0.14021	 19.54858	703.97101	 22.90	
  6.796	 13.771	 19.32897	 14.06716	  5.73162	 10.59973	  8.93176	 -0.12792	 19.55708	704.03101	 22.90	
  6.808	 27.689	 19.34062	 13.70538	  6.03257	 11.56958	  8.01652	 -0.12072	 19.55111	704.06097	 22.90	
  6.795	 41.617	 19.32837	 13.09394	  6.55625	 12.40347	  7.24548	 -0.10180	 19.51434	705.83099	 22.90	
  6.792	 55.409	 19.37092	 12.35119	  7.26430	 13.13416	  6.65863	 -0.08804	 19.55416	704.03900	 22.90	
  6.787	 69.246	 19.39148	 11.45247	  8.11324	 13.63556	  6.26044	 -0.07892	 19.56863	704.04700	 22.90	
  6.800	 83.015	 19.36924	 10.46313	  9.04831	 13.88751	  6.04720	 -0.09674	 19.54869	704.14801	 22.90	
  6.800	 96.985	 19.33592	  9.44672	 10.04403	 13.88262	  6.04972	 -0.09653	 19.51894	704.16901	 22.90	
  6.787	110.754	 19.36107	  8.52180	 11.05677	 13.65492	  6.29140	 -0.09143	 19.55349	704.09198	 22.90	
  6.792	124.591	 19.31932	  7.66930	 11.95414	 13.16133	  6.69991	 -0.08973	 19.53069	704.20300	 22.90	
  6.795	138.383	 19.28497	  6.96901	 12.73222	 12.46173	  7.29897	 -0.07939	 19.51283	704.21899	 22.90	
  6.808	152.311	 19.25600	  6.42758	 13.35325	 11.62110	  8.06425	 -0.07116	 19.52698	704.13702	 22.90	
  6.796	166.229	 19.26231	  6.11009	 13.75393	 10.68184	  8.97821	 -0.08120	 19.55548	704.15997	 22.90	
  8.491	168.704	 18.96909	  4.89823	 14.60433	 10.47578	  8.70741	 -0.22662	 19.52607	704.24103	 22.90	
  8.502	157.493	 19.00797	  5.16344	 14.30803	 11.46397	  7.78429	 -0.19966	 19.53938	704.16803	 22.90	
  8.494	146.194	 19.05044	  5.60926	 13.79594	 12.39389	  6.94368	 -0.21147	 19.53863	704.21698	 22.90	
  8.495	135.039	 19.08236	  6.20292	 13.11578	 13.21113	  6.21696	 -0.22832	 19.53666	704.15399	 22.80	
  8.487	123.723	 19.12826	  6.95462	 12.28293	 13.89747	  5.63443	 -0.23486	 19.56443	704.27197	 22.90	
  8.492	112.575	 19.10606	  7.77825	 11.33417	 14.36059	  5.19821	 -0.23700	 19.51591	704.08099	 22.90	
  8.510	101.220	 19.15873	  8.74091	 10.34683	 14.69555	  4.93548	 -0.25496	 19.55722	704.25000	 22.90	
  8.500	 90.000	 19.15129	  9.72824	  9.31488	 14.76274	  4.84440	 -0.24832	 19.54422	704.21399	 22.90	
  8.510	 78.780	 19.16990	 10.75275	  8.31189	 14.66297	  4.92590	 -0.23156	 19.55427	704.17102	 22.90	
  8.492	 67.425	 19.16772	 11.74597	  7.36375	 14.32930	  5.18531	 -0.21483	 19.54950	704.13800	 22.90	
  8.487	 56.277	 19.15045	 12.64907	  6.52471	 13.81927	  5.58881	 -0.21800	 19.54288	704.07001	 22.90	
  8.495	 44.961	 19.13576	 13.46950	  5.77848	 13.12513	  6.16510	 -0.23785	 19.53321	704.20001	 22.90	
  8.494	 33.806	 19.10498	 14.11179	  5.20023	 12.29071	  6.87821	 -0.25605	 19.51927	704.22400	 22.90	
  8.502	 22.507	 19.09913	 14.62048	  4.77285	 11.36421	  7.72791	 -0.26846	 19.53378	704.11603	 22.90	
  8.491	 11.296	 19.06081	 14.89125	  4.52804	 10.36645	  8.64745	 -0.28650	 19.50991	704.03101	 22.90	
  8.500	  0.000	 19.04056	 14.99398	  4.44118	  9.34359	  9.66061	 -0.29114	 19.51634	704.03601	 22.90	
  8.491	-11.296	 19.01216	 14.86980	  4.53481	  8.34768	 10.67943	 -0.29217	 19.51324	704.17700	 22.80	
  8.502	-22.507	 19.00585	 14.56975	  4.79812	  7.42230	 11.67409	 -0.29001	 19.54059	704.23297	 22.80	
  8.494	-33.806	 18.99411	 14.06151	  5.23638	  6.57266	 12.62237	 -0.31078	 19.55822	704.19598	 22.80	
  8.495	-44.961	 18.96150	 13.37565	  5.81698	  5.85466	 13.43384	 -0.33174	 19.54282	704.12903	 22.80	
  8.487	-56.277	 18.93725	 12.54091	  6.57020	  5.29645	 14.09732	 -0.34753	 19.54150	704.12299	 22.80	
  8.492	-67.425	 18.90994	 11.62143	  7.40376	  4.87542	 14.59798	 -0.35772	 19.53976	704.21899	 22.80	
  8.510	-78.780	 18.89186	 10.61954	  8.35937	  4.61658	 14.92694	 -0.36841	 19.55796	704.24799	 22.80	
  8.500	-90.000	 18.85954	  9.59710	  9.35597	  4.53617	 15.02346	 -0.35062	 19.53605	704.13202	 22.80	
  8.510	-101.220	 18.85095	  8.59116	 10.37535	  4.61527	 14.93721	 -0.33344	 19.54106	704.05103	 22.80	
  8.492	-112.575	 18.84324	  7.64791	 11.38234	  4.89821	 14.61097	 -0.29344	 19.53663	704.09302	 22.80	
  8.487	-123.723	 18.87124	  6.82821	 12.31420	  5.33340	 14.14161	 -0.26456	 19.57340	704.20801	 22.90	
  8.495	-135.039	 18.84586	  6.09200	 13.11957	  5.89961	 13.45482	 -0.26578	 19.52882	704.13202	 22.80	
  8.494	-146.194	 18.86001	  5.52427	 13.79193	  6.63672	 12.63596	 -0.25952	 19.52079	704.21899	 22.90	
  8.502	-157.493	 18.87372	  5.11045	 14.30072	  7.49822	 11.69940	 -0.23617	 19.51214	704.24103	 22.90	
  8.491	-168.704	 18.92535	  4.88017	 14.61885	  8.44283	 10.73537	 -0.23685	 19.53083	704.16901	 22.90	
  8.500	180.000	 18.97789	  4.80324	 14.75198	  9.45808	  9.73483	 -0.24105	 19.56683	704.25098	 22.90	
 10.200	180.000	 18.61566	  3.60460	 15.52417	  9.17617	  9.44503	 -0.39228	 19.54873	704.15198	 22.80	
 10.191	-170.497	 18.59962	  3.66158	 15.45064	  8.16963	 10.46407	 -0.40405	 19.55936	704.11798	 22.90	
 10.210	-161.034	 18.55470	  3.85587	 15.18054	  7.20224	 11.45899	 -0.39324	 19.54051	704.08502	 22.90	
 10.194	-151.526	 18.54009	  4.20285	 14.73930	  6.30510	 12.44485	 -0.40090	 19.54677	705.15002	 22.90	
 10.190	-142.105	 18.51293	  4.68270	 14.14079	  5.49058	 13.32222	 -0.40436	 19.54452	704.22400	 22.90	
 10.215	-132.646	 18.46860	  5.27689	 13.39849	  4.79256	 14.08192	 -0.40162	 19.51465	704.25800	 22.80	
 10.203	-123.092	 18.47555	  6.02398	 12.55054	  4.22654	 14.75313	 -0.40689	 19.52632	704.24103	 22.90	
 10.192	-113.678	 18.49512	  6.87688	 11.62651	  3.79931	 15.27749	 -0.44536	 19.55505	704.26398	 22.80	
 10.208	-104.249	 18.47792	  7.78060	 10.62683	  3.48157	 15.62432	 -0.48833	 19.54233	704.18799	 22.90	
 10.210	-94.801	 18.47617	  8.75424	  9.59348	  3.32144	 15.79446	 -0.52158	 19.53377	704.26501	 22.80	
 10.210	-85.199	 18.49529	  9.79652	  8.55435	  3.31901	 15.79213	 -0.53615	 19.53093	704.28198	 22.90	
 10.208	-75.751	 18.51777	 10.82081	  7.56687	  3.45363	 15.60908	 -0.54497	 19.53482	704.30298	 22.90	
 10.192	-66.322	 18.54521	 11.81321	  6.64296	  3.75553	 15.24435	 -0.54922	 19.53301	704.18799	 22.80	
 10.203	-56.908	 18.58012	 12.76251	  5.78969	  4.17324	 14.74623	 -0.51600	 19.54299	704.26398	 22.80	
 10.215	-47.354	 18.59023	 13.60985	  5.02819	  4.72696	 14.06369	 -0.49741	 19.52424	704.25598	 22.80	
 10.190	-37.895	 18.63291	 14.34768	  4.41036	  5.40494	 13.28377	 -0.47394	 19.52462	704.21698	 22.80	
 10.194	-28.474	 18.68431	 14.96820	  3.90916	  6.19514	 12.41597	 -0.45384	 19.55857	704.20203	 22.80	
 10.210	-18.966	 18.71142	 15.42240	  3.53960	  7.09288	 11.43145	 -0.44925	 19.55875	705.36700	 22.80	
 10.191	 -9.503	 18.72524	 15.68294	  3.32982	  8.05078	 10.41391	 -0.45532	 19.54235	704.89099	 22.80	
 10.200	  0.000	 18.75235	 15.79482	  3.23731	  9.05018	  9.39059	 -0.45701	 19.54306	705.81799	 22.80	
 10.191	  9.503	 18.76198	 15.70792	  3.29983	 10.08022	  8.36308	 -0.45346	 19.53348	704.22699	 22.80	
 10.210	 18.966	 18.80402	 15.47731	  3.49937	 11.10030	  7.41180	 -0.43623	 19.54954	704.21399	 22.80	
 10.194	 28.474	 18.81870	 15.04458	  3.86684	 12.06442	  6.52996	 -0.42490	 19.54009	704.27802	 22.90	
 10.190	 37.895	 18.86390	 14.48489	  4.36685	 12.98850	  5.74207	 -0.40610	 19.56344	704.24799	 22.80	
 10.215	 47.354	 18.85188	 13.75917	  4.96751	 13.78721	  5.03332	 -0.38150	 19.54609	704.46899	 22.80	
 10.203	 56.908	 18.87608	 12.92608	  5.73060	 14.46137	  4.49732	 -0.35279	 19.55439	704.26703	 22.90	
 10.192	 66.322	 18.86807	 11.98821	  6.57679	 14.96427	  4.07849	 -0.34291	 19.53382	704.39697	 22.90	
 10.208	 75.751	 18.87201	 11.00440	  7.49882	 15.34122	  3.78318	 -0.37800	 19.54088	704.31799	 22.90	
 10.210	 85.199	 18.87456	  9.99198	  8.49607	 15.53985	  3.65217	 -0.40176	 19.54484	704.26202	 22.80	
 10.210	 94.801	 18.86884	  8.94953	  9.54320	 15.54357	  3.65796	 -0.42644	 19.53936	704.30902	 22.80	
 10.208	104.249	 18.86393	  7.97436	 10.58256	 15.38508	  3.82439	 -0.42310	 19.55157	704.38800	 22.80	
 10.192	113.678	 18.83356	  7.04784	 11.57905	 15.02970	  4.12252	 -0.40018	 19.53377	704.23297	 22.80	
 10.203	123.092	 18.83129	  6.19973	 12.52985	 14.55980	  4.54377	 -0.39427	 19.56258	705.78900	 22.80	
 10.215	132.646	 18.79003	  5.43315	 13.39536	 13.90288	  5.09504	 -0.37981	 19.54417	704.25000	 22.90	
 10.190	142.105	 18.75821	  4.80481	 14.12389	 13.10312	  5.79041	 -0.36735	 19.55231	704.35999	 22.80	
 10.194	151.526	 18.76262	  4.31099	 14.75867	 12.23231	  6.60794	 -0.35026	 19.59172	705.93799	 22.80	
 10.210	161.034	 18.66712	  3.92020	 15.15666	 11.22584	  7.46882	 -0.35194	 19.53066	705.34698	 22.90	
 10.191	170.497	 18.66846	  3.70304	 15.43499	 10.23306	  8.43204	 -0.38234	 19.55497	705.91400	 22.90	
 11.899	171.783	 18.22447	  2.47768	 16.16571	  9.90501	  8.09010	 -0.53813	 19.53051	704.30402	 22.90	
 11.890	163.610	 18.25089	  2.67134	 15.92883	 10.90782	  7.12934	 -0.51164	 19.52020	704.18298	 22.90	
 11.889	155.445	 18.28195	  2.98769	 15.54667	 11.89913	  6.21860	 -0.49342	 19.52494	703.99103	 22.90	
 11.909	147.299	 18.34089	  3.41704	 15.04535	 12.86553	  5.37032	 -0.50599	 19.55302	704.11298	 22.90	
 11.902	139.148	 18.39017	  3.97518	 14.39107	 13.73309	  4.63112	 -0.51858	 19.56158	704.38000	 22.90	
 11.894	130.867	 18.42418	  4.65521	 13.60088	 14.48625	  3.99128	 -0.53775	 19.55824	704.27002	 22.90	
 11.897	122.732	 18.46151	  5.40715	 12.73850	 15.14054	  3.44469	 -0.54847	 19.55532	704.18500	 22.90	
 11.903	114.597	 18.47811	  6.23406	 11.77733	 15.65089	  3.00368	 -0.57764	 19.55140	705.78900	 22.90	
 11.893	106.346	 18.50693	  7.17207	 10.76838	 16.02700	  2.69399	 -0.59664	 19.56686	704.17902	 22.90	
 11.892	 98.155	 18.51367	  8.14369	  9.73303	 16.23993	  2.49968	 -0.60960	 19.55082	704.11603	 22.90	
 11.900	 90.000	 18.51399	  9.14224	  8.68776	 16.29107	  2.43011	 -0.60525	 19.53934	704.12299	 22.90	
 11.892	 81.845	 18.51781	 10.16472	  7.66838	 16.19589	  2.49355	 -0.57433	 19.54077	704.95697	 22.90	
 11.893	 73.654	 18.53869	 11.21520	  6.70248	 15.96374	  2.68160	 -0.52411	 19.56791	704.17102	 22.90	
 11.903	 65.403	 18.53340	 12.20426	  5.76892	 15.56868	  2.97918	 -0.48616	 19.55567	704.09003	 22.90	
 11.897	 57.268	 18.53073	 13.13548	  4.93321	 15.03657	  3.40499	 -0.49925	 19.56255	704.02301	 22.90	
 11.894	 49.133	 18.52985	 13.98100	  4.18195	 14.37798	  3.94386	 -0.51867	 19.57665	704.13202	 22.90	
 11.902	 40.852	 18.47753	 14.71398	  3.51588	 13.57574	  4.57475	 -0.55304	 19.53886	704.12299	 22.90	
 11.909	 32.701	 18.44754	 15.34082	  2.97929	 12.70120	  5.31608	 -0.58013	 19.53442	704.15997	 22.90	
 11.889	 24.555	 18.45944	 15.86975	  2.57993	 11.77034	  6.17322	 -0.59715	 19.56186	704.27502	 22.90	
 11.890	 16.390	 18.39092	 16.19514	  2.27494	 10.75720	  7.05755	 -0.61389	 19.51973	705.87701	 22.90	
 11.899	  8.217	 18.41563	 16.46064	  2.09993	  9.76845	  8.03913	 -0.62413	 19.57391	704.19897	 22.90	
 11.900	  0.000	 18.37623	 16.50871	  2.04248	  8.71304	  9.04859	 -0.62191	 19.55431	704.13800	 22.90	
 11.899	 -8.217	 18.36197	 16.43630	  2.11198	  7.70669	 10.09092	 -0.61254	 19.57330	704.17102	 22.90	
 11.890	-16.390	 18.31412	 16.16388	  2.31003	  6.74047	 11.09275	 -0.60094	 19.53881	704.26501	 22.90	
 11.889	-24.555	 18.27353	 15.76663	  2.61531	  5.82230	 12.08177	 -0.60392	 19.52773	704.34003	 22.90	
 11.909	-32.701	 18.25571	 15.25155	  3.04401	  4.99129	 13.02818	 -0.60568	 19.55214	704.20001	 22.90	
 11.902	-40.852	 18.24358	 14.60204	  3.58688	  4.27185	 13.89213	 -0.62689	 19.56218	704.19397	 22.90	
 11.894	-49.133	 18.21583	 13.82087	  4.25286	  3.61804	 14.67476	 -0.64345	 19.56227	704.27002	 22.90	
 11.897	-57.268	 18.18773	 12.95134	  4.99638	  3.08371	 15.32686	 -0.67711	 19.56374	704.70099	 22.90	
 11.903	-65.403	 18.15620	 12.00915	  5.83641	  2.66021	 15.85342	 -0.70055	 19.56953	704.25800	 22.90	
 11.893	-73.654	 18.12237	 10.99671	  6.76197	  2.36988	 16.20724	 -0.70483	 19.55430	704.30902	 22.90	
 11.892	-81.845	 18.11395	  9.98387	  7.74502	  2.20232	 16.44634	 -0.69402	 19.56664	704.30902	 22.90	
 11.900	-90.000	 18.09879	  8.94852	  8.76425	  2.14429	 16.53897	 -0.68556	 19.57401	704.25000	 22.90	
 11.892	-98.155	 18.08184	  7.93544	  9.78902	  2.21240	 16.45905	 -0.66288	 19.56789	704.25500	 22.90	
 11.893	-106.346	 18.04823	  6.95614	 10.80532	  2.38781	 16.21854	 -0.63405	 19.54102	704.23297	 22.90	
 11.903	-114.597	 18.04237	  6.04734	 11.80898	  2.68785	 15.85620	 -0.58989	 19.55270	704.26398	 22.90	
 11.897	-122.732	 18.04787	  5.22388	 12.74673	  3.12665	 15.33803	 -0.55480	 19.54627	704.11603	 22.90	
 11.894	-130.867	 18.06149	  4.49524	 13.61360	  3.68070	 14.69361	 -0.53996	 19.54510	703.98199	 22.90	
 11.902	-139.148	 18.09910	  3.85109	 14.40822	  4.35557	 13.93879	 -0.54705	 19.56742	704.05298	 22.90	
 11.909	-147.299	 18.10435	  3.31508	 15.05536	  5.09911	 13.08156	 -0.56290	 19.55316	704.21600	 22.90	
 11.889	-155.445	 18.10771	  2.92775	 15.54351	  5.94540	 12.13468	 -0.56158	 19.52558	704.04498	 22.90	
 11.890	-163.610	 18.15564	  2.64332	 15.94836	  6.87646	 11.15693	 -0.55756	 19.55005	704.19299	 22.90	
 11.899	-171.783	 18.15217	  2.45845	 16.16218	  7.83443	 10.12160	 -0.55818	 19.51827	704.08502	 22.90	
 11.900	180.000	 18.21417	  2.41399	 16.26462	  8.86029	  9.12589	 -0.55849	 19.55411	704.19098	 22.90	
 13.600	180.000	 17.71714	  1.23682	 16.90910	  8.48516	  8.73387	 -0.72220	 19.54685	704.20203	 22.90	
 13.608	-172.853	 17.68110	  1.26817	 16.84928	  7.48673	  9.73239	 -0.73350	 19.53371	704.18597	 22.90	
 13.611	-165.583	 17.64779	  1.40451	 16.65364	  6.50383	 10.75575	 -0.73699	 19.52976	704.24402	 22.90	
 13.601	-158.353	 17.62085	  1.65511	 16.29444	  5.55787	 11.76828	 -0.72550	 19.53297	704.11499	 22.90	
 13.609	-151.210	 17.58982	  1.98878	 15.83873	  4.69170	 12.71331	 -0.72033	 19.52187	704.29303	 22.90	
 13.611	-143.999	 17.58365	  2.44512	 15.25697	  3.90682	 13.62865	 -0.70155	 19.53707	704.12097	 22.90	
 13.601	-136.825	 17.56134	  3.00380	 14.55468	  3.19738	 14.45454	 -0.67955	 19.52931	704.17499	 22.90	
 13.596	-129.640	 17.54067	  3.64941	 13.75249	  2.56447	 15.19331	 -0.66871	 19.53133	704.10901	 22.90	
 13.611	-122.431	 17.51534	  4.37201	 12.86901	  2.04027	 15.81480	 -0.67929	 19.51079	704.99799	 22.90	
 13.604	-115.211	 17.52015	  5.18395	 11.93010	  1.62935	 16.33176	 -0.71337	 19.52449	704.14099	 22.90	
 13.595	-108.042	 17.54909	  6.08254	 10.95688	  1.32601	 16.73871	 -0.75779	 19.54515	704.08502	 22.90	
 13.607	-100.793	 17.54982	  7.02776	  9.92215	  1.11134	 17.00636	 -0.78305	 19.54147	704.10699	 22.90	
 13.601	-93.617	 17.56841	  8.01695	  8.89979	  0.99800	 17.14276	 -0.77675	 19.55414	704.19098	 22.90	
 13.601	-86.383	 17.56126	  9.02788	  7.86095	  0.98483	 17.12223	 -0.77806	 19.53017	704.08899	 22.90	
 13.607	-79.207	 17.56453	 10.04845	  6.86475	  1.07549	 16.98125	 -0.77621	 19.51413	704.15198	 23.00	
 13.595	-71.958	 17.62098	 11.09336	  5.91637	  1.27842	 16.73509	 -0.78988	 19.54445	704.19598	 22.90	
 13.604	-64.789	 17.64264	 12.08909	  5.01292	  1.57726	 16.33347	 -0.78372	 19.54558	704.26202	 23.00	
 13.611	-57.569	 17.67401	 13.04214	  4.17630	  1.97255	 15.82108	 -0.77538	 19.54709	704.05103	 23.00	
 13.596	-50.360	 17.68381	 13.90497	  3.42727	  2.48026	 15.16018	 -0.75251	 19.51890	704.14099	 23.00	
 13.601	-43.175	 17.74437	 14.72897	  2.77316	  3.09067	 14.43642	 -0.73782	 19.54652	704.19098	 23.00	
 13.611	-36.001	 17.78790	 15.45718	  2.19552	  3.78586	 13.61442	 -0.73872	 19.56696	704.22498	 23.00	
 13.609	-28.790	 17.78445	 16.01472	  1.72224	  4.55339	 12.68168	 -0.72028	 19.53251	704.19897	 23.00	
 13.601	-21.647	 17.81672	 16.48348	  1.35993	  5.40133	 11.72602	 -0.71588	 19.53287	704.66302	 23.00	
 13.611	-14.417	 17.83709	 16.84235	  1.08598	  6.33206	 10.70930	 -0.73018	 19.53555	704.09302	 23.00	
 13.608	 -7.147	 17.85756	 17.04928	  0.92746	  7.31092	  9.68099	 -0.73714	 19.52729	704.03400	 23.00	
 13.600	  0.000	 17.89195	 17.12892	  0.87999	  8.30711	  8.67612	 -0.74320	 19.52942	704.58698	 23.00	
 13.608	  7.147	 17.94019	 17.09867	  0.90920	  9.34388	  7.66568	 -0.74883	 19.55026	704.06799	 23.00	
 13.611	 14.417	 17.93962	 16.89235	  1.05360	 10.35941	  6.68023	 -0.75729	 19.53139	704.71399	 23.00	
 13.601	 21.647	 17.99515	 16.59456	  1.32068	 11.38688	  5.77052	 -0.75002	 19.55412	704.08398	 23.00	
 13.609	 28.790	 18.02601	 16.16234	  1.66766	 12.36812	  4.91095	 -0.73731	 19.57401	704.19397	 23.00	
 13.611	 36.001	 18.02392	 15.56973	  2.11936	 13.26569	  4.12370	 -0.70808	 19.54572	704.16101	 23.00	
 13.601	 43.175	 18.06279	 14.90936	  2.69370	 14.11585	  3.43786	 -0.67464	 19.54841	704.17200	 23.00	
 13.596	 50.360	 18.07642	 14.13429	  3.35298	 14.87931	  2.82309	 -0.63274	 19.55992	704.11798	 23.00	
 13.611	 57.569	 18.07746	 13.26563	  4.08842	 15.53949	  2.28453	 -0.61312	 19.54900	705.72498	 23.00	
 13.604	 64.789	 18.08588	 12.33300	  4.91386	 16.08691	  1.86264	 -0.60530	 19.55272	704.14099	 23.00	
 13.595	 71.958	 18.08017	 11.34647	  5.81830	 16.49070	  1.55321	 -0.64656	 19.54511	704.10901	 23.00	
 13.607	 79.207	 18.06187	 10.31644	  6.77373	 16.76151	  1.34436	 -0.70665	 19.51474	704.72900	 23.00	
 13.601	 86.383	 18.07125	  9.30211	  7.78075	 16.90426	  1.25921	 -0.74707	 19.52430	704.09302	 23.00	
 13.601	 93.617	 18.06353	  8.27515	  8.82000	 16.91864	  1.26600	 -0.77052	 19.52152	705.36499	 23.00	
 13.607	100.793	 18.05003	  7.28852	  9.85013	 16.80669	  1.37259	 -0.76646	 19.52089	704.06097	 23.00	
 13.595	108.042	 18.05196	  6.32286	 10.89951	 16.56302	  1.59250	 -0.75471	 19.53998	705.65997	 23.00	
 13.604	115.211	 17.99533	  5.40542	 11.87510	 16.15494	  1.88697	 -0.73273	 19.51138	704.09802	 23.00	
 13.611	122.431	 18.00079	  4.58169	 12.85550	 15.66343	  2.31433	 -0.71032	 19.54203	704.10901	 23.00	
 13.596	129.640	 17.97836	  3.84416	 13.74131	 15.02825	  2.85403	 -0.68749	 19.54579	704.07501	 23.00	
 13.601	136.825	 17.93525	  3.17697	 14.54348	 14.27682	  3.47779	 -0.66886	 19.54303	704.10400	 23.00	
 13.611	143.999	 17.89192	  2.59137	 15.24518	 13.44965	  4.16460	 -0.66267	 19.54206	704.14001	 23.00	
 13.609	151.210	 17.86183	  2.10785	 15.84583	 12.54763	  4.95890	 -0.65098	 19.55387	704.06097	 23.00	
 13.601	158.353	 17.81180	  1.73049	 16.29543	 11.56465	  5.82347	 -0.64713	 19.52918	704.04498	 23.00	
 13.611	165.583	 17.79680	  1.45344	 16.65525	 10.56307	  6.75534	 -0.67546	 19.55789	703.98199	 23.00	
 13.608	172.853	 17.76055	  1.28525	 16.85942	  9.52442	  7.72769	 -0.69906	 19.54791	704.04199	 23.00	
 15.298	173.587	 17.20743	  0.14275	 17.44547	  9.11238	  7.30164	 -0.83795	 19.54311	704.10699	 23.00	
 15.291	167.167	 17.23786	  0.27495	 17.26842	 10.12146	  6.34500	 -0.81933	 19.54433	704.10699	 23.00	
 15.307	160.676	 17.27002	  0.50301	 16.97114	 11.14449	  5.40197	 -0.80055	 19.53766	704.01099	 23.00	
 15.300	154.261	 17.31077	  0.83755	 16.54572	 12.14715	  4.52019	 -0.78992	 19.54844	704.04199	 23.00	
 15.288	147.854	 17.34482	  1.26044	 16.00419	 13.07005	  3.73188	 -0.79462	 19.53455	704.03003	 23.00	
 15.293	141.428	 17.38335	  1.76616	 15.37294	 13.94407	  2.99919	 -0.80069	 19.53479	704.16101	 23.00	
 15.299	134.985	 17.44785	  2.35008	 14.65687	 14.78915	  2.32084	 -0.81151	 19.56331	703.97101	 23.00	
 15.305	128.583	 17.46645	  3.01161	 13.81858	 15.49895	  1.71920	 -0.81688	 19.54416	704.05798	 23.00	
 15.309	122.142	 17.48933	  3.75332	 12.92163	 16.12690	  1.22683	 -0.84284	 19.54139	705.04901	 23.00	
 15.304	115.711	 17.53263	  4.58522	 11.97716	 16.64255	  0.84356	 -0.83879	 19.55069	703.98798	 23.00	
 15.297	109.291	 17.53852	  5.45963	 10.96758	 17.02626	  0.53469	 -0.85138	 19.52732	705.67200	 23.00	
 15.293	102.897	 17.55536	  6.40062	  9.94617	 17.31362	  0.31360	 -0.85791	 19.52404	705.74701	 23.00	
 15.293	 96.458	 17.60031	  7.38024	  8.92960	 17.50301	  0.18121	 -0.86342	 19.55712	704.83801	 23.00	
 15.300	 90.000	 17.61050	  8.38818	  7.89405	 17.55138	  0.12637	 -0.86316	 19.56458	705.68500	 23.00	
 15.293	 83.542	 17.58500	  9.38928	  6.86634	 17.43892	  0.16988	 -0.84791	 19.52489	705.72498	 23.00	
 15.293	 77.103	 17.58999	 10.41937	  5.88537	 17.24820	  0.30592	 -0.80590	 19.52287	705.67499	 23.00	
 15.297	 70.709	 17.57610	 11.40607	  4.95867	 16.92451	  0.51897	 -0.76111	 19.51647	703.99701	 23.00	
 15.304	 64.289	 17.60022	 12.40745	  4.07863	 16.52449	  0.82654	 -0.72714	 19.55475	704.03101	 23.00	
 15.309	 57.858	 17.57805	 13.32236	  3.25685	 15.97444	  1.21017	 -0.72168	 19.54062	704.09198	 23.00	
 15.305	 51.417	 17.56336	 14.19550	  2.52592	 15.33337	  1.69735	 -0.74473	 19.54174	704.08899	 23.00	
 15.299	 45.015	 17.53677	 14.98493	  1.86658	 14.57647	  2.28126	 -0.77908	 19.52872	704.05402	 23.00	
 15.293	 38.572	 17.53893	 15.70231	  1.30562	 13.75183	  2.95750	 -0.80943	 19.54300	703.98602	 23.00	
 15.288	 32.146	 17.47991	 16.28272	  0.81826	 12.84050	  3.67444	 -0.83255	 19.50990	704.04199	 23.00	
 15.300	 25.739	 17.47435	 16.80814	  0.42143	 11.91835	  4.47088	 -0.82772	 19.53084	704.08398	 23.00	
 15.307	 19.324	 17.45268	 17.22016	  0.11087	 10.93370	  5.34723	 -0.82149	 19.54269	705.76202	 23.00	
 15.291	 12.833	 17.42954	 17.49737	 -0.09681	  9.91128	  6.27767	 -0.82348	 19.53601	705.75098	 23.00	
 15.298	  6.413	 17.39094	 17.64115	 -0.22285	  8.89014	  7.22620	 -0.81941	 19.52149	703.97998	 23.00	
 15.300	  0.000	 17.39497	 17.72594	 -0.25861	  7.88110	  8.24559	 -0.81896	 19.55904	705.73297	 23.00	
 15.298	 -6.413	 17.33922	 17.62782	 -0.21035	  6.87782	  9.25448	 -0.80907	 19.52773	705.25403	 23.00	
 15.291	-12.833	 17.32372	 17.44481	 -0.06995	  5.92315	 10.26842	 -0.80073	 19.54068	704.21600	 23.00	
 15.307	-19.324	 17.27885	 17.12087	  0.14520	  4.96997	 11.28725	 -0.79953	 19.52282	704.26398	 23.00	
 15.300	-25.739	 17.26828	 16.70522	  0.47549	  4.12564	 12.27132	 -0.80876	 19.53858	704.98999	 23.00	
 15.288	-32.146	 17.27186	 16.19041	  0.88779	  3.33940	 13.22127	 -0.80230	 19.56079	704.19397	 23.00	
 15.293	-38.572	 17.23165	 15.54160	  1.37783	  2.60009	 14.10336	 -0.79791	 19.55549	704.04999	 23.00	
 15.299	-45.015	 17.16496	 14.77739	  1.95401	  1.93695	 14.88465	 -0.80387	 19.51849	704.09900	 23.00	
 15.305	-51.417	 17.17224	 13.98858	  2.61662	  1.39596	 15.62691	 -0.80460	 19.56032	703.98798	 23.00	
 15.309	-57.858	 17.10614	 13.07572	  3.34603	  0.91473	 16.22188	 -0.80921	 19.51675	704.18298	 23.00	
 15.304	-64.289	 17.06373	 12.11638	  4.15702	  0.52280	 16.73703	 -0.79796	 19.50742	704.22198	 23.00	
 15.297	-70.709	 17.07306	 11.14243	  5.05366	  0.23409	 17.18237	 -0.78394	 19.55213	705.11499	 23.00	
 15.293	-77.103	 17.03381	 10.12255	  5.96494	  0.03110	 17.45874	 -0.77974	 19.52487	705.65503	 23.00	
 15.293	-83.542	 17.01735	  9.09639	  6.94369	 -0.10557	 17.65534	 -0.79526	 19.54539	704.04700	 23.00	
 15.300	-90.000	 16.98049	  8.06216	  7.94183	 -0.14809	 17.71066	 -0.79722	 19.52800	704.61902	 23.00	
 15.293	-96.458	 16.97589	  7.06720	  8.96933	 -0.09529	 17.65649	 -0.82517	 19.53813	704.00000	 23.00	
 15.293	-102.897	 16.97059	  6.10278	  9.99990	  0.03679	 17.48311	 -0.84422	 19.54481	703.99103	 23.00	
 15.297	-109.291	 16.96050	  5.20004	 11.00351	  0.26474	 17.19114	 -0.84016	 19.53530	704.09900	 23.00	
 15.304	-115.711	 16.94514	  4.32528	 11.98550	  0.57401	 16.76651	 -0.80589	 19.52039	704.10901	 23.00	
 15.309	-122.142	 16.95753	  3.53293	 12.93821	  0.98617	 16.25715	 -0.79075	 19.51992	705.16199	 23.00	
 15.305	-128.583	 16.97400	  2.81558	 13.82052	  1.47685	 15.63407	 -0.77793	 19.52834	704.12402	 23.00	
 15.299	-134.985	 16.97011	  2.17587	 14.61308	  2.04304	 14.91759	 -0.80493	 19.51139	704.11298	 23.00	
 15.293	-141.428	 17.00469	  1.61892	 15.36452	  2.71980	 14.11913	 -0.82814	 19.52482	704.02802	 23.00	
 15.288	-147.854	 17.05922	  1.13644	 16.03793	  3.47479	 13.26497	 -0.84769	 19.56155	704.01300	 23.00	
 15.300	-154.261	 17.03625	  0.74346	 16.52112	  4.27208	 12.29593	 -0.85540	 19.51340	704.03101	 23.00	
 15.307	-160.676	 17.07102	  0.44814	 16.95537	  5.14606	 11.34314	 -0.85853	 19.53535	704.10901	 23.10	
 15.291	-167.167	 17.10979	  0.24639	 17.25546	  6.11053	 10.31990	 -0.86565	 19.54116	704.14899	 23.00	
 15.298	-173.587	 17.12591	  0.12554	 17.41975	  7.07245	  9.29811	 -0.86906	 19.53061	703.92902	 23.00	
 15.300	180.000	 17.15051	  0.07864	 17.48723	  8.06647	  8.29205	 -0.86061	 19.52321	704.11798	 23.10	
 17.000	180.000	 16.53346	 -1.03112	 17.99973	  7.59866	  7.82242	 -0.92594	 19.52449	704.10901	 23.10	
 16.990	-174.179	 16.50712	 -1.00168	 17.95479	  6.61360	  8.81715	 -0.93528	 19.52381	704.05298	 23.00	
 17.009	-168.383	 16.46067	 -0.90552	 17.78709	  5.64412	  9.80695	 -0.92974	 19.50541	704.02698	 23.00	
 17.000	-162.596	 16.46330	 -0.71642	 17.54925	  4.72699	 10.84539	 -0.91389	 19.54353	703.96002	 23.00	
 16.990	-156.759	 16.44205	 -0.44972	 17.15967	  3.85385	 11.82279	 -0.92162	 19.53014	704.02802	 23.00	
 16.995	-150.919	 16.40592	 -0.11265	 16.65682	  3.02447	 12.77112	 -0.92023	 19.52467	703.97198	 23.00	
 16.988	-145.161	 16.41074	  0.30486	 16.10297	  2.26192	 13.70567	 -0.92014	 19.55086	704.09900	 23.00	
 17.014	-139.343	 16.38931	  0.78312	 15.43857	  1.56207	 14.55800	 -0.92360	 19.56151	704.74500	 23.00	
 17.007	-133.546	 16.35957	  1.34490	 14.66263	  0.96363	 15.30560	 -0.88579	 19.53231	705.75000	 23.00	
 17.001	-127.699	 16.32899	  1.97806	 13.80995	  0.41397	 15.99659	 -0.87640	 19.50943	704.03400	 23.00	
 17.006	-121.937	 16.32888	  2.67687	 12.93544	 -0.05872	 16.62930	 -0.87070	 19.52863	704.10699	 23.00	
 17.002	-116.134	 16.31663	  3.44688	 11.99165	 -0.44692	 17.13923	 -0.87931	 19.52579	703.81598	 23.00	
 17.001	-110.310	 16.31606	  4.27327	 11.01649	 -0.76257	 17.55913	 -0.86888	 19.53020	703.99103	 23.00	
 16.988	-104.517	 16.32568	  5.17052	 10.01780	 -0.96811	 17.85815	 -0.85472	 19.52579	703.96600	 23.00	
 17.008	-98.662	 16.34537	  6.10992	  8.99925	 -1.13648	 18.09472	 -0.81012	 19.54394	704.05298	 23.00	
 16.996	-92.909	 16.35032	  7.06391	  7.99415	 -1.21385	 18.17223	 -0.76920	 19.52224	703.80200	 23.00	
 16.996	-87.091	 16.35183	  8.06211	  6.98344	 -1.22212	 18.16298	 -0.73717	 19.50953	704.00598	 23.00	
 17.012	-81.253	 16.38887	  9.08718	  5.99921	 -1.16773	 18.08759	 -0.72524	 19.53650	704.04401	 23.00	
 16.988	-75.483	 16.40969	 10.09660	  5.07752	 -1.01388	 17.87182	 -0.69866	 19.52636	704.00500	 23.00	
 17.001	-69.690	 16.42482	 11.10097	  4.16354	 -0.82072	 17.56193	 -0.68764	 19.53085	704.09198	 23.10	
 17.002	-63.866	 16.48240	 12.11125	  3.31776	 -0.51947	 17.16456	 -0.72140	 19.56261	704.48401	 23.10	
 17.006	-58.063	 16.50356	 13.05341	  2.52576	 -0.14222	 16.62353	 -0.75161	 19.54000	703.96301	 23.10	
 17.001	-52.301	 16.53865	 13.94868	  1.81079	  0.31845	 16.00014	 -0.76449	 19.53424	703.94897	 23.10	
 17.007	-46.454	 16.55676	 14.78199	  1.14750	  0.84178	 15.27868	 -0.78074	 19.52248	704.07800	 23.10	
 17.014	-40.657	 16.58705	 15.54897	  0.57119	  1.42217	 14.52184	 -0.78943	 19.53812	704.06201	 23.10	
 16.988	-34.839	 16.62957	 16.22961	  0.08394	  2.11439	 13.66810	 -0.79732	 19.53446	704.13702	 23.10	
 16.995	-29.081	 16.65574	 16.81232	 -0.34402	  2.86175	 12.75966	 -0.81155	 19.53674	704.06201	 23.10	
 16.990	-23.241	 16.69338	 17.31047	 -0.70362	  3.67404	 11.80584	 -0.81820	 19.55295	704.27899	 23.10	
 17.000	-17.404	 16.68996	 17.66644	 -0.97211	  4.52631	 10.81014	 -0.81169	 19.51934	703.97101	 23.10	
 17.009	-11.617	 16.73159	 17.96227	 -1.16810	  5.45629	  9.79663	 -0.80338	 19.53206	703.97198	 23.10	
 16.990	 -5.821	 16.77756	 18.13820	 -1.27072	  6.41546	  8.80235	 -0.79611	 19.54561	704.05298	 23.10	
 17.000	  0.000	 16.77981	 18.17500	 -1.32517	  7.38570	  7.78682	 -0.79699	 19.52368	703.94000	 23.10	
 16.990	  5.821	 16.81046	 18.13481	 -1.28792	  8.40739	  6.78167	 -0.79338	 19.51880	703.93298	 23.10	
 17.009	 11.617	 16.83664	 18.01533	 -1.20186	  9.40916	  5.83805	 -0.79252	 19.53484	704.13397	 23.10	
 17.000	 17.404	 16.88074	 17.78592	 -1.01929	 10.42305	  4.92670	 -0.79323	 19.55810	703.95502	 23.10	
 16.990	 23.241	 16.87484	 17.38801	 -0.75353	 11.40919	  4.04546	 -0.80825	 19.52324	704.02698	 23.10	
 16.995	 29.081	 16.93782	 16.96289	 -0.41606	 12.39497	  3.23792	 -0.84066	 19.55280	703.97803	 23.10	
 16.988	 34.839	 16.94037	 16.39389	 -0.00042	 13.29673	  2.49349	 -0.84600	 19.52833	703.92700	 23.10	
 17.014	 40.657	 16.94250	 15.73543	  0.47622	 14.16201	  1.77465	 -0.86314	 19.52477	703.90198	 23.10	
 17.007	 46.454	 16.97732	 15.01366	  1.04903	 14.98312	  1.15831	 -0.85590	 19.53992	704.03900	 23.10	
 17.001	 52.301	 16.98744	 14.19353	  1.70453	 15.70033	  0.63048	 -0.82980	 19.52217	703.96301	 23.10	
 17.006	 58.063	 16.98698	 13.31597	  2.41602	 16.32248	  0.17266	 -0.81764	 19.50952	703.96600	 23.10	
 17.002	 63.866	 16.99523	 12.38893	  3.19173	 16.87157	 -0.22207	 -0.82352	 19.51033	704.79901	 23.10	
 17.001	 69.690	 17.02123	 11.43236	  4.05079	 17.35202	 -0.54311	 -0.84531	 19.53918	705.11401	 23.10	
 16.988	 75.483	 17.01780	 10.42633	  4.95260	 17.67681	 -0.77111	 -0.86726	 19.53224	705.61798	 23.10	
 17.012	 81.253	 17.00490	  9.42857	  5.89151	 17.90931	 -0.93767	 -0.89124	 19.53099	704.96198	 23.10	
 16.996	 87.091	 17.01211	  8.41690	  6.89032	 18.02155	 -0.97781	 -0.89323	 19.52949	703.93701	 23.10	
 16.996	 92.909	 17.02963	  7.42210	  7.91680	 18.05884	 -0.97237	 -0.88388	 19.55248	704.03699	 23.10	
 17.008	 98.662	 16.98738	  6.43532	  8.91634	 17.95012	 -0.89608	 -0.86898	 19.52950	705.55103	 23.10	
 16.988	104.517	 16.99628	  5.49683	  9.96148	 17.76338	 -0.74838	 -0.85351	 19.54715	705.66302	 23.10	
 17.001	110.310	 16.97537	  4.57989	 10.97950	 17.45762	 -0.52464	 -0.86443	 19.54707	705.62299	 23.10	
 17.002	116.134	 16.92990	  3.71780	 11.95262	 17.01555	 -0.20953	 -0.87975	 19.51810	705.64398	 23.10	
 17.006	121.937	 16.92467	  2.92553	 12.92916	 16.51962	  0.18530	 -0.89823	 19.54234	704.01398	 23.10	
 17.001	127.699	 16.88978	  2.19811	 13.82360	 15.90246	  0.64592	 -0.91228	 19.52966	703.87799	 23.10	
 17.007	133.546	 16.83509	  1.54022	 14.64846	 15.18710	  1.18373	 -0.91536	 19.52421	703.97400	 23.10	
 17.014	139.343	 16.81219	  0.94384	 15.42295	 14.40915	  1.80106	 -0.91065	 19.53672	705.68799	 23.10	
 16.988	145.161	 16.80090	  0.45149	 16.11029	 13.55741	  2.53034	 -0.91054	 19.56326	703.99701	 23.10	
 16.995	150.919	 16.73031	  0.01232	 16.66669	 12.63575	  3.26407	 -0.90935	 19.52461	704.89801	 23.10	
 16.990	156.759	 16.69239	 -0.35050	 17.14482	 11.67568	  4.07855	 -0.90812	 19.52634	705.61798	 23.10	
 17.000	162.596	 16.65719	 -0.65036	 17.53629	 10.65736	  4.96624	 -0.90936	 19.53274	705.64600	 23.10	
 17.009	168.383	 16.61143	 -0.86132	 17.79463	  9.63764	  5.87428	 -0.92276	 19.52221	704.53198	 23.10	
 16.990	174.179	 16.59053	 -0.98294	 17.96628	  8.64039	  6.83242	 -0.93884	 19.53755	704.01099	 23.10	
 18.709	174.675	 15.89372	 -2.04877	 18.39417	  8.12280	  6.32176	 -0.94719	 19.51930	705.71301	 23.10	
 18.703	169.441	 15.96405	 -1.93185	 18.29294	  9.12779	  5.41657	 -0.95810	 19.54942	704.23102	 23.10	
 18.691	164.085	 15.98002	 -1.74218	 18.02777	 10.14102	  4.49137	 -0.97574	 19.53226	704.05402	 23.10	
 18.706	158.818	 15.99674	 -1.49816	 17.68011	 11.14005	  3.60666	 -0.97013	 19.51070	704.33698	 23.10	
 18.695	153.537	 16.05534	 -1.17372	 17.26079	 12.11071	  2.81285	 -0.98846	 19.52754	704.14001	 23.10	
 18.704	148.255	 16.07133	 -0.79773	 16.71126	 13.02938	  2.05077	 -0.97209	 19.50616	705.62402	 23.10	
 18.698	142.952	 16.12522	 -0.35929	 16.09868	 13.93505	  1.33511	 -0.96135	 19.51817	704.03101	 23.10	
 18.699	137.625	 16.17818	  0.16669	 15.39536	 14.77715	  0.68738	 -0.94830	 19.52644	704.16803	 23.10	
 18.705	132.343	 16.21749	  0.74807	 14.61771	 15.52423	  0.12080	 -0.93415	 19.51635	705.72699	 23.10	
 18.713	127.067	 16.24945	  1.38399	 13.77320	 16.22416	 -0.39626	 -0.91269	 19.52204	705.76501	 23.10	
 18.700	121.794	 16.28477	  2.10008	 12.87697	 16.83625	 -0.83462	 -0.87445	 19.53248	705.14697	 23.10	
 18.698	116.504	 16.30906	  2.86301	 11.91877	 17.35161	 -1.21243	 -0.84480	 19.52534	704.08502	 23.10	
 18.707	111.165	 16.32919	  3.69911	 10.92477	 17.78260	 -1.52738	 -0.80462	 19.52804	704.17499	 23.10	
 18.690	105.863	 16.36594	  4.58126	  9.93264	 18.10877	 -1.74022	 -0.78586	 19.53406	705.33002	 23.10	
 18.696	100.583	 16.36700	  5.49933	  8.91159	 18.30959	 -1.88922	 -0.76395	 19.51217	703.92700	 23.10	
 18.700	 95.309	 16.39438	  6.44919	  7.90997	 18.44635	 -1.97891	 -0.77619	 19.52712	704.90100	 23.10	
 18.700	 90.000	 16.39816	  7.42718	  6.91234	 18.47758	 -2.01671	 -0.80442	 19.52536	704.07501	 23.10	
 18.700	 84.691	 16.40672	  8.42849	  5.91451	 18.41717	 -1.98769	 -0.84287	 19.53152	704.20001	 23.10	
 18.696	 79.417	 16.40650	  9.41665	  4.96906	 18.26153	 -1.90582	 -0.86395	 19.53050	704.06799	 23.10	
 18.690	 74.137	 16.40435	 10.40558	  4.05615	 18.00470	 -1.74440	 -0.87179	 19.52431	703.96301	 23.10	
 18.707	 68.835	 16.38490	 11.37974	  3.16180	 17.65186	 -1.53610	 -0.87591	 19.52568	704.03003	 23.10	
 18.698	 63.496	 16.41032	 12.35306	  2.34704	 17.22451	 -1.23095	 -0.87828	 19.55677	704.04199	 23.10	
 18.700	 58.206	 16.38799	 13.27222	  1.58505	 16.66384	 -0.85747	 -0.87659	 19.54117	704.51099	 23.20	
 18.713	 52.933	 16.35716	 14.14421	  0.87960	 16.01701	 -0.41544	 -0.87214	 19.52629	703.94702	 23.20	
 18.705	 47.657	 16.36315	 14.97558	  0.25855	 15.30569	  0.10442	 -0.86802	 19.53241	705.00098	 23.10	
 18.699	 42.375	 16.35124	 15.72378	 -0.30025	 14.53458	  0.67380	 -0.86624	 19.54519	703.90100	 23.20	
 18.698	 37.048	 16.30672	 16.38696	 -0.79064	 13.67181	  1.31545	 -0.83390	 19.52511	703.90100	 23.10	
 18.704	 31.745	 16.31139	 17.01295	 -1.21810	 12.77446	  2.04030	 -0.80125	 19.54732	703.93701	 23.20	
 18.695	 26.463	 16.28194	 17.51576	 -1.57621	 11.83892	  2.79844	 -0.76903	 19.54836	704.03900	 23.20	
 18.706	 21.182	 16.24337	 17.91941	 -1.86697	 10.87096	  3.59832	 -0.74518	 19.54080	704.06097	 23.20	
 18.691	 15.915	 16.21795	 18.23046	 -2.08430	  9.87546	  4.46663	 -0.71035	 19.53041	703.88202	 23.20	
 18.703	 10.559	 16.19173	 18.46751	 -2.24938	  8.86713	  5.37766	 -0.71697	 19.53693	704.00500	 23.20	
 18.709	  5.325	 16.15335	 18.57584	 -2.34157	  7.87634	  6.29522	 -0.70647	 19.51887	703.95099	 23.20	
 18.700	  0.000	 16.14262	 18.61028	 -2.35700	  6.88777	  7.28925	 -0.72312	 19.51947	704.48602	 23.20	
 18.709	 -5.325	 16.10492	 18.56156	 -2.32280	  5.91275	  8.28070	 -0.72118	 19.52975	704.14398	 23.20	
 18.703	-10.559	 16.08908	 18.41674	 -2.22277	  4.98778	  9.27572	 -0.75195	 19.54601	704.15997	 23.20	
 18.691	-15.915	 16.05455	 18.14548	 -2.04986	  4.06672	 10.28807	 -0.75783	 19.53085	705.81799	 23.20	
 18.706	-21.182	 16.02284	 17.80344	 -1.82767	  3.20580	 11.25814	 -0.77259	 19.51843	704.12598	 23.20	
 18.695	-26.463	 15.99403	 17.35613	 -1.52072	  2.40310	 12.21109	 -0.77828	 19.51206	705.54999	 23.20	
 18.704	-31.745	 15.96185	 16.82333	 -1.15214	  1.64081	 13.13979	 -0.75550	 19.51044	704.16302	 23.20	
 18.698	-37.048	 15.94697	 16.20576	 -0.70519	  0.95284	 14.03244	 -0.74933	 19.52232	704.20001	 23.20	
 18.699	-42.375	 15.93524	 15.50752	 -0.20789	  0.34154	 14.86162	 -0.74311	 19.54172	704.14001	 23.20	
 18.705	-47.657	 15.88395	 14.71210	  0.36069	 -0.22135	 15.60383	 -0.72731	 19.51071	704.06201	 23.20	
 18.713	-52.933	 15.86622	 13.89042	  0.99349	 -0.72178	 16.31725	 -0.70887	 19.54763	704.04999	 23.20	
 18.700	-58.206	 15.84426	 12.99196	  1.70865	 -1.13613	 16.93093	 -0.68997	 19.54433	704.15698	 23.20	
 18.698	-63.496	 15.81111	 12.05243	  2.46951	 -1.48237	 17.43517	 -0.65691	 19.54659	704.08197	 23.20	
 18.707	-68.835	 15.77571	 11.06779	  3.28509	 -1.78265	 17.85794	 -0.63760	 19.53788	704.14899	 23.20	
 18.690	-74.137	 15.76339	 10.07595	  4.17609	 -1.98863	 18.19050	 -0.64480	 19.54586	704.04199	 23.20	
 18.696	-79.417	 15.73704	  9.06491	  5.07416	 -2.15787	 18.43284	 -0.63605	 19.54912	703.91901	 23.20	
 18.700	-84.691	 15.67911	  8.04833	  6.00402	 -2.25453	 18.53914	 -0.64321	 19.51481	704.10101	 23.20	
 18.700	-90.000	 15.66432	  7.04386	  6.98970	 -2.27897	 18.58995	 -0.65660	 19.51664	704.18298	 23.20	
 18.700	-95.309	 15.63342	  6.07139	  7.97612	 -2.23374	 18.53071	 -0.68212	 19.49543	704.14899	 23.20	
 18.696	-100.583	 15.65744	  5.14833	  8.98416	 -2.12757	 18.42704	 -0.74231	 19.53419	704.01898	 23.20	
 18.690	-105.863	 15.64239	  4.25882	  9.97342	 -1.94711	 18.18350	 -0.80092	 19.52108	704.05798	 23.20	
 18.707	-111.165	 15.62735	  3.39382	 10.96256	 -1.73069	 17.85914	 -0.84196	 19.51874	704.05798	 23.20	
 18.698	-116.504	 15.63830	  2.59019	 11.94022	 -1.42203	 17.43973	 -0.88161	 19.52403	704.12097	 23.20	
 18.700	-121.794	 15.64910	  1.84258	 12.87225	 -1.06164	 16.93882	 -0.89939	 19.53326	704.14801	 23.20	
 18.713	-127.067	 15.65812	  1.15930	 13.77012	 -0.62437	 16.33918	 -0.91410	 19.54110	704.13202	 23.20	
 18.705	-132.343	 15.66351	  0.54409	 14.59389	 -0.10090	 15.62942	 -0.92692	 19.51692	705.75598	 23.20	
 18.699	-137.625	 15.69805	 -0.00662	 15.36912	  0.46922	 14.88812	 -0.94489	 19.53222	704.09302	 23.20	
 18.698	-142.952	 15.69082	 -0.49790	 16.05692	  1.10600	 14.05590	 -0.93707	 19.51073	704.60797	 23.20	
 18.704	-148.255	 15.71776	 -0.92465	 16.69256	  1.80216	 13.18203	 -0.93403	 19.52010	705.38501	 23.20	
 18.695	-153.537	 15.75459	 -1.29151	 17.24368	  2.58993	 12.25263	 -0.92540	 19.53288	705.63800	 23.20	
 18.706	-158.818	 15.75480	 -1.58714	 17.66746	  3.39938	 11.28059	 -0.90719	 19.52303	705.82599	 23.20	
 18.691	-164.085	 15.81476	 -1.79527	 18.04166	  4.27328	 10.32817	 -0.90119	 19.56187	704.15997	 23.20	
 18.703	-169.441	 15.82587	 -1.95686	 18.27249	  5.19583	  9.29910	 -0.90604	 19.53873	704.54498	 23.20	
 18.709	-174.675	 15.84196	 -2.05230	 18.40289	  6.12412	  8.31559	 -0.92533	 19.52563	704.93903	 23.20	
 18.700	180.000	 15.87549	 -2.06923	 18.45164	  7.11320	  7.32464	 -0.93744	 19.53573	705.46002	 23.20	
 20.400	180.000	 15.15882	 -3.06905	 18.82076	  6.59814	  6.80219	 -0.87449	 19.54069	704.17102	 23.20	
 20.401	-175.153	 15.10943	 -3.04861	 18.76404	  5.63646	  7.74345	 -0.84892	 19.51654	704.14398	 23.20	
 20.407	-170.264	 15.08602	 -2.99372	 18.65986	  4.70116	  8.73015	 -0.84073	 19.52966	704.00299	 23.20	
 20.410	-165.423	 15.05438	 -2.86571	 18.43749	  3.78639	  9.72038	 -0.83492	 19.53379	704.04700	 23.20	
 20.392	-160.496	 15.05309	 -2.65980	 18.12663	  2.94004	 10.71807	 -0.82630	 19.53678	704.10699	 23.20	
 20.401	-155.705	 15.02581	 -2.42509	 17.73519	  2.13647	 11.66260	 -0.85862	 19.54228	705.21503	 23.20	
 20.405	-150.835	 14.99586	 -2.11395	 17.22946	  1.35232	 12.60188	 -0.87377	 19.53010	704.16901	 23.20	
 20.397	-145.903	 14.97916	 -1.72497	 16.65393	  0.63140	 13.51331	 -0.90805	 19.52797	704.16901	 23.20	
 20.392	-141.062	 14.96370	 -1.29913	 16.02512	 -0.01224	 14.35243	 -0.92789	 19.52652	704.14600	 23.20	
 20.396	-136.227	 14.93777	 -0.82423	 15.30217	 -0.60540	 15.14457	 -0.93948	 19.51987	704.78998	 23.20	
 20.408	-131.372	 14.92041	 -0.28025	 14.52404	 -1.15303	 15.89262	 -0.92610	 19.52833	704.05402	 23.20	
 20.410	-126.511	 14.91725	  0.32061	 13.70065	 -1.62286	 16.57076	 -0.92650	 19.54498	704.27899	 23.20	
 20.400	-121.604	 14.93940	  0.99674	 12.80163	 -2.03345	 17.19227	 -0.90351	 19.56546	704.20801	 23.20	
 20.403	-116.741	 14.90822	  1.72082	 11.85265	 -2.38844	 17.68269	 -0.85418	 19.53761	704.25098	 23.20	
 20.413	-111.900	 14.88963	  2.48487	 10.88943	 -2.69125	 18.09825	 -0.80826	 19.52844	704.23401	 23.20	
 20.398	-107.004	 14.90032	  3.31546	  9.91321	 -2.92589	 18.44319	 -0.74152	 19.53127	704.03601	 23.20	
 20.394	-102.132	 14.89565	  4.18348	  8.91591	 -3.10347	 18.67895	 -0.68891	 19.51521	704.10901	 23.20	
 20.403	-97.332	 14.90940	  5.07149	  7.94132	 -3.23540	 18.86083	 -0.63970	 19.53150	704.18597	 23.20	
 20.392	-92.440	 14.92682	  6.01847	  6.97095	 -3.30179	 18.93516	 -0.62162	 19.54018	704.13702	 23.20	
 20.392	-87.560	 14.93112	  6.98343	  5.98978	 -3.29984	 18.92724	 -0.60401	 19.52283	704.13702	 23.20	
 20.403	-82.668	 14.95846	  7.97596	  5.04143	 -3.26762	 18.86326	 -0.59595	 19.53695	704.24200	 23.20	
 20.394	-77.868	 14.97231	  8.94507	  4.14569	 -3.15562	 18.69139	 -0.59992	 19.51812	704.15997	 23.20	
 20.398	-72.996	 15.01429	  9.96379	  3.26120	 -2.98208	 18.45223	 -0.57586	 19.54240	704.21399	 23.20	
 20.413	-68.100	 15.04206	 10.95762	  2.41792	 -2.75823	 18.10993	 -0.59424	 19.54548	704.20300	 23.20	
 20.403	-63.259	 15.06912	 11.91391	  1.63258	 -2.46496	 17.66963	 -0.60260	 19.53230	704.13800	 23.20	
 20.400	-58.396	 15.11674	 12.86093	  0.88749	 -2.12613	 17.16523	 -0.62275	 19.54590	704.21600	 23.20	
 20.410	-53.489	 15.10858	 13.73180	  0.18359	 -1.73476	 16.53119	 -0.66123	 19.50754	704.18500	 23.20	
 20.408	-48.628	 15.15999	 14.59403	 -0.44235	 -1.28886	 15.88736	 -0.67888	 19.53194	704.01898	 23.20	
 20.396	-43.773	 15.18652	 15.37446	 -0.98911	 -0.75360	 15.13815	 -0.68649	 19.51600	704.20203	 23.20	
 20.392	-38.938	 15.23296	 16.12037	 -1.49167	 -0.17904	 14.35788	 -0.68776	 19.54903	704.11298	 23.20	
 20.397	-34.097	 15.25805	 16.76894	 -1.94510	  0.44589	 13.51230	 -0.70925	 19.53928	704.13000	 23.20	
 20.405	-29.165	 15.28056	 17.35614	 -2.33462	  1.14839	 12.59948	 -0.71974	 19.54668	704.18298	 23.20	
 20.401	-24.295	 15.31431	 17.84965	 -2.64918	  1.91510	 11.65907	 -0.71888	 19.55138	704.69000	 23.20	
 20.392	-19.504	 15.32508	 18.23090	 -2.89367	  2.72329	 10.70755	 -0.70274	 19.53551	704.13000	 23.20	
 20.410	-14.577	 15.33746	 18.54499	 -3.11579	  3.55656	  9.71700	 -0.68273	 19.53005	704.15698	 23.20	
 20.407	 -9.736	 15.35140	 18.75107	 -3.25477	  4.45348	  8.71819	 -0.67810	 19.51191	704.11298	 23.20	
 20.401	 -4.847	 15.39543	 18.90767	 -3.34635	  5.39111	  7.73490	 -0.66106	 19.52567	704.05298	 23.20	
 20.400	  0.000	 15.43305	 18.95930	 -3.37386	  6.33335	  6.77384	 -0.64914	 19.52904	705.63397	 23.20	
 20.401	  4.847	 15.46562	 18.94298	 -3.35352	  7.31725	  5.80874	 -0.64802	 19.53815	704.56799	 23.20	
 20.407	  9.736	 15.46548	 18.82595	 -3.28756	  8.28956	  4.88876	 -0.64322	 19.52577	704.04498	 23.20	
 20.410	 14.577	 15.49701	 18.63496	 -3.14937	  9.26942	  3.99830	 -0.63541	 19.53146	703.93298	 23.30	
 20.392	 19.504	 15.54254	 18.35168	 -2.94843	 10.28091	  3.13722	 -0.65799	 19.54797	703.97803	 23.20	
 20.401	 24.295	 15.54829	 17.95717	 -2.68921	 11.21802	  2.34373	 -0.68155	 19.51384	704.03003	 23.20	
 20.405	 29.165	 15.59701	 17.52169	 -2.38863	 12.18503	  1.58044	 -0.70950	 19.54570	704.05902	 23.20	
 20.397	 34.097	 15.61005	 16.95092	 -1.99696	 13.11173	  0.85701	 -0.75667	 19.52970	704.09601	 23.20	
 20.392	 38.938	 15.61906	 16.31268	 -1.56754	 13.96949	  0.21171	 -0.79806	 19.51265	704.07001	 23.20	
 20.396	 43.773	 15.66967	 15.65051	 -1.08894	 14.80616	 -0.38951	 -0.84344	 19.53858	704.08502	 23.20	
 20.408	 48.628	 15.66815	 14.87447	 -0.54321	 15.57289	 -0.94788	 -0.86704	 19.52921	704.23297	 23.20	
 20.410	 53.489	 15.67605	 14.04998	  0.06507	 16.27240	 -1.43599	 -0.89142	 19.53177	704.04999	 23.20	
 20.400	 58.396	 15.69225	 13.16623	  0.75098	 16.90192	 -1.84918	 -0.90289	 19.53185	704.15503	 23.20	
 20.403	 63.259	 15.70057	 12.24222	  1.48898	 17.43584	 -2.19709	 -0.90382	 19.51562	704.08502	 23.20	
 20.413	 68.100	 15.71973	 11.31014	  2.27330	 17.90621	 -2.48916	 -0.89426	 19.52989	704.09198	 23.20	
 20.398	 72.996	 15.71943	 10.33066	  3.10840	 18.26577	 -2.72264	 -0.86945	 19.52899	704.25000	 23.20	
 20.394	 77.868	 15.74077	  9.36268	  4.01036	 18.56355	 -2.87513	 -0.82577	 19.54430	704.12903	 23.20	
 20.403	 82.668	 15.73096	  8.37541	  4.91560	 18.74128	 -2.98822	 -0.77281	 19.54262	704.06201	 23.20	
 20.392	 87.560	 15.71521	  7.40441	  5.87982	 18.80609	 -3.02381	 -0.73250	 19.51457	704.02802	 23.20	
 20.392	 92.440	 15.75324	  6.44360	  6.88836	 18.87087	 -3.02946	 -0.69782	 19.56184	704.09302	 23.20	
 20.403	 97.332	 15.71171	  5.47499	  7.87005	 18.77832	 -2.96926	 -0.68344	 19.53392	704.07300	 23.20	
 20.394	102.132	 15.69917	  4.57102	  8.85789	 18.61797	 -2.84441	 -0.69200	 19.52104	703.97998	 23.20	
 20.398	107.004	 15.69191	  3.68503	  9.86775	 18.39249	 -2.68291	 -0.71061	 19.54754	704.15698	 23.20	
 20.413	111.900	 15.67780	  2.82331	 10.86686	 18.06485	 -2.47353	 -0.75253	 19.55554	704.10901	 23.20	
 20.403	116.741	 15.63444	  2.03491	 11.81222	 17.62875	 -2.19900	 -0.77619	 19.53539	704.11298	 23.20	
 20.400	121.604	 15.62042	  1.29395	 12.76839	 17.13172	 -1.83415	 -0.83099	 19.54976	704.20203	 23.20	
 20.410	126.511	 15.55823	  0.58394	 13.65714	 16.49962	 -1.42731	 -0.87191	 19.51726	704.12598	 23.30	
 20.408	131.372	 15.52355	 -0.04200	 14.50376	 15.81443	 -0.93855	 -0.90611	 19.50593	703.88800	 23.30	
 20.396	136.227	 15.50788	 -0.59794	 15.30931	 15.08365	 -0.38019	 -0.93316	 19.52672	704.19299	 23.30	
 20.392	141.062	 15.46219	 -1.10079	 16.02612	 14.28361	  0.21447	 -0.95125	 19.52070	704.14600	 23.30	
 20.397	145.903	 15.41478	 -1.55862	 16.67256	 13.42543	  0.85881	 -0.97003	 19.52348	704.13800	 23.30	
 20.405	150.835	 15.40232	 -1.96084	 17.29416	 12.52394	  1.58983	 -0.99320	 19.56526	704.11603	 23.30	
 20.401	155.705	 15.33494	 -2.28488	 17.74904	 11.55300	  2.35803	 -0.98609	 19.53313	704.16101	 23.30	
 20.392	160.496	 15.31758	 -2.55820	 18.15601	 10.61711	  3.14113	 -0.96227	 19.55836	704.09900	 23.30	
 20.410	165.423	 15.26549	 -2.79161	 18.44888	  9.58635	  4.01449	 -0.94838	 19.53800	704.10101	 23.30	
 20.407	170.264	 15.22911	 -2.93191	 18.65398	  8.59238	  4.91678	 -0.93825	 19.53970	704.02301	 23.30	
 20.401	175.153	 15.17287	 -3.03007	 18.76020	  7.58745	  5.83721	 -0.89854	 19.51874	703.97400	 23.30	
  0.141	 45.000	 19.56466	 10.42013	 10.00974	 10.17076	 10.35931	  0.15004	 19.54719	704.05298	 23.30	
  4.001	128.691	 19.52679	  8.78695	 11.39813	 11.84659	  8.48795	  0.09501	 19.53721	704.09302	 23.30	
  4.002	 76.995	 19.53971	 10.74548	  9.33380	 12.30009	  8.04094	  0.08452	 19.53962	704.11499	 23.30	
  4.002	 25.892	 19.51879	 12.39266	  7.78152	 10.95909	  9.16068	  0.05093	 19.52548	704.23297	 23.30	
  4.002	-25.892	 19.48049	 12.37513	  7.76999	  8.85543	 11.25839	  0.01939	 19.52560	704.10901	 23.30	
  4.002	-76.995	 19.48977	 10.70082	  9.33059	  7.69219	 12.63567	  0.01697	 19.56157	704.11499	 23.30	
  4.001	-128.691	 19.45643	  8.68791	 11.40142	  8.14857	 12.13883	  0.03878	 19.55342	703.94702	 23.30	
  4.000	180.000	 19.45781	  7.92840	 12.32123	  9.94874	 10.24371	  0.09654	 19.51375	704.10101	 23.30	
  8.000	180.000	 19.02404	  5.14399	 14.47282	  9.50160	  9.79804	 -0.19688	 19.52809	704.09302	 23.30	
  7.991	-152.370	 18.97767	  5.60662	 13.89491	  7.31059	 12.08622	 -0.21059	 19.53981	704.18799	 23.30	
  7.997	-124.550	 18.94692	  7.00070	 12.27096	  5.66416	 13.91929	 -0.23067	 19.55015	704.02197	 23.30	
  8.006	-96.837	 18.94198	  9.07916	 10.01537	  4.89895	 14.77106	 -0.29521	 19.54555	704.16302	 23.30	
  7.988	-69.228	 18.98966	 11.41911	  7.73225	  5.13640	 14.47044	 -0.32793	 19.54452	704.08502	 23.30	
  7.997	-41.563	 19.02747	 13.42375	  5.90403	  6.30234	 13.08030	 -0.29185	 19.53493	704.18298	 23.30	
  8.008	-13.821	 19.10927	 14.61297	  4.91686	  8.27772	 10.92977	 -0.25093	 19.54142	704.07599	 23.30	
  8.008	 13.821	 19.16129	 14.64049	  4.89663	 10.60816	  8.59567	 -0.24077	 19.54651	704.11603	 23.30	
  7.997	 41.563	 19.20342	 13.52098	  5.87381	 12.74938	  6.64539	 -0.21276	 19.54002	704.20300	 23.30	
  7.988	 69.228	 19.20695	 11.54121	  7.66513	 14.15958	  5.45898	 -0.17673	 19.52544	704.17499	 23.30	
  8.006	 96.837	 19.24321	  9.24260	  9.97317	 14.51908	  5.23591	 -0.21615	 19.56745	704.21399	 23.30	
  7.997	124.550	 19.17651	  7.12744	 12.21846	 13.65061	  5.97848	 -0.19364	 19.54089	704.25500	 23.30	
  7.991	152.370	 19.09826	  5.67516	 13.87008	 11.81345	  7.61489	 -0.16738	 19.53205	704.27802	 23.30	
 12.009	161.059	 18.22839	  2.68568	 15.86017	 11.21742	  6.80868	 -0.51440	 19.52821	704.21002	 23.30	
 12.013	142.081	 18.30148	  3.69380	 14.62998	 13.42045	  4.82562	 -0.53355	 19.51894	704.23297	 23.30	
 12.006	123.113	 18.41037	  5.30385	 12.77098	 15.12416	  3.40093	 -0.57386	 19.53340	704.25598	 23.30	
 12.007	104.200	 18.44500	  7.36764	 10.46501	 16.10589	  2.55592	 -0.61804	 19.52701	704.05103	 23.30	
 11.989	 85.301	 18.48048	  9.71161	  8.06435	 16.27582	  2.39976	 -0.59652	 19.53081	704.22498	 23.30	
 12.013	 66.294	 18.46901	 12.07958	  5.81037	 15.61035	  2.88129	 -0.49924	 19.52110	704.19397	 23.30	
 12.012	 47.388	 18.43495	 14.12440	  3.96895	 14.18134	  4.03777	 -0.52388	 19.50872	704.24402	 23.30	
 11.990	 28.440	 18.43211	 15.67305	  2.69343	 12.21968	  5.73212	 -0.60514	 19.55749	704.18597	 23.30	
 11.991	  9.464	 18.35255	 16.43320	  2.05269	  9.88656	  7.85015	 -0.62748	 19.52825	704.17700	 23.30	
 11.991	 -9.464	 18.27086	 16.38974	  2.05919	  7.50779	 10.22016	 -0.62292	 19.51422	704.11499	 23.30	
 11.990	-28.440	 18.23862	 15.56314	  2.73394	  5.36343	 12.56632	 -0.62060	 19.54366	704.09302	 23.30	
 12.012	-47.388	 18.16739	 13.99875	  4.02923	  3.66778	 14.53382	 -0.66332	 19.54338	704.05402	 23.30	
 12.013	-66.294	 18.09769	 11.88365	  5.87466	  2.54299	 15.92071	 -0.71961	 19.54180	704.08398	 23.30	
 11.989	-85.301	 18.06293	  9.52440	  8.13684	  2.10479	 16.51992	 -0.70536	 19.54655	704.14801	 23.30	
 12.007	-104.200	 18.01375	  7.16911	 10.52844	  2.26507	 16.33212	 -0.66286	 19.54240	704.26703	 23.30	
 12.006	-123.113	 18.02112	  5.13930	 12.80737	  3.08688	 15.35174	 -0.56903	 19.55699	704.10101	 23.30	
 12.013	-142.081	 18.05733	  3.57639	 14.66716	  4.55412	 13.65302	 -0.56545	 19.55311	704.11200	 23.30	
 12.009	-161.059	 18.10744	  2.63587	 15.87829	  6.53418	 11.47182	 -0.57780	 19.54831	704.08099	 23.30	
 16.000	180.000	 16.88936	 -0.37030	 17.67903	  7.87073	  8.11235	 -0.89444	 19.50390	704.11298	 23.30	
 15.990	-165.604	 16.83081	 -0.16579	 17.38648	  5.59980	 10.46447	 -0.89975	 19.51921	704.16101	 23.30	
 16.002	-151.165	 16.78590	  0.48321	 16.46675	  3.54005	 12.77293	 -0.89676	 19.53443	704.11499	 23.30	
 16.002	-136.836	 16.72276	  1.59715	 14.94660	  1.83629	 14.78882	 -0.85011	 19.52123	704.09802	 23.30	
 15.995	-122.439	 16.72187	  3.13883	 13.00109	  0.58300	 16.39211	 -0.82658	 19.54038	704.20203	 23.30	
 15.993	-107.966	 16.70365	  5.07090	 10.72702	 -0.23197	 17.45597	 -0.86151	 19.53502	704.09003	 23.30	
 16.005	-93.629	 16.69610	  7.25775	  8.33966	 -0.59809	 17.89930	 -0.80141	 19.51113	704.15399	 23.30	
 15.992	-79.234	 16.73579	  9.62433	  6.01935	 -0.50039	 17.73942	 -0.75126	 19.51554	704.13000	 23.30	
 16.009	-64.774	 16.81870	 11.99859	  3.90272	  0.03198	 16.99983	 -0.76677	 19.53217	704.04700	 23.30	
 15.997	-50.364	 16.88962	 14.14197	  2.12548	  1.04605	 15.62556	 -0.79891	 19.51690	704.14099	 23.30	
 15.997	-36.045	 16.97882	 15.92363	  0.75198	  2.48999	 13.80996	 -0.81191	 19.53880	704.19897	 23.30	
 16.000	-21.597	 17.04249	 17.16737	 -0.18024	  4.34243	 11.62421	 -0.81338	 19.54012	704.21698	 23.30	
 16.003	 -7.169	 17.09566	 17.81236	 -0.64838	  6.52049	  9.23398	 -0.82072	 19.52433	704.20599	 23.30	
 16.003	  7.169	 17.16239	 17.84233	 -0.66903	  8.85960	  6.90289	 -0.82109	 19.52920	704.16901	 23.30	
 16.000	 21.597	 17.22331	 17.27279	 -0.23733	 11.22473	  4.73717	 -0.83046	 19.53534	704.27197	 23.30	
 15.997	 36.045	 17.29622	 16.09791	  0.67700	 13.43612	  2.88270	 -0.85029	 19.54357	704.21600	 23.30	
 15.997	 50.364	 17.32904	 14.39421	  2.02585	 15.32459	  1.38714	 -0.79757	 19.53212	704.08899	 23.30	
 16.009	 64.774	 17.35557	 12.30258	  3.78665	 16.72663	  0.35176	 -0.78451	 19.53482	704.14398	 23.30	
 15.992	 79.234	 17.33695	  9.95791	  5.92088	 17.53220	 -0.22358	 -0.86532	 19.51469	704.19397	 23.30	
 16.005	 93.629	 17.34866	  7.60230	  8.27410	 17.75015	 -0.32511	 -0.88029	 19.54207	704.10602	 23.30	
 15.993	107.966	 17.32313	  5.37837	 10.67632	 17.31182	  0.03680	 -0.87878	 19.54696	704.01099	 23.30	
 15.995	122.439	 17.26057	  3.38396	 12.97056	 16.24069	  0.84852	 -0.87162	 19.52593	704.02002	 23.30	
 16.002	136.836	 17.20333	  1.77484	 14.97616	 14.65923	  2.11181	 -0.86352	 19.56531	704.16101	 23.30	
 16.002	151.165	 17.07722	  0.60239	 16.45727	 12.59705	  3.79519	 -0.85541	 19.53412	704.11603	 23.30	
 15.990	165.604	 17.01028	 -0.11115	 17.40019	 10.27262	  5.86820	 -0.86981	 19.54228	704.17999	 23.30	
 20.003	168.362	 15.42083	 -2.65037	 18.50248	  9.05701	  4.73234	 -0.95313	 19.53278	704.19397	 23.30	
 20.008	156.764	 15.50235	 -2.13272	 17.79040	 11.39482	  2.71098	 -0.99604	 19.54812	704.13397	 23.30	
 20.000	145.147	 15.60101	 -1.27843	 16.55437	 13.57736	  0.96293	 -0.99307	 19.54752	704.10699	 23.30	
 19.995	133.545	 15.67907	 -0.07801	 14.85692	 15.45841	 -0.46282	 -0.94481	 19.51488	704.07599	 23.30	
 20.009	121.926	 15.76474	  1.42130	 12.84391	 17.02813	 -1.59389	 -0.85484	 19.54488	704.21899	 23.30	
 20.005	110.327	 15.83663	  3.26803	 10.60374	 18.10109	 -2.32128	 -0.76731	 19.55026	704.05798	 23.30	
 19.989	 98.733	 15.86882	  5.35041	  8.26418	 18.64928	 -2.68231	 -0.72538	 19.52625	704.12402	 23.30	
 19.999	 87.075	 15.89489	  7.61365	  5.93289	 18.73266	 -2.76999	 -0.76566	 19.53152	704.17102	 23.30	
 19.992	 75.457	 15.92341	  9.92286	  3.75587	 18.35123	 -2.52937	 -0.86696	 19.54659	704.24103	 23.30	
 20.009	 63.844	 15.87617	 12.16983	  1.78532	 17.43464	 -1.98331	 -0.91496	 19.51750	704.14398	 23.30	
 19.989	 52.269	 15.86217	 14.26482	  0.15006	 16.06118	 -1.04820	 -0.88944	 19.53687	704.12299	 23.30	
 19.999	 40.602	 15.80908	 16.06666	 -1.18923	 14.26461	  0.21041	 -0.82806	 19.52334	704.10101	 23.30	
 20.004	 29.051	 15.75617	 17.46492	 -2.15600	 12.19365	  1.80117	 -0.73354	 19.53292	704.09802	 23.30	
 20.005	 17.433	 15.68814	 18.40301	 -2.79889	  9.94099	  3.66399	 -0.67317	 19.53872	704.13800	 23.30	
 20.006	  5.780	 15.63684	 18.84350	 -3.11147	  7.61739	  5.76654	 -0.67767	 19.54347	704.15399	 23.30	
 20.006	 -5.780	 15.55554	 18.80631	 -3.09300	  5.35758	  8.03180	 -0.69213	 19.52093	704.12097	 23.30	
 20.005	-17.433	 15.49214	 18.30240	 -2.76920	  3.22861	 10.35810	 -0.72468	 19.52825	704.13397	 23.30	
 20.004	-29.051	 15.46005	 17.32380	 -2.11659	  1.37107	 12.61937	 -0.72054	 19.55704	704.10901	 23.40	
 19.999	-40.602	 15.41058	 15.86168	 -1.10168	 -0.15159	 14.64446	 -0.70854	 19.55580	704.06097	 23.40	
 19.989	-52.269	 15.32102	 13.97992	  0.24632	 -1.38624	 16.35909	 -0.68671	 19.53470	704.09198	 23.40	
 20.009	-63.844	 15.23756	 11.84653	  1.90582	 -2.26092	 17.65558	 -0.63475	 19.52455	704.12598	 23.40	
 19.992	-75.457	 15.17305	  9.53685	  3.86295	 -2.81780	 18.49167	 -0.61373	 19.52094	704.18500	 23.40	
 19.999	-87.075	 15.13556	  7.22945	  6.03031	 -3.04486	 18.86169	 -0.63829	 19.53341	704.09802	 23.40	
 19.989	-98.733	 15.09611	  4.98469	  8.32299	 -2.95261	 18.74715	 -0.69437	 19.53476	704.04999	 23.40	
 20.005	-110.327	 15.10095	  2.93441	 10.64807	 -2.54373	 18.18953	 -0.81713	 19.56590	704.09802	 23.40	
 20.009	-121.926	 15.07241	  1.16266	 12.82796	 -1.77859	 17.07452	 -0.92617	 19.51288	704.06500	 23.40	
 19.995	-133.545	 15.08722	 -0.29753	 14.83100	 -0.68965	 15.53816	 -0.94712	 19.49845	704.05103	 23.40	
 20.000	-145.147	 15.15679	 -1.42381	 16.49689	  0.73822	 13.67582	 -0.94624	 19.53143	704.13702	 23.40	
 20.008	-156.764	 15.21039	 -2.25066	 17.75215	  2.48528	 11.52142	 -0.88320	 19.54005	704.24200	 23.40	
 20.003	-168.362	 15.25071	 -2.68482	 18.47937	  4.50150	  9.23193	 -0.85998	 19.52201	704.16498	 23.40	
 20.000	180.000	 15.31147	 -2.83662	 18.71927	  6.70876	  6.92946	 -0.91138	 19.51161	704.20300	 23.40	
