FileType=PCF
NHL=14
Date=08/29/17	14:48:15
Facility=APL
Serial=16328-15
Customer=NASA
NP=6
Mach=0.150000
Calibration=1:1
CalPts=490
TstPts=95
PortNumbering=AP Standard
Units=Torr C m/s kg/m^3 deg mm 
Theta[deg]	Phi[deg]	P1[Torr]	P2[Torr]	P3[Torr]	P4[Torr]	P5[Torr]	P6[Torr]	Pt[Torr]	Ps[Abs,Torr]	Ts[C]	
  0.000	  0.000	 11.11147	  5.90145	  5.75664	  5.76812	  5.96188	  0.07767	 11.10066	704.04199	 23.70	
  1.691	128.401	 11.11183	  5.56410	  6.07789	  6.18141	  5.53012	  0.07675	 11.10223	704.16803	 23.70	
  1.692	 77.194	 11.11153	  6.00899	  5.62071	  6.27795	  5.42677	  0.07511	 11.10132	704.08899	 23.70	
  1.699	 26.182	 11.12531	  6.39150	  5.26138	  5.99011	  5.70567	  0.07177	 11.11696	704.13397	 23.70	
  1.699	-26.182	 11.11502	  6.38272	  5.25804	  5.51342	  6.17900	  0.06350	 11.10871	704.16803	 23.70	
  1.692	-77.194	 11.12456	  5.99181	  5.62983	  5.24486	  6.48423	  0.06594	 11.11831	704.27802	 23.70	
  1.691	-128.401	 11.08377	  5.52531	  6.07123	  5.33478	  6.34642	  0.06724	 11.07778	704.09601	 23.70	
  1.700	180.000	 11.08329	  5.34419	  6.27566	  5.74706	  5.93265	  0.07208	 11.07803	704.07501	 23.70	
  3.400	180.000	 11.07307	  4.75342	  6.82108	  5.69015	  5.86904	  0.05258	 11.08488	704.25598	 23.70	
  3.388	-152.325	 11.09006	  4.85326	  6.69716	  5.17949	  6.40836	  0.03688	 11.11182	704.19098	 23.70	
  3.397	-124.529	 11.06736	  5.16184	  6.31064	  4.78395	  6.82491	  0.03225	 11.09503	704.07501	 23.70	
  3.399	-96.763	 11.07023	  5.64672	  5.78947	  4.60209	  7.02885	  0.02711	 11.10018	704.17102	 23.70	
  3.394	-69.283	 11.07092	  6.19297	  5.24994	  4.64899	  6.95156	  0.02007	 11.09157	704.13800	 23.70	
  3.400	-41.398	 11.09252	  6.67909	  4.82006	  4.93081	  6.62932	  0.02194	 11.10438	704.18799	 23.70	
  3.401	-14.021	 11.10253	  6.95443	  4.59117	  5.37676	  6.14351	  0.02725	 11.10626	704.17102	 23.70	
  3.401	 14.021	 11.10260	  6.95765	  4.59752	  5.92824	  5.58085	  0.03516	 11.10201	704.18500	 23.70	
  3.400	 41.398	 11.10008	  6.68976	  4.83654	  6.41795	  5.13157	  0.04452	 11.09680	704.13202	 23.70	
  3.394	 69.283	 11.12085	  6.23258	  5.27306	  6.75597	  4.87926	  0.04471	 11.11766	704.19897	 23.70	
  3.399	 96.763	 11.11829	  5.69303	  5.81159	  6.83220	  4.83610	  0.05458	 11.11274	704.15698	 23.70	
  3.397	124.529	 11.12282	  5.23522	  6.31706	  6.64029	  5.01735	  0.05086	 11.12118	704.12402	 23.70	
  3.388	152.325	 11.11310	  4.90903	  6.68999	  6.23726	  5.38292	  0.04938	 11.11937	704.23700	 23.70	
  5.099	161.165	 11.04655	  4.19320	  7.27769	  6.17291	  5.24647	  0.00754	 11.10889	704.20599	 23.70	
  5.109	142.013	 11.05426	  4.44218	  6.98094	  6.69237	  4.76176	  0.00612	 11.10849	704.27899	 23.70	
  5.095	123.033	 11.08425	  4.84660	  6.54023	  7.09869	  4.42552	  0.00721	 11.12167	704.22400	 23.70	
  5.105	104.191	 11.09375	  5.34368	  6.00254	  7.34334	  4.21614	  0.00516	 11.12698	704.15503	 23.70	
  5.093	 85.207	 11.07060	  5.89806	  5.41360	  7.36714	  4.16316	  0.00515	 11.10217	704.10101	 23.70	
  5.104	 66.290	 11.07998	  6.46637	  4.87909	  7.21849	  4.28182	  0.00504	 11.10867	704.17102	 23.70	
  5.094	 47.331	 11.08057	  6.95652	  4.43316	  6.88291	  4.56011	 -0.00247	 11.10953	704.09302	 23.70	
  5.089	 28.397	 11.07946	  7.32294	  4.11132	  6.41899	  4.97464	 -0.00888	 11.11526	704.19598	 23.70	
  5.096	  9.576	 11.06671	  7.51011	  3.94273	  5.86465	  5.49409	 -0.01675	 11.11170	704.16901	 23.70	
  5.096	 -9.576	 11.04460	  7.49523	  3.93822	  5.27827	  6.06977	 -0.02457	 11.10291	704.24103	 23.70	
  5.089	-28.397	 11.04303	  7.29685	  4.11172	  4.77304	  6.62202	 -0.03163	 11.10883	704.17700	 23.70	
  5.094	-47.331	 11.01640	  6.91678	  4.43094	  4.34915	  7.08789	 -0.03596	 11.09946	704.24103	 23.70	
  5.104	-66.290	 11.01839	  6.42247	  4.89119	  4.06290	  7.43634	 -0.04145	 11.11208	704.19299	 23.70	
  5.093	-85.207	 11.01374	  5.86069	  5.43739	  3.94588	  7.58873	 -0.03690	 11.11913	704.21899	 23.70	
  5.105	-104.191	 11.02079	  5.29420	  6.02361	  3.99608	  7.55553	 -0.02968	 11.13184	704.25800	 23.70	
  5.095	-123.033	 11.00284	  4.79024	  6.54893	  4.20600	  7.29655	 -0.01830	 11.11365	704.33398	 23.70	
  5.109	-142.013	 11.00019	  4.40094	  6.98843	  4.56402	  6.88728	 -0.01056	 11.10245	704.24799	 23.70	
  5.099	-161.165	 11.02669	  4.17306	  7.28727	  5.05583	  6.37020	 -0.00479	 11.12106	704.27301	 23.70	
  5.100	180.000	 11.02455	  4.09859	  7.37218	  5.59711	  5.80034	  0.00268	 11.09972	704.15698	 23.70	
  6.800	180.000	 10.94096	  3.45221	  7.90666	  5.51144	  5.71093	 -0.06386	 11.12499	704.23700	 23.70	
  6.796	-166.229	 10.91990	  3.49577	  7.83438	  4.96352	  6.25994	 -0.06589	 11.11958	704.25897	 23.70	
  6.808	-152.311	 10.90249	  3.65828	  7.62353	  4.45484	  6.79685	 -0.07202	 11.11335	704.13000	 23.70	
  6.795	-138.383	 10.89277	  3.94260	  7.28146	  4.01377	  7.28434	 -0.08011	 11.11587	704.20203	 23.70	
  6.792	-124.591	 10.88385	  4.32524	  6.83620	  3.66730	  7.67371	 -0.08328	 11.11394	704.13702	 23.70	
  6.787	-110.754	 10.87833	  4.79220	  6.31982	  3.43120	  7.94292	 -0.09853	 11.11211	704.07300	 23.70	
  6.800	-96.985	 10.90006	  5.32430	  5.77560	  3.31040	  8.09524	 -0.11544	 11.12586	704.19598	 23.70	
  6.800	-83.015	 10.91132	  5.89557	  5.20486	  3.30912	  8.09195	 -0.11959	 11.12917	704.11298	 23.70	
  6.787	-69.246	 10.92469	  6.45064	  4.67666	  3.42386	  7.95299	 -0.12518	 11.13700	704.11200	 23.70	
  6.792	-55.409	 10.91062	  6.95004	  4.19108	  3.64117	  7.65842	 -0.12158	 11.11095	704.09900	 23.70	
  6.795	-41.617	 10.92998	  7.40106	  3.79881	  3.98210	  7.26979	 -0.11610	 11.11384	704.24103	 23.70	
  6.808	-27.689	 10.93087	  7.74270	  3.49311	  4.40952	  6.77254	 -0.10270	 11.09965	704.18298	 23.70	
  6.796	-13.771	 10.96194	  7.97120	  3.32152	  4.91998	  6.23920	 -0.09712	 11.11215	704.09302	 23.70	
  6.800	  0.000	 10.97612	  8.05129	  3.26180	  5.46408	  5.68492	 -0.09563	 11.12005	704.14001	 23.60	
  6.796	 13.771	 10.99962	  7.99505	  3.32295	  6.03481	  5.13561	 -0.08789	 11.12654	704.14600	 23.70	
  6.808	 27.689	 10.98726	  7.77626	  3.48943	  6.56411	  4.61791	 -0.07800	 11.10503	704.13000	 23.70	
  6.795	 41.617	 11.01040	  7.44948	  3.78919	  7.05644	  4.19909	 -0.07418	 11.12040	704.08099	 23.60	
  6.792	 55.409	 11.01132	  7.01182	  4.17861	  7.45016	  3.86225	 -0.06451	 11.12244	704.14600	 23.60	
  6.787	 69.246	 11.00722	  6.49894	  4.64800	  7.72505	  3.63509	 -0.05547	 11.10764	704.07001	 23.60	
  6.800	 83.015	 11.00430	  5.94705	  5.17106	  7.88032	  3.51305	 -0.06526	 11.10469	704.06201	 23.60	
  6.800	 96.985	 11.00393	  5.38525	  5.74182	  7.89001	  3.51560	 -0.06391	 11.10924	704.08099	 23.60	
  6.787	110.754	 10.99780	  4.86014	  6.29580	  7.74910	  3.64309	 -0.05896	 11.10793	704.15198	 23.60	
  6.792	124.591	 10.99830	  4.39247	  6.82155	  7.48363	  3.88278	 -0.05865	 11.11904	704.07300	 23.60	
  6.795	138.383	 11.00123	  4.00738	  7.27672	  7.10537	  4.22865	 -0.05527	 11.13634	704.14099	 23.60	
  6.808	152.311	 10.94880	  3.69158	  7.60235	  6.60730	  4.63997	 -0.05014	 11.10312	704.18298	 23.60	
  6.796	166.229	 10.94120	  3.51382	  7.82158	  6.07260	  5.15238	 -0.05568	 11.11239	704.04700	 23.60	
  8.491	168.704	 10.78311	  2.83828	  8.30922	  5.95583	  5.00087	 -0.13400	 11.10223	704.22400	 23.60	
  8.502	157.493	 10.80836	  2.98677	  8.14283	  6.51516	  4.48396	 -0.12199	 11.11287	704.09302	 23.60	
  8.494	146.194	 10.82925	  3.23532	  7.84902	  7.03886	  4.01163	 -0.12777	 11.10804	704.06500	 23.60	
  8.495	135.039	 10.84131	  3.56348	  7.46142	  7.49846	  3.60176	 -0.14111	 11.10593	704.14099	 23.60	
  8.487	123.723	 10.86683	  3.98307	  6.99006	  7.88536	  3.27701	 -0.14151	 11.11263	704.07599	 23.60	
  8.492	112.575	 10.87952	  4.45644	  6.46965	  8.16468	  3.04096	 -0.14559	 11.11283	704.21100	 23.60	
  8.510	101.220	 10.86954	  4.97912	  5.88984	  8.32306	  2.88673	 -0.15065	 11.09892	704.24799	 23.60	
  8.500	 90.000	 10.87764	  5.53807	  5.31869	  8.37474	  2.83804	 -0.15600	 11.10203	704.08398	 23.60	
  8.510	 78.780	 10.88723	  6.11563	  4.75692	  8.31813	  2.87811	 -0.14339	 11.10634	704.26202	 23.60	
  8.492	 67.425	 10.89590	  6.67844	  4.22887	  8.13532	  3.02687	 -0.13084	 11.11434	704.22699	 23.60	
  8.487	 56.277	 10.88690	  7.18488	  3.75460	  7.84265	  3.25717	 -0.13804	 11.10690	704.21100	 23.60	
  8.495	 44.961	 10.87437	  7.64490	  3.33810	  7.44905	  3.57397	 -0.15319	 11.10227	704.28699	 23.50	
  8.494	 33.806	 10.88174	  8.03198	  3.01615	  6.99113	  3.98629	 -0.15702	 11.12170	704.26202	 23.50	
  8.502	 22.507	 10.86191	  8.30548	  2.77071	  6.45989	  4.44852	 -0.16336	 11.11020	704.12402	 23.50	
  8.491	 11.296	 10.85500	  8.47346	  2.63329	  5.90602	  4.97729	 -0.17554	 11.11944	704.10400	 23.50	
  8.500	  0.000	 10.83995	  8.52808	  2.58358	  5.32299	  5.54701	 -0.18519	 11.11490	704.09003	 23.50	
  8.491	-11.296	 10.81129	  8.44673	  2.63318	  4.75666	  6.11112	 -0.18065	 11.10007	704.23401	 23.50	
  8.502	-22.507	 10.79154	  8.26626	  2.77335	  4.23270	  6.66605	 -0.18174	 11.09392	704.17499	 23.50	
  8.494	-33.806	 10.78344	  7.97280	  3.02367	  3.75734	  7.19934	 -0.19934	 11.10024	704.14398	 23.50	
  8.495	-44.961	 10.75997	  7.58014	  3.34927	  3.34781	  7.65931	 -0.21050	 11.09758	704.27899	 23.50	
  8.487	-56.277	 10.77102	  7.12289	  3.77971	  3.03894	  8.05736	 -0.21756	 11.12201	704.21100	 23.50	
  8.492	-67.425	 10.75033	  6.59822	  4.25038	  2.80539	  8.33714	 -0.22280	 11.11713	704.32703	 23.50	
  8.510	-78.780	 10.73144	  6.02812	  4.78158	  2.65489	  8.51471	 -0.22345	 11.10711	704.29303	 23.50	
  8.500	-90.000	 10.71371	  5.44921	  5.34561	  2.61350	  8.56798	 -0.21760	 11.10271	704.22998	 23.50	
  8.510	-101.220	 10.71710	  4.89300	  5.92245	  2.66246	  8.52201	 -0.20025	 11.11138	704.13800	 23.50	
  8.492	-112.575	 10.74388	  4.37741	  6.50916	  2.83059	  8.36391	 -0.17540	 11.14149	704.14398	 23.50	
  8.487	-123.723	 10.70765	  3.89903	  7.00522	  3.06647	  8.05169	 -0.16023	 11.09977	704.21698	 23.50	
  8.495	-135.039	 10.72120	  3.49587	  7.48055	  3.39430	  7.68666	 -0.15987	 11.11061	704.27197	 23.50	
  8.494	-146.194	 10.72654	  3.18109	  7.85629	  3.80393	  7.21972	 -0.15766	 11.10443	704.14398	 23.50	
  8.502	-157.493	 10.73525	  2.94998	  8.14081	  4.28965	  6.68990	 -0.14578	 11.09620	704.10602	 23.50	
  8.491	-168.704	 10.78008	  2.82884	  8.33328	  4.82722	  6.15539	 -0.14422	 11.12971	704.18597	 23.50	
  8.500	180.000	 10.75955	  2.77596	  8.37001	  5.37119	  5.56570	 -0.14699	 11.09395	704.14099	 23.50	
 10.200	180.000	 10.58336	  2.09903	  8.83337	  5.22544	  5.41269	 -0.23917	 11.11343	704.19397	 23.50	
 10.191	-170.497	 10.56677	  2.12353	  8.78670	  4.65692	  5.98431	 -0.24036	 11.11299	704.21600	 23.50	
 10.210	-161.034	 10.53769	  2.23040	  8.62853	  4.11089	  6.54298	 -0.23666	 11.09494	704.08398	 23.50	
 10.194	-151.526	 10.53284	  2.43210	  8.38175	  3.60398	  7.10249	 -0.24139	 11.10149	704.26703	 23.50	
 10.190	-142.105	 10.52299	  2.69862	  8.04866	  3.15587	  7.60078	 -0.24515	 11.10604	704.21002	 23.50	
 10.215	-132.646	 10.49592	  3.03055	  7.62676	  2.76112	  8.03242	 -0.24264	 11.09058	704.11298	 23.50	
 10.203	-123.092	 10.50447	  3.44924	  7.15164	  2.44278	  8.41660	 -0.24708	 11.10911	704.09802	 23.50	
 10.192	-113.678	 10.49635	  3.91782	  6.61516	  2.19637	  8.70009	 -0.26026	 11.10221	704.11798	 23.50	
 10.208	-104.249	 10.50023	  4.43315	  6.05696	  2.02399	  8.90551	 -0.29047	 11.10736	704.27502	 23.50	
 10.210	-94.801	 10.49265	  4.97735	  5.47145	  1.93302	  8.99292	 -0.31319	 11.08996	704.17902	 23.50	
 10.210	-85.199	 10.51270	  5.56954	  4.88886	  1.93089	  9.00337	 -0.32291	 11.10330	704.14600	 23.50	
 10.208	-75.751	 10.53810	  6.15305	  4.33854	  2.01028	  8.91103	 -0.32749	 11.11661	704.32599	 23.50	
 10.192	-66.322	 10.55153	  6.71473	  3.81884	  2.17688	  8.70580	 -0.32529	 11.11547	704.32397	 23.50	
 10.203	-56.908	 10.55820	  7.24186	  3.33702	  2.41021	  8.40755	 -0.31288	 11.10764	704.30603	 23.50	
 10.215	-47.354	 10.55056	  7.71731	  2.89924	  2.71401	  8.01164	 -0.30090	 11.08220	704.19897	 23.50	
 10.190	-37.895	 10.61927	  8.16947	  2.56403	  3.10966	  7.60559	 -0.28911	 11.13954	704.17902	 23.50	
 10.194	-28.474	 10.60673	  8.48685	  2.27516	  3.54205	  7.08182	 -0.27405	 11.10395	704.22998	 23.50	
 10.210	-18.966	 10.61875	  8.74409	  2.06509	  4.04248	  6.52648	 -0.27196	 11.10683	704.29797	 23.50	
 10.191	 -9.503	 10.63910	  8.90140	  1.94799	  4.58371	  5.96117	 -0.26997	 11.10929	704.34100	 23.50	
 10.200	  0.000	 10.65236	  8.96223	  1.89895	  5.14634	  5.38240	 -0.27098	 11.10577	704.30298	 23.50	
 10.191	  9.503	 10.66381	  8.91952	  1.93562	  5.73111	  4.80606	 -0.27030	 11.10722	704.33502	 23.50	
 10.210	 18.966	 10.67449	  8.77982	  2.05017	  6.29848	  4.26730	 -0.26312	 11.10314	704.26202	 23.50	
 10.194	 28.474	 10.70960	  8.55283	  2.26013	  6.86122	  3.77937	 -0.24808	 11.12184	704.27802	 23.50	
 10.190	 37.895	 10.71105	  8.21796	  2.53296	  7.36900	  3.32811	 -0.24160	 11.11264	704.32098	 23.50	
 10.215	 47.354	 10.70742	  7.80704	  2.87331	  7.81826	  2.93383	 -0.23185	 11.10085	704.33398	 23.50	
 10.203	 56.908	 10.73649	  7.34377	  3.31100	  8.21190	  2.63762	 -0.21729	 11.12382	704.23401	 23.50	
 10.192	 66.322	 10.74230	  6.81892	  3.79253	  8.50270	  2.41080	 -0.20669	 11.11942	704.45203	 23.50	
 10.208	 75.751	 10.71960	  6.25217	  4.30134	  8.69727	  2.24158	 -0.22487	 11.09999	704.19397	 23.50	
 10.210	 85.199	 10.72495	  5.68333	  4.86119	  8.81504	  2.16010	 -0.24648	 11.10334	704.38202	 23.50	
 10.210	 94.801	 10.71813	  5.09571	  5.44840	  8.81980	  2.16297	 -0.25590	 11.10383	704.16803	 23.50	
 10.208	104.249	 10.70898	  4.54212	  6.02714	  8.72427	  2.24575	 -0.24747	 11.10067	704.34100	 23.50	
 10.192	113.678	 10.71611	  4.03163	  6.60200	  8.54054	  2.42078	 -0.23673	 11.11575	704.29797	 23.50	
 10.203	123.092	 10.68629	  3.54811	  7.12713	  8.24796	  2.65448	 -0.23308	 11.10113	704.30298	 23.50	
 10.215	132.646	 10.66686	  3.11805	  7.61620	  7.88083	  2.95930	 -0.23100	 11.09717	704.32098	 23.50	
 10.190	142.105	 10.64524	  2.76822	  8.02635	  7.42615	  3.35152	 -0.21948	 11.09408	704.40302	 23.50	
 10.194	151.526	 10.64039	  2.49040	  8.37288	  6.92754	  3.80657	 -0.20597	 11.10577	704.22400	 23.50	
 10.210	161.034	 10.61393	  2.27171	  8.62425	  6.38057	  4.30128	 -0.20838	 11.10554	704.27301	 23.50	
 10.191	170.497	 10.59922	  2.15221	  8.77271	  5.81250	  4.83964	 -0.22410	 11.10416	704.16901	 23.50	
 11.899	171.783	 10.37397	  1.46477	  9.20497	  5.63685	  4.65039	 -0.32017	 11.11256	704.29797	 23.50	
 11.890	163.610	 10.38332	  1.57095	  9.06786	  6.20493	  4.10704	 -0.30329	 11.10444	704.30902	 23.50	
 11.889	155.445	 10.41128	  1.75360	  8.85501	  6.76752	  3.60076	 -0.29274	 11.11375	704.06799	 23.50	
 11.909	147.299	 10.44043	  1.99204	  8.56940	  7.31364	  3.12184	 -0.30158	 11.12355	704.27197	 23.50	
 11.902	139.148	 10.45004	  2.30398	  8.18093	  7.79040	  2.70105	 -0.30747	 11.10811	704.19098	 23.50	
 11.894	130.867	 10.46810	  2.68280	  7.73343	  8.21494	  2.34341	 -0.31417	 11.10465	704.19098	 23.50	
 11.897	122.732	 10.50330	  3.10838	  7.25494	  8.59870	  2.03912	 -0.32766	 11.12565	704.20599	 23.50	
 11.903	114.597	 10.49710	  3.56950	  6.70889	  8.87856	  1.78978	 -0.33596	 11.10816	704.22198	 23.50	
 11.893	106.346	 10.51008	  4.09395	  6.13260	  9.08680	  1.61764	 -0.34838	 11.10743	704.16803	 23.50	
 11.892	 98.155	 10.51190	  4.63856	  5.54655	  9.20594	  1.50753	 -0.35630	 11.10106	704.22400	 23.40	
 11.900	 90.000	 10.54276	  5.21586	  4.97379	  9.26582	  1.46908	 -0.35283	 11.12874	704.29602	 23.40	
 11.892	 81.845	 10.52434	  5.78412	  4.39026	  9.19056	  1.50563	 -0.33148	 11.10507	704.22699	 23.40	
 11.893	 73.654	 10.54264	  6.36959	  3.84702	  9.06795	  1.60777	 -0.30717	 11.12502	704.39301	 23.40	
 11.903	 65.403	 10.51513	  6.91441	  3.31685	  8.82181	  1.77434	 -0.28923	 11.10080	704.26202	 23.40	
 11.897	 57.268	 10.50069	  7.43250	  2.84326	  8.50644	  2.01366	 -0.29411	 11.08470	704.32098	 23.40	
 11.894	 49.133	 10.51434	  7.92577	  2.43084	  8.14201	  2.32264	 -0.30128	 11.10372	704.35101	 23.40	
 11.902	 40.852	 10.50966	  8.36285	  2.05844	  7.70852	  2.67873	 -0.32446	 11.11560	704.36798	 23.40	
 11.909	 32.701	 10.46195	  8.69399	  1.75304	  7.19153	  3.08339	 -0.33946	 11.07491	704.27502	 23.40	
 11.889	 24.555	 10.49267	  9.01548	  1.52748	  6.68072	  3.57209	 -0.34904	 11.11917	704.38300	 23.40	
 11.890	 16.390	 10.47111	  9.21457	  1.35808	  6.11830	  4.07810	 -0.36037	 11.11605	704.34900	 23.40	
 11.899	  8.217	 10.46051	  9.33967	  1.25840	  5.54701	  4.61913	 -0.36513	 11.11806	704.27301	 23.40	
 11.900	  0.000	 10.44474	  9.37509	  1.22707	  4.96043	  5.19604	 -0.36098	 11.11671	704.19897	 23.40	
 11.899	 -8.217	 10.41793	  9.31447	  1.26199	  4.38396	  5.77075	 -0.35769	 11.10869	704.32397	 23.40	
 11.890	-16.390	 10.41337	  9.18431	  1.37052	  3.84835	  6.34755	 -0.35671	 11.12070	704.13800	 23.40	
 11.889	-24.555	 10.39064	  8.95463	  1.54642	  3.33408	  6.90522	 -0.36099	 11.11214	704.27301	 23.40	
 11.909	-32.701	 10.38690	  8.66722	  1.78292	  2.86918	  7.44569	 -0.36783	 11.12527	704.31000	 23.40	
 11.902	-40.852	 10.34887	  8.27551	  2.08876	  2.45592	  7.90954	 -0.37832	 11.10097	704.34497	 23.40	
 11.894	-49.133	 10.34173	  7.83647	  2.46296	  2.09350	  8.35776	 -0.38707	 11.11210	704.34100	 23.50	
 11.897	-57.268	 10.32981	  7.34798	  2.88376	  1.79293	  8.72982	 -0.40139	 11.11502	704.30603	 23.40	
 11.903	-65.403	 10.31326	  6.81242	  3.35820	  1.55628	  9.03050	 -0.41011	 11.11709	704.16101	 23.40	
 11.893	-73.654	 10.28169	  6.23074	  3.87530	  1.38872	  9.23115	 -0.41444	 11.09794	704.29303	 23.50	
 11.892	-81.845	 10.28642	  5.66309	  4.43187	  1.29469	  9.37441	 -0.41482	 11.11694	704.04999	 23.40	
 11.900	-90.000	 10.25364	  5.07217	  4.99238	  1.26161	  9.39966	 -0.40772	 11.09107	704.17102	 23.40	
 11.892	-98.155	 10.26087	  4.51369	  5.57882	  1.30181	  9.36866	 -0.39653	 11.10416	704.19299	 23.40	
 11.893	-106.346	 10.25227	  3.96647	  6.15743	  1.40525	  9.24288	 -0.38237	 11.10811	704.25897	 23.40	
 11.903	-114.597	 10.26856	  3.45940	  6.73577	  1.57749	  9.05047	 -0.35090	 11.12380	704.18597	 23.40	
 11.897	-122.732	 10.26019	  2.99237	  7.26352	  1.82472	  8.74347	 -0.33017	 11.11263	704.27301	 23.40	
 11.894	-130.867	 10.28236	  2.58539	  7.76074	  2.13935	  8.38666	 -0.32753	 11.13091	704.22699	 23.40	
 11.902	-139.148	 10.26717	  2.21951	  8.18577	  2.50780	  7.93445	 -0.32797	 11.09879	704.19897	 23.40	
 11.909	-147.299	 10.30497	  1.92998	  8.57700	  2.93341	  7.47435	 -0.33846	 11.12934	704.15198	 23.40	
 11.889	-155.445	 10.30429	  1.70952	  8.85550	  3.40824	  6.93550	 -0.33548	 11.11047	704.30402	 23.40	
 11.890	-163.610	 10.31187	  1.54724	  9.06449	  3.92516	  6.36925	 -0.32983	 11.10431	704.11200	 23.40	
 11.899	-171.783	 10.32108	  1.44598	  9.19280	  4.46804	  5.79633	 -0.33312	 11.09957	704.22198	 23.40	
 11.900	180.000	 10.34580	  1.41882	  9.24152	  5.04050	  5.22275	 -0.32704	 11.10831	704.19897	 23.40	
 13.600	180.000	 10.07673	  0.75265	  9.62253	  4.83668	  5.00767	 -0.42377	 11.11071	704.25000	 23.40	
 13.608	-172.853	 10.04681	  0.76396	  9.58065	  4.26650	  5.56956	 -0.43115	 11.10160	704.27899	 23.40	
 13.611	-165.583	 10.03613	  0.84375	  9.47035	  3.71239	  6.15286	 -0.43279	 11.10472	704.25800	 23.40	
 13.601	-158.353	 10.01839	  0.98885	  9.27175	  3.18254	  6.72247	 -0.42987	 11.09958	704.28101	 23.40	
 13.609	-151.210	  9.99893	  1.18091	  9.00528	  2.69518	  7.25839	 -0.42280	 11.09748	704.27802	 23.40	
 13.611	-143.999	  9.99071	  1.43287	  8.67864	  2.25100	  7.76858	 -0.41861	 11.10133	704.34497	 23.40	
 13.601	-136.825	  9.99769	  1.74604	  8.29517	  1.85906	  8.25305	 -0.40555	 11.11985	704.24799	 23.40	
 13.596	-129.640	  9.95711	  2.10449	  7.81570	  1.50256	  8.64793	 -0.40047	 11.08401	704.34100	 23.40	
 13.611	-122.431	  9.96298	  2.51355	  7.32973	  1.20601	  9.01915	 -0.40573	 11.10223	704.21698	 23.40	
 13.604	-115.211	  9.96527	  2.97384	  6.79875	  0.97717	  9.31007	 -0.42033	 11.10522	704.29498	 23.40	
 13.595	-108.042	  9.96170	  3.47276	  6.23525	  0.80095	  9.52730	 -0.45101	 11.09936	704.37598	 23.40	
 13.607	-100.793	  9.97227	  4.00668	  5.65725	  0.67337	  9.68817	 -0.46679	 11.10481	704.38501	 23.40	
 13.601	-93.617	  9.97449	  4.56280	  5.07469	  0.61129	  9.75769	 -0.47338	 11.10069	704.27301	 23.40	
 13.601	-86.383	  9.99743	  5.14594	  4.49856	  0.60510	  9.77040	 -0.46833	 11.11787	704.41901	 23.40	
 13.607	-79.207	  9.99150	  5.71376	  3.93227	  0.65527	  9.67831	 -0.46707	 11.10354	704.30603	 23.40	
 13.595	-71.958	 10.01566	  6.29936	  3.39796	  0.77369	  9.53286	 -0.46796	 11.10901	704.25800	 23.40	
 13.604	-64.789	 10.03924	  6.87088	  2.89286	  0.94245	  9.31868	 -0.45962	 11.12235	704.18298	 23.40	
 13.611	-57.569	 10.04181	  7.40178	  2.41816	  1.16452	  9.01335	 -0.45597	 11.11030	704.33502	 23.40	
 13.596	-50.360	 10.06430	  7.90308	  2.00096	  1.45416	  8.65436	 -0.44572	 11.11382	704.19897	 23.40	
 13.601	-43.175	 10.07262	  8.35042	  1.62526	  1.79094	  8.22404	 -0.43981	 11.10213	704.32098	 23.40	
 13.611	-36.001	 10.10087	  8.76450	  1.30236	  2.18391	  7.75924	 -0.43495	 11.11414	704.29797	 23.40	
 13.609	-28.790	 10.10802	  9.09316	  1.03792	  2.61922	  7.23861	 -0.43388	 11.10368	704.28198	 23.40	
 13.601	-21.647	 10.14013	  9.37270	  0.83425	  3.09946	  6.70688	 -0.43225	 11.11982	704.20801	 23.40	
 13.611	-14.417	 10.11720	  9.53762	  0.68006	  3.60939	  6.10985	 -0.42998	 11.07954	704.28198	 23.40	
 13.608	 -7.147	 10.14888	  9.67473	  0.58947	  4.16296	  5.53974	 -0.42779	 11.09824	704.21100	 23.40	
 13.600	  0.000	 10.17555	  9.72903	  0.56113	  4.72874	  4.97737	 -0.43492	 11.10434	704.17902	 23.40	
 13.608	  7.147	 10.17328	  9.68893	  0.57781	  5.29934	  4.39716	 -0.43299	 11.09147	704.28601	 23.40	
 13.611	 14.417	 10.20824	  9.60360	  0.66434	  5.89055	  3.85755	 -0.43878	 11.11681	704.27197	 23.40	
 13.601	 21.647	 10.19936	  9.39533	  0.80702	  6.44754	  3.33196	 -0.43192	 11.08795	704.30402	 23.40	
 13.609	 28.790	 10.24493	  9.17575	  1.00844	  7.01978	  2.85547	 -0.42374	 11.12317	704.24103	 23.40	
 13.611	 36.001	 10.24085	  8.83811	  1.26525	  7.53064	  2.40721	 -0.41148	 11.10926	704.29498	 23.40	
 13.601	 43.175	 10.25540	  8.44979	  1.58858	  8.00437	  2.02375	 -0.39427	 11.10359	704.30902	 23.40	
 13.596	 50.360	 10.27510	  8.01791	  1.95501	  8.44557	  1.67733	 -0.37445	 11.11580	704.18500	 23.40	
 13.611	 57.569	 10.26958	  7.52168	  2.36694	  8.82088	  1.36946	 -0.36531	 11.10672	704.38202	 23.40	
 13.604	 64.789	 10.26126	  6.98584	  2.83227	  9.11770	  1.13576	 -0.36777	 11.09354	704.41302	 23.40	
 13.595	 71.958	 10.27635	  6.44130	  3.34352	  9.35856	  0.96881	 -0.38526	 11.10337	704.26202	 23.40	
 13.607	 79.207	 10.28695	  5.87284	  3.89168	  9.52893	  0.85247	 -0.41489	 11.11429	704.27502	 23.40	
 13.601	 86.383	 10.28804	  5.29816	  4.45717	  9.61019	  0.80275	 -0.43561	 11.10872	704.27899	 23.40	
 13.601	 93.617	 10.26037	  4.70003	  5.03363	  9.59492	  0.80681	 -0.44321	 11.08526	704.24799	 23.40	
 13.607	100.793	 10.27188	  4.15462	  5.62366	  9.54855	  0.86263	 -0.44954	 11.11107	704.30103	 23.40	
 13.595	108.042	 10.26820	  3.61582	  6.21394	  9.40547	  0.98689	 -0.44168	 11.11191	704.39899	 23.40	
 13.604	115.211	 10.25073	  3.10624	  6.77704	  9.18641	  1.15913	 -0.43688	 11.11174	704.42999	 23.40	
 13.611	122.431	 10.22694	  2.63563	  7.31342	  8.88629	  1.39524	 -0.42170	 11.10327	704.36200	 23.40	
 13.596	129.640	 10.20036	  2.21722	  7.80504	  8.50887	  1.69839	 -0.40550	 11.08796	704.32397	 23.40	
 13.601	136.825	 10.20781	  1.84722	  8.27997	  8.10788	  2.05305	 -0.39168	 11.11491	704.32898	 23.40	
 13.611	143.999	 10.19335	  1.51860	  8.68842	  7.64991	  2.44008	 -0.38973	 11.12850	704.37402	 23.40	
 13.609	151.210	 10.14440	  1.24608	  9.00167	  7.11692	  2.87480	 -0.37915	 11.09864	704.21002	 23.40	
 13.601	158.353	 10.11766	  1.03508	  9.25944	  6.56351	  3.36136	 -0.38521	 11.09393	704.33197	 23.40	
 13.611	165.583	 10.08664	  0.87442	  9.44497	  5.98449	  3.87731	 -0.39631	 11.08026	704.32397	 23.40	
 13.608	172.853	 10.09986	  0.78762	  9.58937	  5.42179	  4.44162	 -0.40815	 11.11673	704.24701	 23.40	
 15.298	173.587	  9.78491	  0.13033	  9.92121	  5.18617	  4.19585	 -0.49193	 11.11068	704.44702	 23.40	
 15.291	167.167	  9.80915	  0.20389	  9.83101	  5.76149	  3.65690	 -0.48044	 11.11820	704.22198	 23.40	
 15.307	160.676	  9.81375	  0.33612	  9.64589	  6.33218	  3.12221	 -0.46733	 11.09890	704.24799	 23.40	
 15.300	154.261	  9.83908	  0.52267	  9.41185	  6.89785	  2.62689	 -0.46348	 11.10681	704.29602	 23.40	
 15.288	147.854	  9.88228	  0.76679	  9.12504	  7.43752	  2.18730	 -0.46525	 11.12815	704.26398	 23.40	
 15.293	141.428	  9.88147	  1.04854	  8.74157	  7.91559	  1.77133	 -0.46242	 11.09584	704.32098	 23.40	
 15.299	134.985	  9.89959	  1.37428	  8.32148	  8.37684	  1.38892	 -0.47217	 11.09529	704.31201	 23.30	
 15.305	128.583	  9.92501	  1.75340	  7.86095	  8.79330	  1.05982	 -0.47910	 11.10407	704.28198	 23.40	
 15.309	122.142	  9.95522	  2.17268	  7.36118	  9.15940	  0.77802	 -0.48766	 11.11995	704.32397	 23.40	
 15.304	115.711	  9.97128	  2.63528	  6.82154	  9.44906	  0.55495	 -0.49524	 11.11471	704.40802	 23.40	
 15.297	109.291	  9.97210	  3.12588	  6.25195	  9.66529	  0.37559	 -0.49915	 11.10167	704.30103	 23.40	
 15.293	102.897	 10.00423	  3.65625	  5.69030	  9.84911	  0.24995	 -0.50484	 11.12590	704.26202	 23.40	
 15.293	 96.458	  9.98750	  4.20160	  5.08722	  9.91750	  0.17104	 -0.50251	 11.09586	704.19397	 23.40	
 15.300	 90.000	  9.97970	  4.76465	  4.49808	  9.93344	  0.14051	 -0.50273	 11.08413	704.32703	 23.40	
 15.293	 83.542	  9.98787	  5.34328	  3.92637	  9.89263	  0.16618	 -0.49005	 11.09340	704.36603	 23.40	
 15.293	 77.103	 10.01376	  5.92790	  3.38562	  9.80559	  0.23967	 -0.47082	 11.11803	704.34100	 23.40	
 15.297	 70.709	 10.00239	  6.48402	  2.85881	  9.61720	  0.36765	 -0.44315	 11.10352	704.32397	 23.40	
 15.304	 64.289	 10.01072	  7.04702	  2.36284	  9.38643	  0.53947	 -0.43019	 11.11884	704.36499	 23.30	
 15.309	 57.858	  9.97615	  7.55170	  1.89788	  9.05666	  0.76104	 -0.42440	 11.09196	704.28998	 23.30	
 15.305	 51.417	  9.98783	  8.05737	  1.48298	  8.70529	  1.03841	 -0.43598	 11.11217	704.34802	 23.40	
 15.299	 45.015	  9.98546	  8.51557	  1.11892	  8.28641	  1.37283	 -0.45269	 11.11935	704.34900	 23.30	
 15.293	 38.572	  9.96708	  8.91092	  0.79899	  7.80458	  1.75087	 -0.46188	 11.11045	704.30603	 23.40	
 15.288	 32.146	  9.96699	  9.27077	  0.52898	  7.31046	  2.16836	 -0.46941	 11.12241	704.30603	 23.30	
 15.300	 25.739	  9.93037	  9.54002	  0.30217	  6.76436	  2.60729	 -0.47146	 11.10064	704.22998	 23.30	
 15.307	 19.324	  9.92222	  9.77581	  0.12900	  6.20578	  3.10213	 -0.47575	 11.10865	704.20599	 23.30	
 15.291	 12.833	  9.90769	  9.93030	  0.01299	  5.63130	  3.62795	 -0.47405	 11.09860	704.08398	 23.40	
 15.298	  6.413	  9.89519	 10.02869	 -0.06180	  5.06201	  4.16821	 -0.47200	 11.11002	704.22498	 23.40	
 15.300	  0.000	  9.88955	 10.06355	 -0.08442	  4.48813	  4.73861	 -0.46551	 11.11918	704.27301	 23.40	
 15.298	 -6.413	  9.85618	 10.00845	 -0.06095	  3.92207	  5.29835	 -0.46033	 11.10050	704.16302	 23.40	
 15.291	-12.833	  9.84605	  9.90154	  0.02013	  3.38503	  5.87115	 -0.46204	 11.10542	704.19098	 23.40	
 15.307	-19.324	  9.83125	  9.72856	  0.14786	  2.85303	  6.45904	 -0.46609	 11.11585	704.32098	 23.40	
 15.300	-25.739	  9.80653	  9.47703	  0.32684	  2.36946	  7.00007	 -0.46592	 11.10086	704.47498	 23.30	
 15.288	-32.146	  9.80335	  9.18187	  0.56206	  1.92999	  7.53432	 -0.46873	 11.10720	704.39301	 23.40	
 15.293	-38.572	  9.78164	  8.81481	  0.83725	  1.51620	  8.03054	 -0.47055	 11.10661	704.30103	 23.40	
 15.299	-45.015	  9.77022	  8.40319	  1.16231	  1.14035	  8.50023	 -0.46700	 11.11595	704.35101	 23.40	
 15.305	-51.417	  9.76590	  7.94990	  1.53616	  0.83277	  8.91477	 -0.46505	 11.12826	704.23901	 23.40	
 15.309	-57.858	  9.74000	  7.43691	  1.95240	  0.56453	  9.26266	 -0.46608	 11.11897	704.28101	 23.40	
 15.304	-64.289	  9.73065	  6.90622	  2.41385	  0.34626	  9.56538	 -0.46480	 11.12571	704.33398	 23.40	
 15.297	-70.709	  9.70734	  6.33531	  2.90693	  0.17538	  9.79135	 -0.45748	 11.11214	704.34802	 23.40	
 15.293	-77.103	  9.68678	  5.75981	  3.42732	  0.05353	  9.95191	 -0.45698	 11.10772	704.41101	 23.40	
 15.293	-83.542	  9.66940	  5.17468	  3.97405	 -0.02096	 10.05462	 -0.46872	 11.10668	704.42999	 23.30	
 15.300	-90.000	  9.67222	  4.59967	  4.55048	 -0.04992	 10.10797	 -0.48454	 11.12490	704.34302	 23.30	
 15.293	-96.458	  9.64755	  4.02813	  5.12239	 -0.01691	 10.05469	 -0.49812	 11.10722	704.43903	 23.40	
 15.293	-102.897	  9.64195	  3.48271	  5.70142	  0.06468	  9.95433	 -0.50200	 11.10134	704.36200	 23.30	
 15.297	-109.291	  9.65183	  2.97475	  6.27910	  0.19436	  9.80108	 -0.49283	 11.11491	704.43597	 23.40	
 15.304	-115.711	  9.63434	  2.48528	  6.82732	  0.37592	  9.55155	 -0.47458	 11.09281	704.30902	 23.30	
 15.309	-122.142	  9.66966	  2.04314	  7.38496	  0.60559	  9.28822	 -0.46556	 11.12924	704.23102	 23.30	
 15.305	-128.583	  9.63845	  1.62966	  7.85535	  0.87901	  8.90005	 -0.46250	 11.08765	704.34497	 23.30	
 15.299	-134.985	  9.65543	  1.26973	  8.32523	  1.20212	  8.50914	 -0.47152	 11.10178	704.37402	 23.30	
 15.293	-141.428	  9.68266	  0.95764	  8.75577	  1.58584	  8.06590	 -0.48632	 11.11687	704.35699	 23.30	
 15.288	-147.854	  9.68599	  0.69585	  9.10250	  2.00916	  7.55476	 -0.49728	 11.10603	704.32397	 23.30	
 15.300	-154.261	  9.71312	  0.47256	  9.42313	  2.46354	  7.04524	 -0.50488	 11.12633	704.19098	 23.40	
 15.307	-160.676	  9.72564	  0.30407	  9.65862	  2.95278	  6.49653	 -0.50253	 11.11926	704.29797	 23.40	
 15.291	-167.167	  9.73637	  0.19280	  9.82122	  3.49386	  5.91232	 -0.50974	 11.11403	704.30103	 23.40	
 15.298	-173.587	  9.75632	  0.12404	  9.92598	  4.04504	  5.34189	 -0.50587	 11.11698	704.27197	 23.40	
 15.300	180.000	  9.75898	  0.10026	  9.94782	  4.59912	  4.76314	 -0.50351	 11.09837	704.19897	 23.30	
 17.000	180.000	  9.41669	 -0.53037	 10.25032	  4.34398	  4.50187	 -0.55267	 11.11291	704.25897	 23.30	
 16.990	-174.179	  9.40265	 -0.51068	 10.22167	  3.78680	  5.06824	 -0.55630	 11.11477	704.23700	 23.30	
 17.009	-168.383	  9.39186	 -0.46035	 10.14554	  3.24211	  5.63909	 -0.55058	 11.11997	704.21399	 23.30	
 17.000	-162.596	  9.36428	 -0.35820	  9.97816	  2.71399	  6.20261	 -0.54862	 11.10654	704.23901	 23.30	
 16.990	-156.759	  9.35285	 -0.20911	  9.76202	  2.21869	  6.75957	 -0.54517	 11.10970	704.28998	 23.30	
 16.995	-150.919	  9.34055	 -0.02074	  9.48643	  1.75089	  7.29894	 -0.54484	 11.10838	704.16901	 23.30	
 16.988	-145.161	  9.33738	  0.21413	  9.16731	  1.32604	  7.81979	 -0.54063	 11.12304	704.27502	 23.30	
 17.014	-139.343	  9.31560	  0.47633	  8.77865	  0.92361	  8.29773	 -0.53621	 11.11662	704.42999	 23.30	
 17.007	-133.546	  9.29630	  0.79923	  8.33810	  0.58637	  8.72226	 -0.52128	 11.09719	704.37598	 23.30	
 17.001	-127.699	  9.29137	  1.15772	  7.86815	  0.27835	  9.12598	 -0.51028	 11.10134	704.25000	 23.30	
 17.006	-121.937	  9.31209	  1.55765	  7.38779	  0.01259	  9.50443	 -0.51098	 11.13689	704.35199	 23.30	
 17.002	-116.134	  9.27325	  1.99036	  6.82952	 -0.20798	  9.76239	 -0.51188	 11.09192	704.25500	 23.30	
 17.001	-110.310	  9.26619	  2.45437	  6.27113	 -0.39215	  9.99602	 -0.50700	 11.09146	704.34900	 23.30	
 16.988	-104.517	  9.27385	  2.96162	  5.70700	 -0.51199	 10.16868	 -0.49899	 11.09015	704.32599	 23.30	
 17.008	-98.662	  9.30117	  3.49739	  5.14375	 -0.60547	 10.31309	 -0.48620	 11.11585	704.31000	 23.30	
 16.996	-92.909	  9.28280	  4.03127	  4.56698	 -0.64317	 10.33622	 -0.46519	 11.08516	704.35797	 23.30	
 16.996	-87.091	  9.28801	  4.59386	  3.99755	 -0.64813	 10.33140	 -0.44589	 11.07751	704.21600	 23.30	
 17.012	-81.253	  9.30446	  5.17104	  3.44315	 -0.62344	 10.29047	 -0.43129	 11.09155	704.39301	 23.30	
 16.988	-75.483	  9.33772	  5.75325	  2.92626	 -0.53199	 10.18666	 -0.42269	 11.11114	704.35999	 23.30	
 17.001	-69.690	  9.34647	  6.32108	  2.41133	 -0.41824	 10.01097	 -0.41993	 11.11327	704.32599	 23.30	
 17.002	-63.866	  9.35823	  6.87623	  1.93177	 -0.24836	  9.76427	 -0.42426	 11.10460	704.27301	 23.30	
 17.006	-58.063	  9.37580	  7.41153	  1.48050	 -0.03714	  9.46732	 -0.44099	 11.10827	704.34100	 23.30	
 17.001	-52.301	  9.38768	  7.91081	  1.07852	  0.22327	  9.10729	 -0.44727	 11.09072	704.30902	 23.30	
 17.007	-46.454	  9.42062	  8.40406	  0.70971	  0.52011	  8.72363	 -0.45283	 11.11161	704.33197	 23.30	
 17.014	-40.657	  9.41195	  8.81400	  0.37659	  0.84685	  8.26581	 -0.45717	 11.08776	704.39001	 23.30	
 16.988	-34.839	  9.44856	  9.20947	  0.10205	  1.23874	  7.79376	 -0.46883	 11.10312	704.37701	 23.30	
 16.995	-29.081	  9.46898	  9.54205	 -0.13749	  1.66456	  7.28152	 -0.47888	 11.10517	704.31201	 23.30	
 16.990	-23.241	  9.47376	  9.80926	 -0.33694	  2.11695	  6.73203	 -0.48004	 11.09360	704.29797	 23.30	
 17.000	-17.404	  9.48006	 10.02248	 -0.49602	  2.59668	  6.17053	 -0.46970	 11.08954	704.43402	 23.30	
 17.009	-11.617	  9.51109	 10.19708	 -0.60815	  3.12295	  5.60827	 -0.47180	 11.10705	704.36603	 23.30	
 16.990	 -5.821	  9.52809	 10.28975	 -0.67042	  3.65725	  5.04004	 -0.46422	 11.10562	704.33698	 23.30	
 17.000	  0.000	  9.52426	 10.30857	 -0.69424	  4.20292	  4.46436	 -0.45470	 11.08522	704.31702	 23.30	
 16.990	  5.821	  9.55386	 10.29775	 -0.67748	  4.78266	  3.90808	 -0.46366	 11.09800	704.20001	 23.30	
 17.009	 11.617	  9.56805	 10.22609	 -0.62357	  5.34738	  3.37171	 -0.46708	 11.09966	704.16101	 23.30	
 17.000	 17.404	  9.59157	 10.09749	 -0.52312	  5.92153	  2.85763	 -0.46946	 11.11450	704.33398	 23.30	
 16.990	 23.241	  9.58927	  9.86902	 -0.36845	  6.47950	  2.35659	 -0.46983	 11.09178	704.41602	 23.30	
 16.995	 29.081	  9.62556	  9.62678	 -0.17603	  7.03628	  1.90285	 -0.47685	 11.11185	704.43903	 23.30	
 16.988	 34.839	  9.63606	  9.30883	  0.05738	  7.55104	  1.48361	 -0.48908	 11.10567	704.33502	 23.30	
 17.014	 40.657	  9.61966	  8.91938	  0.32776	  8.03046	  1.07854	 -0.49640	 11.08038	704.41302	 23.30	
 17.007	 46.454	  9.64275	  8.51523	  0.64797	  8.50040	  0.72742	 -0.49305	 11.09725	704.40698	 23.30	
 17.001	 52.301	  9.66511	  8.06128	  1.01923	  8.91821	  0.42818	 -0.48308	 11.10635	704.28699	 23.30	
 17.006	 58.063	  9.65564	  7.55516	  1.42039	  9.26892	  0.16116	 -0.47628	 11.08568	704.42999	 23.30	
 17.002	 63.866	  9.67111	  7.04344	  1.86396	  9.59113	 -0.06285	 -0.48249	 11.10504	704.34802	 23.30	
 17.001	 69.690	  9.66005	  6.48641	  2.33751	  9.83158	 -0.24083	 -0.49116	 11.08554	704.43402	 23.30	
 16.988	 75.483	  9.66853	  5.93036	  2.85183	 10.02462	 -0.36724	 -0.50205	 11.09404	704.34802	 23.30	
 17.012	 81.253	  9.66617	  5.36675	  3.38070	 10.16030	 -0.46185	 -0.51661	 11.09770	704.51501	 23.30	
 16.996	 87.091	  9.66446	  4.79323	  3.94400	 10.22126	 -0.49189	 -0.51925	 11.08745	704.42798	 23.30	
 16.996	 92.909	  9.65630	  4.22359	  4.51940	 10.22300	 -0.48865	 -0.52007	 11.08260	704.42999	 23.30	
 17.008	 98.662	  9.67372	  3.68464	  5.10334	 10.20019	 -0.45110	 -0.51539	 11.11336	704.30103	 23.30	
 16.988	104.517	  9.66198	  3.14775	  5.68649	 10.07552	 -0.35231	 -0.51306	 11.10551	704.30603	 23.30	
 17.001	110.310	  9.63032	  2.62321	  6.24784	  9.88773	 -0.22914	 -0.51545	 11.08443	704.36603	 23.30	
 17.002	116.134	  9.60269	  2.13965	  6.79661	  9.63408	 -0.04578	 -0.52449	 11.06786	704.38300	 23.30	
 17.006	121.937	  9.63367	  1.70301	  7.36739	  9.38197	  0.17809	 -0.53441	 11.11671	704.28198	 23.30	
 17.001	127.699	  9.60425	  1.28911	  7.86726	  9.02611	  0.44041	 -0.53324	 11.10272	704.30402	 23.30	
 17.007	133.546	  9.56239	  0.91271	  8.32791	  8.60959	  0.74474	 -0.52793	 11.08189	704.21002	 23.30	
 17.014	139.343	  9.56649	  0.58370	  8.78140	  8.18742	  1.09814	 -0.53292	 11.11537	704.38501	 23.30	
 16.988	145.161	  9.52738	  0.30169	  9.14312	  7.67921	  1.49525	 -0.52974	 11.08543	704.45300	 23.30	
 16.995	150.919	  9.51179	  0.05547	  9.47614	  7.17484	  1.91819	 -0.53018	 11.09438	704.31000	 23.30	
 16.990	156.759	  9.49788	 -0.14898	  9.75835	  6.63929	  2.38173	 -0.53055	 11.10398	704.34900	 23.30	
 17.000	162.596	  9.47944	 -0.31466	  9.98009	  6.06959	  2.88100	 -0.53560	 11.11058	704.34100	 23.30	
 17.009	168.383	  9.44378	 -0.43378	 10.11584	  5.48589	  3.39424	 -0.54334	 11.09113	704.37701	 23.30	
 16.990	174.179	  9.43982	 -0.49683	 10.21986	  4.92817	  3.93608	 -0.55059	 11.11401	704.36902	 23.30	
 18.709	174.675	  9.04531	 -1.10158	 10.46658	  4.64056	  3.64972	 -0.56717	 11.09779	704.43103	 23.30	
 18.703	169.441	  9.07362	 -1.04356	 10.39727	  5.20226	  3.13163	 -0.56955	 11.10491	704.39301	 23.30	
 18.691	164.085	  9.08752	 -0.93903	 10.24840	  5.77630	  2.61404	 -0.57021	 11.09725	704.39600	 23.30	
 18.706	158.818	  9.10800	 -0.80921	 10.06562	  6.34146	  2.11382	 -0.57379	 11.10114	704.49200	 23.30	
 18.695	153.537	  9.15772	 -0.62547	  9.84420	  6.90190	  1.66780	 -0.58086	 11.13370	704.47601	 23.30	
 18.704	148.255	  9.14557	 -0.41107	  9.50896	  7.40444	  1.22909	 -0.57539	 11.08666	704.35101	 23.30	
 18.698	142.952	  9.17037	 -0.15682	  9.15801	  7.91441	  0.82700	 -0.57353	 11.09358	704.34003	 23.30	
 18.699	137.625	  9.18376	  0.13723	  8.74417	  8.37439	  0.46378	 -0.56956	 11.07924	704.22998	 23.30	
 18.705	132.343	  9.23808	  0.46081	  8.33592	  8.83277	  0.13884	 -0.55489	 11.11871	704.37701	 23.30	
 18.713	127.067	  9.24189	  0.82452	  7.84548	  9.21282	 -0.15507	 -0.55540	 11.09824	704.49500	 23.30	
 18.700	121.794	  9.25232	  1.22694	  7.32514	  9.54837	 -0.40388	 -0.53403	 11.09183	704.32898	 23.30	
 18.698	116.504	  9.26270	  1.65703	  6.78512	  9.83462	 -0.61248	 -0.51091	 11.08085	704.36499	 23.30	
 18.707	111.165	  9.27329	  2.12803	  6.22830	 10.07942	 -0.78945	 -0.49770	 11.08333	704.41302	 23.30	
 18.690	105.863	  9.29415	  2.62807	  5.66876	 10.26427	 -0.91264	 -0.48453	 11.08965	704.31702	 23.30	
 18.696	100.583	  9.29223	  3.14337	  5.08671	 10.37722	 -1.00792	 -0.48121	 11.07703	704.47302	 23.30	
 18.700	 95.309	  9.32152	  3.68208	  4.52903	 10.46940	 -1.06120	 -0.47942	 11.10123	704.40302	 23.30	
 18.700	 90.000	  9.32178	  4.23568	  3.96004	 10.48580	 -1.08340	 -0.48262	 11.09712	704.37598	 23.30	
 18.700	 84.691	  9.33415	  4.80243	  3.40308	 10.45841	 -1.06276	 -0.50251	 11.10392	704.41602	 23.30	
 18.696	 79.417	  9.32604	  5.35868	  2.86159	 10.35779	 -1.00624	 -0.50911	 11.09391	704.30902	 23.30	
 18.690	 74.137	  9.32076	  5.91001	  2.34182	 10.21279	 -0.91820	 -0.51250	 11.09349	704.43402	 23.30	
 18.707	 68.835	  9.29811	  6.45422	  1.83887	 10.00035	 -0.79508	 -0.51698	 11.07466	704.51801	 23.30	
 18.698	 63.496	  9.30709	  7.00850	  1.37610	  9.75372	 -0.62751	 -0.51611	 11.08728	704.35797	 23.30	
 18.700	 58.206	  9.29892	  7.52661	  0.94893	  9.43980	 -0.41126	 -0.51209	 11.08451	704.34302	 23.30	
 18.713	 52.933	  9.29654	  8.02892	  0.55415	  9.08835	 -0.16641	 -0.51171	 11.08889	704.32898	 23.30	
 18.705	 47.657	  9.31365	  8.51405	  0.20178	  8.70188	  0.12936	 -0.50674	 11.11616	704.36200	 23.30	
 18.699	 42.375	  9.28624	  8.92295	 -0.12097	  8.24790	  0.44762	 -0.49625	 11.09568	704.30298	 23.30	
 18.698	 37.048	  9.26941	  9.30155	 -0.39577	  7.76267	  0.81699	 -0.48396	 11.09308	704.27197	 23.30	
 18.704	 31.745	  9.24806	  9.63620	 -0.63860	  7.24094	  1.21445	 -0.46356	 11.08098	704.31403	 23.30	
 18.695	 26.463	  9.25192	  9.93953	 -0.84376	  6.72054	  1.64714	 -0.44336	 11.10006	704.41400	 23.30	
 18.706	 21.182	  9.23605	 10.17796	 -1.00867	  6.18000	  2.09922	 -0.43277	 11.11058	704.32397	 23.30	
 18.691	 15.915	  9.21304	 10.34447	 -1.12972	  5.61170	  2.59050	 -0.42710	 11.09015	704.34802	 23.30	
 18.703	 10.559	  9.20690	 10.48385	 -1.22608	  5.04575	  3.10835	 -0.42873	 11.10394	704.46100	 23.30	
 18.709	  5.325	  9.20114	 10.56383	 -1.27778	  4.49467	  3.63436	 -0.41919	 11.11708	704.43903	 23.30	
 18.700	  0.000	  9.16250	 10.55371	 -1.28523	  3.91620	  4.18781	 -0.41787	 11.08862	704.44501	 23.30	
 18.709	 -5.325	  9.14690	 10.52564	 -1.26832	  3.37058	  4.74469	 -0.42523	 11.08968	704.34497	 23.30	
 18.703	-10.559	  9.14600	 10.45533	 -1.21673	  2.85359	  5.30968	 -0.43563	 11.11133	704.36798	 23.30	
 18.691	-15.915	  9.12156	 10.29557	 -1.11342	  2.33015	  5.87929	 -0.44172	 11.08920	704.36798	 23.30	
 18.706	-21.182	  9.10856	 10.10885	 -0.98218	  1.85325	  6.43334	 -0.45710	 11.10120	704.34497	 23.30	
 18.695	-26.463	  9.09489	  9.85747	 -0.80874	  1.40285	  6.97216	 -0.45298	 11.09599	704.37402	 23.30	
 18.704	-31.745	  9.05877	  9.53738	 -0.60599	  0.96520	  7.48556	 -0.44736	 11.07680	704.34802	 23.30	
 18.698	-37.048	  9.05257	  9.18873	 -0.35086	  0.58655	  7.98746	 -0.43374	 11.07974	704.36200	 23.30	
 18.699	-42.375	  9.04752	  8.79791	 -0.06164	  0.23534	  8.46482	 -0.42893	 11.09332	704.50299	 23.30	
 18.705	-47.657	  9.03917	  8.36744	  0.25682	 -0.08578	  8.90518	 -0.41809	 11.10950	704.38000	 23.30	
 18.713	-52.933	  9.00613	  7.87987	  0.61176	 -0.36638	  9.28337	 -0.41461	 11.09562	704.36499	 23.30	
 18.700	-58.206	  8.98794	  7.36958	  1.01117	 -0.60558	  9.62556	 -0.39160	 11.08942	704.41602	 23.30	
 18.698	-63.496	  8.96653	  6.83415	  1.44410	 -0.79339	  9.90345	 -0.38596	 11.08127	704.31403	 23.30	
 18.707	-68.835	  8.94338	  6.27701	  1.90989	 -0.95963	 10.13876	 -0.38161	 11.06887	704.26501	 23.30	
 18.690	-74.137	  8.95182	  5.72654	  2.41081	 -1.08146	 10.34661	 -0.37384	 11.09211	704.54498	 23.30	
 18.696	-79.417	  8.92922	  5.15645	  2.91449	 -1.17396	 10.47094	 -0.38940	 11.08206	704.36902	 23.30	
 18.700	-84.691	  8.92766	  4.59072	  3.45359	 -1.23254	 10.57170	 -0.40483	 11.10473	704.40698	 23.30	
 18.700	-90.000	  8.88943	  4.01254	  3.99665	 -1.24321	 10.56318	 -0.41462	 11.06803	704.36499	 23.30	
 18.700	-95.309	  8.90572	  3.47568	  4.57368	 -1.22266	 10.56874	 -0.43010	 11.10028	704.29602	 23.30	
 18.696	-100.583	  8.91336	  2.95315	  5.14196	 -1.16870	 10.50423	 -0.44416	 11.11365	704.38000	 23.30	
 18.690	-105.863	  8.89364	  2.44151	  5.69699	 -1.06494	 10.35435	 -0.48103	 11.09871	704.43103	 23.30	
 18.707	-111.165	  8.88319	  1.94907	  6.25236	 -0.93574	 10.16469	 -0.50439	 11.08811	704.41400	 23.30	
 18.698	-116.504	  8.88293	  1.49543	  6.80238	 -0.76370	  9.92160	 -0.51456	 11.08853	704.30103	 23.30	
 18.700	-121.794	  8.89356	  1.07590	  7.33543	 -0.56024	  9.64538	 -0.52961	 11.10167	704.49200	 23.30	
 18.713	-127.067	  8.89278	  0.68403	  7.83362	 -0.31672	  9.29869	 -0.54156	 11.09266	704.37598	 23.30	
 18.705	-132.343	  8.90706	  0.34059	  8.31040	 -0.01934	  8.90734	 -0.54549	 11.09364	704.40002	 23.30	
 18.699	-137.625	  8.89730	  0.02685	  8.72837	  0.30850	  8.45610	 -0.55272	 11.07002	704.25500	 23.30	
 18.698	-142.952	  8.93138	 -0.24741	  9.14806	  0.66920	  8.01915	 -0.55185	 11.10034	704.32098	 23.30	
 18.704	-148.255	  8.91973	 -0.48674	  9.48041	  1.06411	  7.49835	 -0.55800	 11.07552	704.29797	 23.30	
 18.695	-153.537	  8.94624	 -0.68437	  9.79171	  1.50304	  6.98364	 -0.55049	 11.08473	704.23700	 23.30	
 18.706	-158.818	  8.97856	 -0.85421	 10.06812	  1.96481	  6.46060	 -0.54462	 11.11393	704.33398	 23.30	
 18.691	-164.085	  8.97919	 -0.96903	 10.24293	  2.45067	  5.90170	 -0.54393	 11.09698	704.30103	 23.30	
 18.703	-169.441	  9.00016	 -1.06084	 10.39240	  2.98364	  5.32874	 -0.55066	 11.10721	704.29303	 23.30	
 18.709	-174.675	  9.01046	 -1.11051	 10.46452	  3.51264	  4.76826	 -0.55707	 11.09910	704.22498	 23.30	
 18.700	180.000	  9.02322	 -1.12400	 10.48474	  4.06580	  4.20553	 -0.56576	 11.09006	704.41101	 23.30	
 20.400	180.000	  8.61955	 -1.70664	 10.70108	  3.77179	  3.90275	 -0.53305	 11.10057	704.28601	 23.30	
 20.401	-175.153	  8.58582	 -1.70311	 10.66683	  3.22460	  4.44010	 -0.52224	 11.08557	704.41101	 23.30	
 20.407	-170.264	  8.56802	 -1.66000	 10.59717	  2.68802	  4.99782	 -0.51605	 11.08882	704.22699	 23.30	
 20.410	-165.423	  8.55050	 -1.59235	 10.47087	  2.17468	  5.55764	 -0.51056	 11.08370	704.31201	 23.30	
 20.392	-160.496	  8.55893	 -1.47918	 10.31093	  1.69707	  6.12593	 -0.51389	 11.10161	704.45001	 23.30	
 20.401	-155.705	  8.53312	 -1.34222	 10.07478	  1.23442	  6.65416	 -0.51314	 11.09394	704.42401	 23.30	
 20.405	-150.835	  8.52464	 -1.17128	  9.80625	  0.79104	  7.19377	 -0.51539	 11.10700	704.29303	 23.30	
 20.397	-145.903	  8.51940	 -0.96490	  9.48494	  0.38599	  7.70833	 -0.53819	 11.11253	704.42102	 23.30	
 20.392	-141.062	  8.48164	 -0.72030	  9.08786	  0.02161	  8.16006	 -0.53801	 11.06909	704.37402	 23.30	
 20.396	-136.227	  8.49452	 -0.45168	  8.70398	 -0.32082	  8.63966	 -0.54532	 11.10327	704.41901	 23.30	
 20.408	-131.372	  8.46140	 -0.14864	  8.24428	 -0.63216	  9.04153	 -0.54501	 11.07965	704.32703	 23.30	
 20.410	-126.511	  8.45452	  0.19610	  7.76668	 -0.89789	  9.41725	 -0.53844	 11.07597	704.51501	 23.30	
 20.400	-121.604	  8.47397	  0.57477	  7.27696	 -1.13455	  9.77839	 -0.53016	 11.10617	704.42401	 23.30	
 20.403	-116.741	  8.44592	  0.98587	  6.72988	 -1.33067	 10.03959	 -0.50821	 11.06854	704.43103	 23.30	
 20.413	-111.900	  8.46047	  1.41758	  6.20741	 -1.51064	 10.30910	 -0.48670	 11.10086	704.36902	 23.30	
 20.398	-107.004	  8.46263	  1.89071	  5.64812	 -1.64070	 10.50112	 -0.46189	 11.10045	704.39899	 23.30	
 20.394	-102.132	  8.46173	  2.38362	  5.08202	 -1.74352	 10.63596	 -0.42826	 11.09388	704.50299	 23.30	
 20.403	-97.332	  8.46826	  2.88637	  4.53253	 -1.82043	 10.73696	 -0.40519	 11.10057	704.46899	 23.30	
 20.392	-92.440	  8.48388	  3.42383	  3.97683	 -1.85186	 10.78977	 -0.38584	 11.10912	704.39001	 23.30	
 20.392	-87.560	  8.47979	  3.96890	  3.41772	 -1.85599	 10.77257	 -0.37294	 11.09458	704.35699	 23.30	
 20.403	-82.668	  8.47260	  4.51952	  2.87434	 -1.83128	 10.70840	 -0.37286	 11.07146	704.44702	 23.30	
 20.394	-77.868	  8.49070	  5.07690	  2.36939	 -1.76312	 10.61925	 -0.35935	 11.07685	704.39301	 23.30	
 20.398	-72.996	  8.51628	  5.65080	  1.86996	 -1.66985	 10.48995	 -0.35468	 11.08754	704.46997	 23.30	
 20.413	-68.100	  8.53854	  6.21681	  1.38955	 -1.55276	 10.30801	 -0.36023	 11.10542	704.48297	 23.30	
 20.403	-63.259	  8.54741	  6.75156	  0.94946	 -1.38050	 10.04513	 -0.36468	 11.07987	704.47601	 23.30	
 20.400	-58.396	  8.57223	  7.28989	  0.52773	 -1.18996	  9.76181	 -0.36672	 11.09447	704.45001	 23.30	
 20.410	-53.489	  8.58115	  7.79589	  0.13137	 -0.97325	  9.42021	 -0.38738	 11.08813	704.54498	 23.30	
 20.408	-48.628	  8.60456	  8.28148	 -0.22280	 -0.71675	  9.05065	 -0.39060	 11.09792	704.47498	 23.30	
 20.396	-43.773	  8.63106	  8.73524	 -0.53454	 -0.41307	  8.63598	 -0.40897	 11.10753	704.46198	 23.30	
 20.392	-38.938	  8.64927	  9.14734	 -0.81519	 -0.07684	  8.17753	 -0.41034	 11.10429	704.46100	 23.30	
 20.397	-34.097	  8.64997	  9.50335	 -1.06979	  0.28169	  7.68553	 -0.42549	 11.08769	704.50598	 23.30	
 20.405	-29.165	  8.66090	  9.83615	 -1.29568	  0.66985	  7.16961	 -0.42624	 11.08837	704.37701	 23.30	
 20.401	-24.295	  8.69531	 10.13187	 -1.47223	  1.10870	  6.64887	 -0.42109	 11.10412	704.28998	 23.30	
 20.392	-19.504	  8.70935	 10.35158	 -1.61131	  1.56382	  6.11089	 -0.42902	 11.10281	704.48700	 23.30	
 20.410	-14.577	  8.70493	 10.51652	 -1.73644	  2.03113	  5.54322	 -0.41449	 11.08667	704.35498	 23.30	
 20.407	 -9.736	  8.71843	 10.64131	 -1.81911	  2.54173	  4.98173	 -0.40775	 11.08191	704.54498	 23.30	
 20.401	 -4.847	  8.73704	 10.72060	 -1.86623	  3.06499	  4.42351	 -0.39122	 11.08566	704.39899	 23.30	
 20.400	  0.000	  8.74807	 10.74384	 -1.88701	  3.59364	  3.87511	 -0.39057	 11.07910	704.52301	 23.30	
 20.401	  4.847	  8.76442	 10.72969	 -1.86977	  4.15046	  3.33188	 -0.38602	 11.08037	704.45203	 23.30	
 20.407	  9.736	  8.77652	 10.67094	 -1.82827	  4.70047	  2.80845	 -0.38828	 11.08213	704.38300	 23.30	
 20.410	 14.577	  8.80211	 10.57532	 -1.75906	  5.26578	  2.30684	 -0.38833	 11.09443	704.49500	 23.30	
 20.392	 19.504	  8.81756	 10.39961	 -1.63703	  5.83122	  1.81803	 -0.39245	 11.08884	704.39099	 23.30	
 20.401	 24.295	  8.82710	 10.18445	 -1.49450	  6.36625	  1.37040	 -0.40645	 11.07969	704.49799	 23.30	
 20.405	 29.165	  8.84461	  9.92924	 -1.32153	  6.90766	  0.93481	 -0.40983	 11.08721	704.49200	 23.30	
 20.397	 34.097	  8.87387	  9.62939	 -1.10668	  7.45346	  0.52300	 -0.43920	 11.10546	704.50897	 23.30	
 20.392	 38.938	  8.87578	  9.26186	 -0.85767	  7.93556	  0.15589	 -0.46161	 11.08678	704.31201	 23.30	
 20.396	 43.773	  8.87906	  8.86094	 -0.58158	  8.38593	 -0.17471	 -0.48787	 11.07470	704.26703	 23.30	
 20.408	 48.628	  8.88889	  8.43325	 -0.27334	  8.82722	 -0.49109	 -0.50776	 11.08320	704.42798	 23.30	
 20.410	 53.489	  8.90184	  7.97164	  0.07565	  9.23281	 -0.76289	 -0.51888	 11.09061	704.43799	 23.30	
 20.400	 58.396	  8.93169	  7.49206	  0.46283	  9.60974	 -0.99633	 -0.52812	 11.11224	704.39697	 23.30	
 20.403	 63.259	  8.91804	  6.95417	  0.87672	  9.89223	 -1.19050	 -0.52038	 11.08469	704.52399	 23.30	
 20.413	 68.100	  8.92808	  6.42952	  1.31762	 10.15833	 -1.35825	 -0.52132	 11.09688	704.43402	 23.30	
 20.398	 72.996	  8.93264	  5.87626	  1.80365	 10.36658	 -1.48449	 -0.51027	 11.09349	704.49500	 23.30	
 20.394	 77.868	  8.93997	  5.31953	  2.31040	 10.52689	 -1.57350	 -0.48520	 11.09702	704.41602	 23.30	
 20.403	 82.668	  8.94796	  4.77637	  2.82600	 10.64693	 -1.63862	 -0.45745	 11.11267	704.44501	 23.30	
 20.392	 87.560	  8.93436	  4.21468	  3.37092	 10.67799	 -1.65634	 -0.43728	 11.09300	704.41400	 23.30	
 20.392	 92.440	  8.94065	  3.66544	  3.93449	 10.69802	 -1.65874	 -0.41769	 11.10164	704.20599	 23.30	
 20.403	 97.332	  8.93474	  3.12496	  4.50138	 10.66204	 -1.62715	 -0.41944	 11.10130	704.50000	 23.30	
 20.394	102.132	  8.91150	  2.61015	  5.05413	 10.55342	 -1.55662	 -0.42312	 11.07930	704.31799	 23.30	
 20.398	107.004	  8.91959	  2.11401	  5.63298	 10.43525	 -1.46163	 -0.43674	 11.10510	704.34100	 23.30	
 20.413	111.900	  8.90373	  1.62623	  6.19288	 10.24563	 -1.33717	 -0.45140	 11.09945	704.47803	 23.30	
 20.403	116.741	  8.89214	  1.17814	  6.74077	 10.00958	 -1.17811	 -0.48632	 11.10321	704.31201	 23.30	
 20.400	121.604	  8.86689	  0.75398	  7.26500	  9.71195	 -0.97766	 -0.50436	 11.09202	704.35498	 23.30	
 20.410	126.511	  8.84421	  0.35837	  7.77702	  9.37153	 -0.74941	 -0.52486	 11.09632	704.39301	 23.30	
 20.408	131.372	  8.81476	  0.00607	  8.24750	  8.97317	 -0.47391	 -0.54799	 11.07306	704.27197	 23.30	
 20.396	136.227	  8.83600	 -0.30889	  8.73197	  8.58581	 -0.15934	 -0.56312	 11.12314	704.39099	 23.30	
 20.392	141.062	  8.77803	 -0.59919	  9.10707	  8.10398	  0.17295	 -0.56601	 11.08244	704.56299	 23.30	
 20.397	145.903	  8.76188	 -0.85674	  9.48589	  7.62603	  0.54143	 -0.59342	 11.09403	704.45203	 23.30	
 20.405	150.835	  8.75125	 -1.08629	  9.83121	  7.10979	  0.95270	 -0.59225	 11.11117	704.38501	 23.30	
 20.401	155.705	  8.71829	 -1.27316	 10.09474	  6.56639	  1.38244	 -0.59181	 11.09832	704.35999	 23.30	
 20.392	160.496	  8.70175	 -1.42266	 10.31525	  6.03220	  1.83436	 -0.57515	 11.09910	704.25598	 23.30	
 20.410	165.423	  8.66173	 -1.54529	 10.47340	  5.44990	  2.32296	 -0.56156	 11.08183	704.35797	 23.30	
 20.407	170.264	  8.64483	 -1.63157	 10.59364	  4.88894	  2.82751	 -0.55412	 11.08444	704.21100	 23.30	
 20.401	175.153	  8.62759	 -1.68014	 10.66309	  4.33050	  3.35471	 -0.54505	 11.08613	704.40002	 23.30	
  0.141	 45.000	 11.10319	  5.92920	  5.72351	  5.79705	  5.92402	  0.07742	 11.08815	704.28998	 23.30	
  4.001	128.691	 11.08552	  5.00134	  6.47549	  6.72080	  4.85434	  0.03666	 11.09078	704.39600	 23.30	
  4.002	 76.995	 11.08690	  6.09859	  5.31839	  6.97503	  4.61132	  0.03733	 11.08808	704.43103	 23.30	
  4.002	 25.892	 11.07409	  7.03045	  4.45572	  6.21185	  5.24020	  0.02317	 11.07571	704.50098	 23.30	
  4.002	-25.892	 11.05971	  7.02020	  4.44977	  5.03616	  6.42758	  0.00823	 11.08512	704.34100	 23.30	
  4.002	-76.995	 11.03446	  6.05981	  5.31329	  4.37826	  7.18640	  0.00348	 11.08222	704.21600	 23.30	
  4.001	-128.691	 11.02327	  4.93647	  6.47640	  4.63119	  6.90810	  0.01948	 11.07200	704.35199	 23.30	
  4.000	180.000	 11.05369	  4.51471	  7.01333	  5.64344	  5.84207	  0.03390	 11.08262	704.31799	 23.30	
  8.000	180.000	 10.79829	  2.97146	  8.22154	  5.40850	  5.59946	 -0.11772	 11.08221	704.44397	 23.30	
  7.991	-152.370	 10.78250	  3.22996	  7.90307	  4.18309	  6.89365	 -0.12309	 11.09655	704.33398	 23.30	
  7.997	-124.550	 10.75035	  3.99988	  6.97519	  3.25552	  7.91670	 -0.13684	 11.08695	704.48102	 23.30	
  8.006	-96.837	 10.75266	  5.16664	  5.71009	  2.82871	  8.40459	 -0.17710	 11.08945	704.38000	 23.30	
  7.988	-69.228	 10.76749	  6.47313	  4.42157	  2.95871	  8.22427	 -0.18928	 11.08185	704.46100	 23.30	
  7.997	-41.563	 10.80494	  7.61416	  3.40233	  3.60903	  7.45155	 -0.17695	 11.08827	704.45898	 23.30	
  8.008	-13.821	 10.82929	  8.27238	  2.84305	  4.70727	  6.22953	 -0.15123	 11.07742	704.44501	 23.30	
  8.008	 13.821	 10.87309	  8.30080	  2.84181	  6.01902	  4.92812	 -0.14389	 11.08874	704.33502	 23.30	
  7.997	 41.563	 10.91320	  7.68125	  3.39237	  7.23475	  3.84393	 -0.12566	 11.10394	704.32599	 23.30	
  7.988	 69.228	 10.90739	  6.55347	  4.40206	  8.02920	  3.17848	 -0.10731	 11.08468	704.34802	 23.30	
  8.006	 96.837	 10.91548	  5.25905	  5.68908	  8.22654	  3.04767	 -0.12759	 11.09907	704.50702	 23.30	
  7.997	124.550	 10.89833	  4.08646	  6.96005	  7.75294	  3.46475	 -0.11493	 11.10181	704.39697	 23.30	
  7.991	152.370	 10.86011	  3.27516	  7.89587	  6.71392	  4.38290	 -0.09930	 11.10425	704.35999	 23.30	
 12.009	161.059	 10.36800	  1.58013	  9.01985	  6.37440	  3.91757	 -0.30299	 11.09571	704.30298	 23.30	
 12.013	142.081	 10.41715	  2.14965	  8.33076	  7.62345	  2.80884	 -0.30799	 11.09810	704.41602	 23.30	
 12.006	123.113	 10.43950	  3.04393	  7.25162	  8.56256	  2.00323	 -0.32852	 11.07337	704.53998	 23.30	
 12.007	104.200	 10.49152	  4.21233	  5.97102	  9.14845	  1.53400	 -0.35596	 11.10143	704.35199	 23.30	
 11.989	 85.301	 10.50314	  5.52682	  4.61217	  9.24076	  1.43788	 -0.34787	 11.09490	704.31201	 23.30	
 12.013	 66.294	 10.49390	  6.85127	  3.34333	  8.86323	  1.71335	 -0.29330	 11.08634	704.32098	 23.30	
 12.012	 47.388	 10.48214	  8.02317	  2.31211	  8.05074	  2.35811	 -0.31008	 11.08276	704.35999	 23.30	
 11.990	 28.440	 10.45568	  8.88196	  1.59160	  6.92621	  3.30659	 -0.34604	 11.08606	704.41302	 23.30	
 11.991	  9.464	 10.43375	  9.33264	  1.23141	  5.61767	  4.51137	 -0.36860	 11.09801	704.46698	 23.30	
 11.991	 -9.464	 10.39410	  9.31127	  1.23639	  4.28223	  5.84440	 -0.35933	 11.09205	704.33197	 23.30	
 11.990	-28.440	 10.36763	  8.83926	  1.61101	  3.07309	  7.17079	 -0.36742	 11.11112	704.36902	 23.30	
 12.012	-47.388	 10.33783	  7.95580	  2.34373	  2.12852	  8.29389	 -0.38866	 11.11818	704.44202	 23.30	
 12.013	-66.294	 10.28327	  6.74632	  3.37928	  1.49271	  9.06345	 -0.41406	 11.10311	704.42401	 23.30	
 11.989	-85.301	 10.26036	  5.40743	  4.65004	  1.24093	  9.41065	 -0.41559	 11.10143	704.49200	 23.30	
 12.007	-104.200	 10.23540	  4.08693	  5.99982	  1.33309	  9.30050	 -0.38662	 11.09897	704.42999	 23.30	
 12.006	-123.113	 10.22078	  2.93998	  7.27326	  1.79412	  8.72637	 -0.33006	 11.08320	704.42999	 23.30	
 12.013	-142.081	 10.26247	  2.07857	  8.34321	  2.62597	  7.77983	 -0.33318	 11.09976	704.49500	 23.30	
 12.009	-161.059	 10.28773	  1.54736	  9.02709	  3.73186	  6.54543	 -0.33981	 11.09902	704.32898	 23.30	
 16.000	180.000	  9.63599	 -0.15862	 10.08607	  4.50232	  4.66524	 -0.52540	 11.11805	704.41101	 23.30	
 15.990	-165.604	  9.56345	 -0.04935	  9.87840	  3.19747	  5.97763	 -0.52539	 11.07786	704.37201	 23.30	
 16.002	-151.165	  9.53217	  0.31629	  9.35093	  2.03886	  7.26830	 -0.52216	 11.08163	704.44702	 23.30	
 16.002	-136.836	  9.51256	  0.94178	  8.50821	  1.08343	  8.42438	 -0.49871	 11.09607	704.45898	 23.30	
 15.995	-122.439	  9.49711	  1.81575	  7.39581	  0.37723	  9.32512	 -0.48492	 11.09178	704.46899	 23.30	
 15.993	-107.966	  9.48315	  2.90164	  6.10734	 -0.08725	  9.92066	 -0.50164	 11.08224	704.37201	 23.30	
 16.005	-93.629	  9.49729	  4.14342	  4.76839	 -0.29800	 10.18916	 -0.48407	 11.09266	704.46997	 23.30	
 15.992	-79.234	  9.52493	  5.48345	  3.46095	 -0.24269	 10.10711	 -0.44800	 11.09394	704.42999	 23.30	
 16.009	-64.774	  9.54445	  6.80873	  2.25605	  0.06422	  9.65788	 -0.44847	 11.08099	704.46698	 23.30	
 15.997	-50.364	  9.60979	  8.04023	  1.25766	  0.63991	  8.90773	 -0.46181	 11.10167	704.51398	 23.30	
 15.997	-36.045	  9.63847	  9.02854	  0.48404	  1.45135	  7.85966	 -0.46903	 11.08935	704.46100	 23.30	
 16.000	-21.597	  9.66950	  9.72590	 -0.03661	  2.49400	  6.61953	 -0.47702	 11.07604	704.50897	 23.30	
 16.003	 -7.169	  9.71778	 10.11304	 -0.30941	  3.71984	  5.28689	 -0.46518	 11.09663	704.46997	 23.30	
 16.003	  7.169	  9.74747	 10.12422	 -0.31665	  5.03430	  3.96390	 -0.46516	 11.08292	704.43799	 23.30	
 16.000	 21.597	  9.78924	  9.79896	 -0.06682	  6.37301	  2.74631	 -0.48047	 11.09369	704.40302	 23.30	
 15.997	 36.045	  9.82920	  9.13457	  0.44253	  7.63130	  1.69418	 -0.48112	 11.10426	704.53198	 23.30	
 15.997	 50.364	  9.84021	  8.15731	  1.20199	  8.68997	  0.85475	 -0.46184	 11.08570	704.38800	 23.30	
 16.009	 64.774	  9.84254	  6.97143	  2.19497	  9.47416	  0.26423	 -0.45389	 11.07246	704.49200	 23.30	
 15.992	 79.234	  9.84600	  5.65638	  3.39843	  9.94197	 -0.06658	 -0.49724	 11.07428	704.42700	 23.30	
 16.005	 93.629	  9.87153	  4.33610	  4.73679	 10.08516	 -0.13040	 -0.51626	 11.11292	704.43402	 23.30	
 15.993	107.966	  9.83847	  3.06964	  6.08351	  9.81300	  0.08754	 -0.51293	 11.08773	704.51099	 23.30	
 15.995	122.439	  9.80577	  1.95695	  7.38042	  9.21190	  0.54820	 -0.50856	 11.09275	704.51703	 23.30	
 16.002	136.836	  9.75668	  1.04940	  8.50162	  8.30222	  1.26156	 -0.49828	 11.09071	704.39099	 23.30	
 16.002	151.165	  9.69398	  0.38862	  9.34487	  7.14551	  2.20604	 -0.49184	 11.07647	704.41602	 23.30	
 15.990	165.604	  9.67011	 -0.00872	  9.88964	  5.84231	  3.37846	 -0.50401	 11.09469	704.50098	 23.30	
 20.003	168.362	  8.76066	 -1.46306	 10.51600	  5.15998	  2.73144	 -0.56435	 11.09139	704.46100	 23.30	
 20.008	156.764	  8.79898	 -1.17250	 10.09880	  6.46766	  1.58665	 -0.58664	 11.08108	704.50897	 23.30	
 20.000	145.147	  8.85741	 -0.68842	  9.40204	  7.70273	  0.60075	 -0.58739	 11.08735	704.38501	 23.30	
 19.995	133.545	  8.93107	 -0.01273	  8.47270	  8.79532	 -0.20115	 -0.54804	 11.10620	704.49500	 23.30	
 20.009	121.926	  8.95996	  0.84026	  7.31402	  9.66176	 -0.83651	 -0.51901	 11.09790	704.43903	 23.30	
 20.005	110.327	  8.98486	  1.88280	  6.03666	 10.24778	 -1.24431	 -0.46122	 11.07925	704.37402	 23.30	
 19.989	 98.733	  9.01118	  3.06201	  4.71517	 10.56981	 -1.46662	 -0.43735	 11.07521	704.55200	 23.30	
 19.999	 87.075	  9.03220	  4.33889	  3.40065	 10.62649	 -1.51047	 -0.45878	 11.09086	704.53198	 23.30	
 19.992	 75.457	  9.03783	  5.64182	  2.16743	 10.40375	 -1.37638	 -0.49992	 11.08781	704.54901	 23.30	
 20.009	 63.844	  9.04102	  6.93197	  1.05927	  9.92006	 -1.06972	 -0.52395	 11.11286	704.40802	 23.30	
 19.989	 52.269	  9.00922	  8.09794	  0.12118	  9.11608	 -0.54993	 -0.51181	 11.08849	704.43903	 23.30	
 19.999	 40.602	  8.98600	  9.12448	 -0.63629	  8.10517	  0.16758	 -0.47496	 11.09762	704.58301	 23.30	
 20.004	 29.051	  8.93655	  9.89710	 -1.18328	  6.91226	  1.06272	 -0.41695	 11.08027	704.42401	 23.30	
 20.005	 17.433	  8.91445	 10.44396	 -1.54733	  5.64647	  2.11972	 -0.40063	 11.09716	704.39001	 23.30	
 20.006	  5.780	  8.87277	 10.68792	 -1.72475	  4.32696	  3.31489	 -0.39933	 11.08800	704.46600	 23.30	
 20.006	 -5.780	  8.82369	 10.65925	 -1.72164	  3.04739	  4.58780	 -0.40817	 11.07463	704.43103	 23.30	
 20.005	-17.433	  8.79853	 10.38004	 -1.53124	  1.85722	  5.90984	 -0.43289	 11.08746	704.48297	 23.30	
 20.004	-29.051	  8.77409	  9.82359	 -1.15585	  0.80556	  7.18321	 -0.42794	 11.10052	704.50598	 23.30	
 19.999	-40.602	  8.73945	  8.99056	 -0.58714	 -0.06379	  8.32760	 -0.41537	 11.09531	704.45300	 23.30	
 19.989	-52.269	  8.69928	  7.93283	  0.17472	 -0.76145	  9.31476	 -0.38754	 11.09602	704.55200	 23.30	
 20.009	-63.844	  8.64239	  6.71667	  1.11435	 -1.26299	 10.03726	 -0.37539	 11.07576	704.50598	 23.30	
 19.992	-75.457	  8.61305	  5.42127	  2.22036	 -1.56324	 10.51183	 -0.36206	 11.07527	704.48102	 23.30	
 19.999	-87.075	  8.58319	  4.10770	  3.43991	 -1.69755	 10.71371	 -0.37717	 11.08075	704.45801	 23.30	
 19.989	-98.733	  8.58354	  2.84344	  4.75742	 -1.64503	 10.67267	 -0.41316	 11.10466	704.51801	 23.30	
 20.005	-110.327	  8.54331	  1.67754	  6.04447	 -1.40973	 10.31091	 -0.48189	 11.07337	704.50897	 23.30	
 20.009	-121.926	  8.57196	  0.67763	  7.31417	 -0.98432	  9.72648	 -0.53210	 11.09811	704.39001	 23.30	
 19.995	-133.545	  8.58156	 -0.15255	  8.44139	 -0.36185	  8.85063	 -0.55075	 11.08635	704.47601	 23.30	
 20.000	-145.147	  8.59066	 -0.78869	  9.36863	  0.44298	  7.76931	 -0.53945	 11.06815	704.37598	 23.30	
 20.008	-156.764	  8.61989	 -1.23597	 10.07293	  1.43846	  6.55056	 -0.52257	 11.06876	704.46997	 23.30	
 20.003	-168.362	  8.66023	 -1.49257	 10.49946	  2.58253	  5.26797	 -0.52262	 11.08028	704.33502	 23.30	
 20.000	180.000	  8.71292	 -1.56693	 10.64890	  3.84440	  3.97634	 -0.54175	 11.09130	704.51801	 23.30	
