FileType=PCF
NHL=14
Date=08/29/17	15:22:10
Facility=APL
Serial=16328-15
Customer=NASA
NP=6
Mach=0.100000
Calibration=1:1
CalPts=490
TstPts=95
PortNumbering=AP Standard
Units=Torr C m/s kg/m^3 deg mm 
Theta[deg]	Phi[deg]	P1[Torr]	P2[Torr]	P3[Torr]	P4[Torr]	P5[Torr]	P6[Torr]	Pt[Torr]	Ps[Abs,Torr]	Ts[C]	
  0.000	  0.000	  4.94229	  2.65479	  2.59182	  2.60267	  2.67757	  0.03303	  4.93998	704.43597	 23.50	
  1.691	128.401	  4.93415	  2.50572	  2.71391	  2.75112	  2.50115	  0.03048	  4.93026	704.51099	 23.50	
  1.692	 77.194	  4.95148	  2.69916	  2.53641	  2.81585	  2.45699	  0.03074	  4.95065	704.45801	 23.50	
  1.699	 26.182	  4.95322	  2.85876	  2.37599	  2.67448	  2.56103	  0.02603	  4.95041	704.21399	 23.50	
  1.699	-26.182	  4.94475	  2.84711	  2.36434	  2.47013	  2.75667	  0.02142	  4.94557	704.46698	 23.50	
  1.692	-77.194	  4.95069	  2.68020	  2.51591	  2.36570	  2.89342	  0.02263	  4.95152	704.27197	 23.50	
  1.691	-128.401	  4.93885	  2.48517	  2.70926	  2.41375	  2.83641	  0.02453	  4.93992	704.34100	 23.50	
  1.700	180.000	  4.94591	  2.42665	  2.81058	  2.60120	  2.66157	  0.02968	  4.94337	704.34003	 23.50	
  3.400	180.000	  4.93182	  2.14408	  3.05142	  2.55036	  2.63046	  0.01320	  4.94150	704.23297	 23.50	
  3.388	-152.325	  4.92737	  2.18681	  2.98919	  2.32973	  2.86398	  0.01074	  4.94126	704.32703	 23.50	
  3.397	-124.529	  4.93233	  2.32628	  2.82971	  2.16872	  3.05303	  0.00798	  4.94807	704.37598	 23.50	
  3.399	-96.763	  4.93840	  2.54395	  2.60118	  2.08757	  3.14764	  0.00524	  4.95354	704.28900	 23.50	
  3.394	-69.283	  4.94132	  2.78416	  2.36806	  2.11305	  3.11568	  0.00393	  4.95625	704.36499	 23.50	
  3.400	-41.398	  4.95729	  3.00124	  2.18596	  2.23850	  2.97889	  0.00400	  4.96671	704.43903	 23.50	
  3.401	-14.021	  4.93357	  3.10430	  2.07589	  2.41733	  2.74954	  0.00562	  4.94066	704.38501	 23.50	
  3.401	 14.021	  4.96280	  3.12508	  2.08750	  2.67288	  2.51900	  0.01088	  4.96555	704.31799	 23.50	
  3.400	 41.398	  4.94094	  2.99553	  2.17935	  2.87677	  2.31131	  0.01169	  4.94199	704.34802	 23.50	
  3.394	 69.283	  4.95215	  2.79667	  2.36993	  3.02618	  2.20163	  0.01567	  4.95197	704.43903	 23.50	
  3.399	 96.763	  4.96022	  2.56503	  2.60149	  3.06733	  2.18657	  0.01637	  4.96136	704.42798	 23.50	
  3.397	124.529	  4.95539	  2.35380	  2.82792	  2.97631	  2.25666	  0.01700	  4.95882	704.45300	 23.40	
  3.388	152.325	  4.94756	  2.20819	  2.99248	  2.78872	  2.41415	  0.01711	  4.95262	704.38000	 23.50	
  5.099	161.165	  4.93077	  1.91292	  3.25967	  2.77977	  2.36830	  0.00022	  4.96218	704.33502	 23.50	
  5.109	142.013	  4.93202	  2.01997	  3.12837	  3.00592	  2.15614	 -0.00074	  4.95433	704.42102	 23.50	
  5.095	123.033	  4.93891	  2.19357	  2.93002	  3.17902	  2.00707	 -0.00005	  4.95759	704.51703	 23.50	
  5.105	104.191	  4.94533	  2.41437	  2.69719	  3.28930	  1.91904	 -0.00212	  4.96256	704.40698	 23.50	
  5.093	 85.207	  4.94039	  2.65732	  2.44130	  3.30324	  1.89728	 -0.00125	  4.95358	704.24103	 23.50	
  5.104	 66.290	  4.94562	  2.90523	  2.21044	  3.23830	  1.94813	 -0.00064	  4.95930	704.26703	 23.50	
  5.094	 47.331	  4.93986	  3.11896	  2.01231	  3.08647	  2.07030	 -0.00438	  4.95674	704.36200	 23.50	
  5.089	 28.397	  4.93335	  3.27390	  1.87172	  2.87855	  2.24575	 -0.00650	  4.95031	704.32098	 23.50	
  5.096	  9.576	  4.93026	  3.36252	  1.79777	  2.63803	  2.47662	 -0.01145	  4.95513	704.35498	 23.50	
  5.096	 -9.576	  4.93960	  3.36551	  1.80097	  2.38900	  2.73819	 -0.01234	  4.96335	704.32397	 23.50	
  5.089	-28.397	  4.93583	  3.27575	  1.87748	  2.16788	  2.97969	 -0.01634	  4.96739	704.46600	 23.50	
  5.094	-47.331	  4.91309	  3.10038	  2.01170	  1.97577	  3.17757	 -0.01943	  4.95262	704.43799	 23.50	
  5.104	-66.290	  4.90861	  2.88106	  2.20749	  1.85235	  3.32442	 -0.01980	  4.95189	704.45801	 23.50	
  5.093	-85.207	  4.90597	  2.63217	  2.44700	  1.80193	  3.39287	 -0.01760	  4.95292	704.50897	 23.50	
  5.105	-104.191	  4.91384	  2.38759	  2.70599	  1.82664	  3.37810	 -0.01543	  4.96514	704.50598	 23.50	
  5.095	-123.033	  4.90449	  2.16946	  2.93648	  1.91841	  3.26378	 -0.00865	  4.95571	704.37701	 23.50	
  5.109	-142.013	  4.90772	  2.00183	  3.13178	  2.07504	  3.08466	 -0.00493	  4.95552	704.54199	 23.50	
  5.099	-161.165	  4.90964	  1.89628	  3.25952	  2.28422	  2.85315	 -0.00145	  4.95299	704.45502	 23.50	
  5.100	180.000	  4.91264	  1.86447	  3.29981	  2.52266	  2.60411	 -0.00099	  4.94887	704.36603	 23.50	
  6.800	180.000	  4.86312	  1.57335	  3.52840	  2.47687	  2.56051	 -0.03133	  4.94958	704.46100	 23.50	
  6.796	-166.229	  4.85159	  1.59442	  3.49140	  2.23637	  2.79817	 -0.02813	  4.93957	704.37701	 23.50	
  6.808	-152.311	  4.86087	  1.66696	  3.41176	  2.02135	  3.04330	 -0.03252	  4.95443	704.33698	 23.50	
  6.795	-138.383	  4.85136	  1.79166	  3.25734	  1.82663	  3.25505	 -0.03607	  4.95095	704.32397	 23.50	
  6.792	-124.591	  4.84371	  1.95660	  3.05984	  1.67224	  3.42586	 -0.03761	  4.94582	704.32703	 23.50	
  6.787	-110.754	  4.83992	  2.15995	  2.83069	  1.56905	  3.54300	 -0.04541	  4.94442	704.28998	 23.50	
  6.800	-96.985	  4.86116	  2.39890	  2.59715	  1.51918	  3.61974	 -0.05145	  4.96285	704.23700	 23.50	
  6.800	-83.015	  4.85007	  2.64195	  2.33911	  1.51233	  3.60894	 -0.05336	  4.95109	704.47601	 23.50	
  6.787	-69.246	  4.86067	  2.88759	  2.10813	  1.56387	  3.54966	 -0.05251	  4.95740	704.55499	 23.50	
  6.792	-55.409	  4.86313	  3.11429	  1.89824	  1.66138	  3.42566	 -0.05272	  4.95123	704.36902	 23.50	
  6.795	-41.617	  4.86427	  3.30717	  1.72481	  1.80813	  3.24925	 -0.05261	  4.94607	704.43402	 23.50	
  6.808	-27.689	  4.87635	  3.46565	  1.59489	  1.99942	  3.03656	 -0.04796	  4.95161	704.45898	 23.50	
  6.796	-13.771	  4.87460	  3.55677	  1.51520	  2.21724	  2.79237	 -0.04383	  4.94394	704.40002	 23.50	
  6.800	  0.000	  4.88354	  3.59529	  1.48917	  2.45590	  2.55135	 -0.04552	  4.94796	704.42102	 23.50	
  6.796	 13.771	  4.90186	  3.57677	  1.51944	  2.71191	  2.31642	 -0.03934	  4.96004	704.50000	 23.50	
  6.808	 27.689	  4.90295	  3.48431	  1.59543	  2.94973	  2.09110	 -0.03552	  4.95903	704.28101	 23.50	
  6.795	 41.617	  4.91203	  3.33946	  1.72866	  3.16297	  1.90988	 -0.03333	  4.96115	704.35498	 23.50	
  6.792	 55.409	  4.89746	  3.13648	  1.89426	  3.33028	  1.75606	 -0.02842	  4.94605	704.45001	 23.50	
  6.787	 69.246	  4.90704	  2.91583	  2.10232	  3.46123	  1.65857	 -0.02621	  4.95470	704.49200	 23.50	
  6.800	 83.015	  4.90401	  2.67368	  2.33108	  3.52659	  1.60593	 -0.02849	  4.95433	704.36902	 23.50	
  6.800	 96.985	  4.90762	  2.42990	  2.58317	  3.53366	  1.60983	 -0.03054	  4.95417	704.40503	 23.50	
  6.787	110.754	  4.90326	  2.19978	  2.82649	  3.47121	  1.66224	 -0.02690	  4.95507	704.39001	 23.50	
  6.792	124.591	  4.90053	  1.99400	  3.05633	  3.35196	  1.76695	 -0.02707	  4.95766	704.35199	 23.50	
  6.795	138.383	  4.89747	  1.82139	  3.25365	  3.18208	  1.91748	 -0.02774	  4.95960	704.43903	 23.50	
  6.808	152.311	  4.86945	  1.68125	  3.39702	  2.95799	  2.09430	 -0.02345	  4.93764	704.31799	 23.50	
  6.796	166.229	  4.88625	  1.60921	  3.50351	  2.73548	  2.32384	 -0.02784	  4.96311	704.34302	 23.50	
  8.491	168.704	  4.81009	  1.30596	  3.71888	  2.67942	  2.25556	 -0.06146	  4.95281	704.34497	 23.50	
  8.502	157.493	  4.81872	  1.37163	  3.64145	  2.92585	  2.02440	 -0.05704	  4.95347	704.42200	 23.50	
  8.494	146.194	  4.83001	  1.48266	  3.51332	  3.15751	  1.81834	 -0.05923	  4.95592	704.51099	 23.50	
  8.495	135.039	  4.83218	  1.62409	  3.33745	  3.35740	  1.63691	 -0.06604	  4.95055	704.53998	 23.50	
  8.487	123.723	  4.84773	  1.81117	  3.13510	  3.53529	  1.49543	 -0.06452	  4.96084	704.38501	 23.50	
  8.492	112.575	  4.85961	  2.02029	  2.90722	  3.66347	  1.39401	 -0.06267	  4.96367	704.31403	 23.50	
  8.510	101.220	  4.83801	  2.24455	  2.64331	  3.72174	  1.32106	 -0.06596	  4.94155	704.41602	 23.50	
  8.500	 90.000	  4.85521	  2.49651	  2.39866	  3.75428	  1.30528	 -0.06823	  4.95582	704.38800	 23.50	
  8.510	 78.780	  4.86541	  2.75419	  2.15197	  3.73270	  1.32313	 -0.06397	  4.96352	704.40503	 23.50	
  8.492	 67.425	  4.86451	  3.00205	  1.91664	  3.64670	  1.39000	 -0.05757	  4.96298	704.40503	 23.50	
  8.487	 56.277	  4.85928	  3.22596	  1.70837	  3.51707	  1.48920	 -0.06104	  4.95773	704.29797	 23.50	
  8.495	 44.961	  4.84997	  3.42598	  1.52469	  3.33742	  1.62954	 -0.06616	  4.95120	704.42700	 23.50	
  8.494	 33.806	  4.85766	  3.59958	  1.38378	  3.13714	  1.81284	 -0.06834	  4.96365	704.45300	 23.50	
  8.502	 22.507	  4.84024	  3.71507	  1.27399	  2.89853	  2.01400	 -0.07086	  4.95147	704.44501	 23.50	
  8.491	 11.296	  4.82758	  3.78107	  1.21221	  2.64868	  2.24086	 -0.07872	  4.94309	704.47803	 23.50	
  8.500	  0.000	  4.82701	  3.80983	  1.19152	  2.39553	  2.49412	 -0.08254	  4.95197	704.42798	 23.50	
  8.491	-11.296	  4.82121	  3.77821	  1.21577	  2.15027	  2.74574	 -0.08049	  4.95128	704.41901	 23.60	
  8.502	-22.507	  4.81985	  3.70239	  1.27958	  1.92155	  2.99393	 -0.08251	  4.95307	704.57898	 23.50	
  8.494	-33.806	  4.81387	  3.57086	  1.38773	  1.71213	  3.22902	 -0.08938	  4.95653	704.46198	 23.60	
  8.495	-44.961	  4.80525	  3.39780	  1.53257	  1.53394	  3.43393	 -0.09451	  4.95687	704.38800	 23.60	
  8.487	-56.277	  4.80989	  3.19514	  1.72082	  1.39919	  3.60971	 -0.09360	  4.96642	704.45801	 23.60	
  8.492	-67.425	  4.78726	  2.95436	  1.92316	  1.29202	  3.72280	 -0.09401	  4.95114	704.53998	 23.60	
  8.510	-78.780	  4.78698	  2.70830	  2.15910	  1.22914	  3.80868	 -0.09734	  4.95603	704.53101	 23.60	
  8.500	-90.000	  4.78860	  2.45786	  2.41170	  1.21414	  3.83698	 -0.09813	  4.96107	704.46997	 23.60	
  8.510	-101.220	  4.76377	  2.19959	  2.65391	  1.22991	  3.79532	 -0.08923	  4.93612	704.50897	 23.60	
  8.492	-112.575	  4.78188	  1.97787	  2.91271	  1.30483	  3.72868	 -0.07829	  4.95664	704.51703	 23.60	
  8.487	-123.723	  4.76701	  1.76880	  3.13438	  1.40708	  3.59423	 -0.07172	  4.94246	704.44702	 23.60	
  8.495	-135.039	  4.77763	  1.59346	  3.34611	  1.55134	  3.43301	 -0.07158	  4.94977	704.60999	 23.60	
  8.494	-146.194	  4.78263	  1.45570	  3.51576	  1.73361	  3.23192	 -0.06821	  4.95154	704.29797	 23.60	
  8.502	-157.493	  4.77947	  1.35204	  3.63650	  1.94231	  2.99309	 -0.06362	  4.94168	704.52600	 23.60	
  8.491	-168.704	  4.79823	  1.29760	  3.72252	  2.17842	  2.75517	 -0.06445	  4.95227	704.39001	 23.60	
  8.500	180.000	  4.80181	  1.27941	  3.74557	  2.42404	  2.50448	 -0.06588	  4.95006	704.55701	 23.60	
 10.200	180.000	  4.71270	  0.97513	  3.94511	  2.35285	  2.42834	 -0.10654	  4.94561	704.55402	 23.60	
 10.191	-170.497	  4.71458	  0.99370	  3.92944	  2.10687	  2.68720	 -0.10242	  4.95719	704.54199	 23.60	
 10.210	-161.034	  4.70973	  1.03894	  3.86450	  1.86942	  2.93785	 -0.10252	  4.95787	704.43799	 23.60	
 10.194	-151.526	  4.70341	  1.12785	  3.75272	  1.64651	  3.18210	 -0.10552	  4.95961	704.35797	 23.60	
 10.190	-142.105	  4.70692	  1.24707	  3.61081	  1.45080	  3.41083	 -0.10655	  4.96739	704.53998	 23.60	
 10.215	-132.646	  4.70142	  1.39366	  3.42966	  1.27986	  3.60551	 -0.10748	  4.96476	704.47302	 23.60	
 10.203	-123.092	  4.68713	  1.57335	  3.20558	  1.13518	  3.76308	 -0.10977	  4.95477	704.50000	 23.60	
 10.192	-113.678	  4.69341	  1.78257	  2.97461	  1.03008	  3.89626	 -0.11601	  4.96345	704.55499	 23.60	
 10.208	-104.249	  4.68273	  2.00275	  2.71927	  0.95034	  3.97598	 -0.12797	  4.95334	704.43799	 23.60	
 10.210	-94.801	  4.67745	  2.24327	  2.46094	  0.91145	  4.01445	 -0.13713	  4.94355	704.52399	 23.60	
 10.210	-85.199	  4.69659	  2.50931	  2.20955	  0.91294	  4.02729	 -0.13979	  4.96223	704.43103	 23.60	
 10.208	-75.751	  4.68834	  2.75578	  1.95778	  0.94345	  3.97233	 -0.13941	  4.94705	704.50000	 23.60	
 10.192	-66.322	  4.69700	  3.00511	  1.73068	  1.01633	  3.88258	 -0.13698	  4.94607	704.44702	 23.60	
 10.203	-56.908	  4.70875	  3.24390	  1.52221	  1.11851	  3.75816	 -0.13364	  4.95335	704.55200	 23.60	
 10.215	-47.354	  4.72056	  3.46472	  1.33424	  1.25654	  3.59531	 -0.13305	  4.95863	704.45203	 23.60	
 10.190	-37.895	  4.70313	  3.63021	  1.17659	  1.41723	  3.37972	 -0.12928	  4.93376	704.38800	 23.60	
 10.194	-28.474	  4.73997	  3.80484	  1.05870	  1.61924	  3.17848	 -0.12389	  4.96615	704.38800	 23.60	
 10.210	-18.966	  4.74169	  3.91484	  0.96536	  1.83842	  2.92929	 -0.11891	  4.95842	704.42200	 23.60	
 10.191	 -9.503	  4.74035	  3.97512	  0.91216	  2.06981	  2.67446	 -0.11898	  4.94537	704.38202	 23.60	
 10.200	  0.000	  4.74941	  4.00609	  0.89050	  2.32015	  2.42323	 -0.12122	  4.95121	704.35101	 23.60	
 10.191	  9.503	  4.75460	  3.98441	  0.90893	  2.57871	  2.16961	 -0.12115	  4.95113	704.38000	 23.60	
 10.210	 18.966	  4.76509	  3.92915	  0.96006	  2.83253	  1.93483	 -0.11380	  4.95566	704.49200	 23.60	
 10.194	 28.474	  4.76673	  3.81781	  1.04962	  3.07200	  1.71545	 -0.10547	  4.94838	704.41602	 23.60	
 10.190	 37.895	  4.76888	  3.67058	  1.17108	  3.29668	  1.51857	 -0.10474	  4.94756	704.50598	 23.60	
 10.215	 47.354	  4.77412	  3.49517	  1.32197	  3.50014	  1.34890	 -0.10083	  4.94652	704.47601	 23.60	
 10.203	 56.908	  4.78933	  3.29220	  1.51314	  3.67813	  1.21788	 -0.09396	  4.96123	704.52100	 23.60	
 10.192	 66.322	  4.78824	  3.05762	  1.72371	  3.80413	  1.11722	 -0.09004	  4.95545	704.57599	 23.60	
 10.208	 75.751	  4.78692	  2.81152	  1.94974	  3.89772	  1.04432	 -0.09791	  4.95510	704.45898	 23.60	
 10.210	 85.199	  4.79242	  2.56327	  2.19648	  3.95267	  1.00809	 -0.10595	  4.96466	704.48102	 23.60	
 10.210	 94.801	  4.79155	  2.30478	  2.45920	  3.95834	  1.00968	 -0.11113	  4.96343	704.45898	 23.60	
 10.208	104.249	  4.77937	  2.05572	  2.71066	  3.90650	  1.04606	 -0.10742	  4.95572	704.51398	 23.60	
 10.192	113.678	  4.78242	  1.83195	  2.96360	  3.82720	  1.12175	 -0.10228	  4.95992	704.38000	 23.70	
 10.203	123.092	  4.77299	  1.62101	  3.19805	  3.69855	  1.22317	 -0.10341	  4.95842	704.42200	 23.60	
 10.215	132.646	  4.76817	  1.43223	  3.41624	  3.53883	  1.35977	 -0.10235	  4.96168	704.45203	 23.70	
 10.190	142.105	  4.75126	  1.27758	  3.59273	  3.33098	  1.52824	 -0.09869	  4.95286	704.40503	 23.70	
 10.194	151.526	  4.74985	  1.15441	  3.74988	  3.11264	  1.72739	 -0.09265	  4.96107	704.45001	 23.70	
 10.210	161.034	  4.74370	  1.05959	  3.86449	  2.87216	  1.94554	 -0.09365	  4.96162	704.43597	 23.70	
 10.191	170.497	  4.72829	  1.00358	  3.92653	  2.61722	  2.18092	 -0.10073	  4.95564	704.48999	 23.70	
 11.899	171.783	  4.63040	  0.70030	  4.11706	  2.53952	  2.09715	 -0.14203	  4.95816	704.50897	 23.70	
 11.890	163.610	  4.63225	  0.74984	  4.05238	  2.78869	  1.85948	 -0.13414	  4.95351	704.52301	 23.70	
 11.889	155.445	  4.65076	  0.83103	  3.96473	  3.04226	  1.63859	 -0.12941	  4.96340	704.54602	 23.70	
 11.909	147.299	  4.63826	  0.92968	  3.81818	  3.26728	  1.41883	 -0.13379	  4.94174	704.49298	 23.70	
 11.902	139.148	  4.65863	  1.06979	  3.65884	  3.48795	  1.23921	 -0.13762	  4.95333	704.50897	 23.70	
 11.894	130.867	  4.67848	  1.23594	  3.47036	  3.68793	  1.08262	 -0.14274	  4.96374	704.33197	 23.70	
 11.897	122.732	  4.67918	  1.42096	  3.24696	  3.84401	  0.94770	 -0.14440	  4.95531	704.41602	 23.70	
 11.903	114.597	  4.68042	  1.62604	  3.00771	  3.97173	  0.84173	 -0.14723	  4.95129	704.38501	 23.70	
 11.893	106.346	  4.69832	  1.85941	  2.76022	  4.07586	  0.76638	 -0.14916	  4.96671	704.50098	 23.70	
 11.892	 98.155	  4.68780	  2.09597	  2.49567	  4.11977	  0.71628	 -0.15449	  4.95033	704.50598	 23.70	
 11.900	 90.000	  4.69631	  2.34776	  2.24076	  4.14064	  0.70086	 -0.15168	  4.95580	704.45502	 23.70	
 11.892	 81.845	  4.69459	  2.60257	  1.98514	  4.11531	  0.71365	 -0.14273	  4.95543	704.36200	 23.70	
 11.893	 73.654	  4.71210	  2.86620	  1.75043	  4.06591	  0.76323	 -0.13471	  4.97218	704.43402	 23.70	
 11.903	 65.403	  4.70148	  3.10997	  1.51683	  3.95965	  0.83543	 -0.12570	  4.96429	704.31201	 23.70	
 11.897	 57.268	  4.68661	  3.33236	  1.30643	  3.81174	  0.93864	 -0.13065	  4.94687	704.53101	 23.70	
 11.894	 49.133	  4.69238	  3.55040	  1.12419	  3.65088	  1.07172	 -0.13521	  4.95512	704.39099	 23.70	
 11.902	 40.852	  4.68583	  3.74067	  0.95958	  3.45464	  1.22986	 -0.14150	  4.95240	704.36798	 23.70	
 11.909	 32.701	  4.68284	  3.90237	  0.82765	  3.23848	  1.41190	 -0.14752	  4.95643	704.45801	 23.70	
 11.889	 24.555	  4.67595	  4.02663	  0.72717	  2.99663	  1.62172	 -0.15264	  4.95323	704.40802	 23.70	
 11.890	 16.390	  4.67828	  4.12479	  0.65311	  2.75321	  1.84773	 -0.15800	  4.96297	704.50098	 23.70	
 11.899	  8.217	  4.67450	  4.18275	  0.60931	  2.50176	  2.08931	 -0.16408	  4.96720	704.53198	 23.70	
 11.900	  0.000	  4.66167	  4.19158	  0.59277	  2.23889	  2.34068	 -0.16015	  4.96118	704.58502	 23.70	
 11.899	 -8.217	  4.64791	  4.16290	  0.60952	  1.98602	  2.59215	 -0.15756	  4.95279	704.41901	 23.70	
 11.890	-16.390	  4.65172	  4.10932	  0.65902	  1.75218	  2.85203	 -0.15542	  4.96340	704.55402	 23.70	
 11.889	-24.555	  4.63098	  3.99842	  0.73239	  1.52042	  3.09303	 -0.15602	  4.95023	704.46198	 23.70	
 11.909	-32.701	  4.62296	  3.86623	  0.83671	  1.31671	  3.32604	 -0.16212	  4.94687	704.50000	 23.70	
 11.902	-40.852	  4.63193	  3.71250	  0.97646	  1.14073	  3.55339	 -0.16608	  4.96813	704.54602	 23.70	
 11.894	-49.133	  4.61364	  3.50624	  1.13738	  0.97605	  3.73852	 -0.17077	  4.95372	704.45502	 23.70	
 11.897	-57.268	  4.61649	  3.29529	  1.32566	  0.84636	  3.91094	 -0.17367	  4.96629	704.47498	 23.70	
 11.903	-65.403	  4.59991	  3.05239	  1.53138	  0.74006	  4.03750	 -0.17509	  4.95833	704.33698	 23.70	
 11.893	-73.654	  4.58658	  2.79597	  1.75810	  0.66870	  4.12345	 -0.17638	  4.94816	704.44702	 23.70	
 11.892	-81.845	  4.58637	  2.54428	  2.00260	  0.62862	  4.18417	 -0.17952	  4.95133	704.48602	 23.70	
 11.900	-90.000	  4.58056	  2.28677	  2.25416	  0.61380	  4.20323	 -0.18038	  4.95157	704.39099	 23.70	
 11.892	-98.155	  4.58658	  2.04271	  2.51494	  0.63277	  4.19184	 -0.17739	  4.95957	704.52100	 23.70	
 11.893	-106.346	  4.57405	  1.79813	  2.76422	  0.67712	  4.12721	 -0.16476	  4.95274	704.56299	 23.70	
 11.903	-114.597	  4.57668	  1.57448	  3.01808	  0.75432	  4.03767	 -0.15373	  4.95643	704.57599	 23.70	
 11.897	-122.732	  4.59017	  1.37553	  3.26131	  0.86394	  3.91633	 -0.14519	  4.96792	704.52600	 23.70	
 11.894	-130.867	  4.58070	  1.19211	  3.46886	  0.99907	  3.74482	 -0.14319	  4.95522	704.46100	 23.70	
 11.902	-139.148	  4.58323	  1.03271	  3.66390	  1.16236	  3.54998	 -0.14232	  4.95299	704.44397	 23.70	
 11.909	-147.299	  4.59053	  0.90080	  3.83263	  1.34580	  3.34056	 -0.14633	  4.95962	704.56799	 23.70	
 11.889	-155.445	  4.58978	  0.80465	  3.95296	  1.55188	  3.10061	 -0.14302	  4.94664	704.47498	 23.70	
 11.890	-163.610	  4.61717	  0.73672	  4.06814	  1.78960	  2.86624	 -0.14371	  4.97081	704.40802	 23.70	
 11.899	-171.783	  4.59907	  0.69173	  4.10426	  2.02036	  2.59911	 -0.14648	  4.94638	704.39600	 23.70	
 11.900	180.000	  4.61300	  0.68131	  4.12721	  2.27464	  2.34851	 -0.14443	  4.94821	704.44397	 23.70	
 13.600	180.000	  4.48936	  0.38439	  4.29417	  2.18075	  2.25205	 -0.18500	  4.94895	704.57098	 23.70	
 13.608	-172.853	  4.48825	  0.39154	  4.28527	  1.93491	  2.50453	 -0.18725	  4.95647	704.45801	 23.70	
 13.611	-165.583	  4.47030	  0.42312	  4.22623	  1.68763	  2.75466	 -0.18669	  4.94691	704.42401	 23.70	
 13.601	-158.353	  4.47158	  0.48597	  4.14692	  1.45600	  3.01294	 -0.18655	  4.95378	704.39001	 23.70	
 13.609	-151.210	  4.48426	  0.57376	  4.04884	  1.24825	  3.26450	 -0.18774	  4.97658	704.50598	 23.70	
 13.611	-143.999	  4.46455	  0.68471	  3.88652	  1.05022	  3.48139	 -0.18123	  4.95976	704.55402	 23.70	
 13.601	-136.825	  4.45592	  0.81841	  3.70800	  0.87157	  3.68635	 -0.17684	  4.95528	704.53400	 23.70	
 13.596	-129.640	  4.46659	  0.98197	  3.51551	  0.71946	  3.88330	 -0.17498	  4.97092	704.50897	 23.70	
 13.611	-122.431	  4.44492	  1.15598	  3.28495	  0.58823	  4.02797	 -0.17783	  4.94941	704.52600	 23.70	
 13.604	-115.211	  4.45036	  1.36262	  3.05055	  0.48610	  4.16226	 -0.18406	  4.95729	704.44202	 23.70	
 13.595	-108.042	  4.45490	  1.58339	  2.80326	  0.41089	  4.26231	 -0.19573	  4.95769	704.68103	 23.70	
 13.607	-100.793	  4.45866	  1.81837	  2.54815	  0.35284	  4.33495	 -0.20469	  4.96699	704.45898	 23.70	
 13.601	-93.617	  4.45957	  2.06250	  2.29123	  0.32630	  4.36461	 -0.20685	  4.96010	704.43103	 23.70	
 13.601	-86.383	  4.45950	  2.31670	  2.03172	  0.32182	  4.35908	 -0.20548	  4.95452	704.44202	 23.70	
 13.607	-79.207	  4.46592	  2.57300	  1.78748	  0.34609	  4.32924	 -0.20317	  4.95920	704.45898	 23.70	
 13.595	-71.958	  4.46908	  2.82823	  1.54910	  0.39852	  4.25646	 -0.20143	  4.95279	704.47601	 23.70	
 13.604	-64.789	  4.48519	  3.08227	  1.32898	  0.47260	  4.16713	 -0.19946	  4.96538	704.50897	 23.70	
 13.611	-57.569	  4.48671	  3.31958	  1.11913	  0.56948	  4.03255	 -0.19614	  4.96113	704.69397	 23.70	
 13.596	-50.360	  4.49603	  3.54109	  0.93534	  0.69745	  3.87319	 -0.19625	  4.96355	704.57098	 23.70	
 13.601	-43.175	  4.50342	  3.74346	  0.77126	  0.84774	  3.68664	 -0.19568	  4.96290	704.46600	 23.70	
 13.611	-36.001	  4.51208	  3.92366	  0.62648	  1.01859	  3.47736	 -0.19387	  4.96473	704.49200	 23.70	
 13.609	-28.790	  4.51922	  4.07405	  0.50879	  1.20865	  3.25039	 -0.18660	  4.96396	704.44202	 23.70	
 13.601	-21.647	  4.52696	  4.19216	  0.41852	  1.41936	  3.01036	 -0.18558	  4.96344	704.43799	 23.70	
 13.611	-14.417	  4.51687	  4.26363	  0.34916	  1.64255	  2.74553	 -0.18308	  4.94176	704.47302	 23.70	
 13.608	 -7.147	  4.53739	  4.33257	  0.31206	  1.89150	  2.49767	 -0.18841	  4.95837	704.42999	 23.70	
 13.600	  0.000	  4.54441	  4.35143	  0.29729	  2.13886	  2.24518	 -0.18746	  4.96094	704.55701	 23.70	
 13.608	  7.147	  4.55352	  4.34318	  0.30759	  2.39402	  1.99469	 -0.19534	  4.96139	704.51099	 23.70	
 13.611	 14.417	  4.56654	  4.30308	  0.34425	  2.65577	  1.75537	 -0.19468	  4.96684	704.57703	 23.70	
 13.601	 21.647	  4.55846	  4.20900	  0.41031	  2.90129	  1.52062	 -0.18871	  4.95326	704.58801	 23.70	
 13.609	 28.790	  4.55936	  4.09239	  0.49632	  3.14273	  1.30541	 -0.17968	  4.94909	704.45001	 23.70	
 13.611	 36.001	  4.56083	  3.94772	  0.60770	  3.36989	  1.10905	 -0.17693	  4.94233	704.42700	 23.70	
 13.601	 43.175	  4.57705	  3.78278	  0.75183	  3.58767	  0.94250	 -0.17275	  4.95334	704.36798	 23.70	
 13.596	 50.360	  4.58467	  3.58934	  0.91522	  3.78306	  0.79122	 -0.16865	  4.95619	704.49500	 23.70	
 13.611	 57.569	  4.59237	  3.37605	  1.10041	  3.95530	  0.65970	 -0.16228	  4.96456	704.66400	 23.70	
 13.604	 64.789	  4.59745	  3.14384	  1.30972	  4.09402	  0.55991	 -0.16200	  4.96537	704.52301	 23.70	
 13.595	 71.958	  4.59176	  2.89465	  1.52904	  4.19038	  0.48281	 -0.16977	  4.96081	704.50702	 23.70	
 13.607	 79.207	  4.58947	  2.63807	  1.76671	  4.26082	  0.43099	 -0.17878	  4.95378	704.48700	 23.70	
 13.601	 86.383	  4.59272	  2.38487	  2.01712	  4.30080	  0.40621	 -0.18988	  4.96108	704.48602	 23.70	
 13.601	 93.617	  4.59178	  2.13014	  2.27719	  4.30694	  0.40654	 -0.19343	  4.96174	704.36499	 23.70	
 13.607	100.793	  4.58437	  1.88094	  2.53361	  4.27356	  0.43237	 -0.19428	  4.95714	704.46997	 23.70	
 13.595	108.042	  4.59031	  1.64771	  2.79658	  4.21833	  0.48633	 -0.19099	  4.96699	704.54199	 23.70	
 13.604	115.211	  4.58416	  1.42477	  3.04722	  4.12088	  0.56347	 -0.18792	  4.96920	704.38300	 23.70	
 13.611	122.431	  4.56443	  1.21454	  3.27846	  3.98038	  0.66502	 -0.18501	  4.95790	704.39899	 23.70	
 13.596	129.640	  4.55827	  1.03013	  3.50008	  3.81678	  0.79870	 -0.17836	  4.95358	704.38300	 23.70	
 13.601	136.825	  4.55017	  0.86292	  3.70364	  3.62862	  0.95043	 -0.17529	  4.95262	704.41302	 23.70	
 13.611	143.999	  4.54677	  0.72193	  3.88616	  3.42835	  1.12276	 -0.17374	  4.96247	704.38300	 23.70	
 13.609	151.210	  4.52571	  0.60244	  4.02463	  3.19340	  1.31302	 -0.16811	  4.94979	704.54901	 23.70	
 13.601	158.353	  4.53040	  0.51122	  4.15309	  2.95794	  1.53499	 -0.16989	  4.96472	704.44702	 23.70	
 13.611	165.583	  4.51636	  0.43983	  4.23825	  2.70272	  1.76118	 -0.17686	  4.96093	704.42999	 23.70	
 13.608	172.853	  4.50403	  0.39829	  4.28392	  2.44270	  2.00233	 -0.18157	  4.95567	704.55499	 23.70	
 15.298	173.587	  4.36023	  0.10709	  4.42642	  2.33522	  1.89198	 -0.21502	  4.95051	704.43103	 23.70	
 15.291	167.167	  4.38403	  0.14292	  4.39775	  2.59855	  1.66117	 -0.21090	  4.96533	704.39001	 23.70	
 15.307	160.676	  4.38501	  0.20412	  4.31463	  2.84888	  1.42669	 -0.20558	  4.95573	704.52600	 23.70	
 15.300	154.261	  4.39530	  0.28606	  4.20717	  3.09736	  1.20669	 -0.20438	  4.95831	704.45001	 23.70	
 15.288	147.854	  4.40626	  0.39008	  4.07439	  3.33151	  1.01097	 -0.20461	  4.95486	704.59601	 23.70	
 15.293	141.428	  4.42860	  0.51451	  3.92689	  3.56257	  0.82999	 -0.20752	  4.97152	704.64398	 23.70	
 15.299	134.985	  4.41994	  0.65900	  3.72593	  3.75403	  0.66018	 -0.21162	  4.95453	704.51801	 23.70	
 15.305	128.583	  4.41747	  0.82200	  3.51243	  3.92851	  0.51355	 -0.21157	  4.93964	704.55499	 23.70	
 15.309	122.142	  4.44773	  1.01074	  3.30332	  4.10401	  0.39257	 -0.21551	  4.96572	704.63202	 23.70	
 15.304	115.711	  4.44788	  1.21291	  3.06047	  4.22507	  0.29533	 -0.21781	  4.95766	704.54901	 23.70	
 15.297	109.291	  4.45552	  1.43136	  2.81063	  4.32818	  0.21658	 -0.21862	  4.95800	704.41602	 23.70	
 15.293	102.897	  4.46128	  1.66072	  2.55637	  4.40088	  0.15746	 -0.22027	  4.95901	704.46698	 23.70	
 15.293	 96.458	  4.45537	  1.89988	  2.29345	  4.43527	  0.12285	 -0.22120	  4.94911	704.50098	 23.70	
 15.300	 90.000	  4.47280	  2.15593	  2.04159	  4.46189	  0.11053	 -0.21842	  4.96630	704.59998	 23.70	
 15.293	 83.542	  4.46255	  2.40436	  1.78363	  4.43023	  0.12114	 -0.21512	  4.95333	704.55499	 23.70	
 15.293	 77.103	  4.45581	  2.65656	  1.53839	  4.37582	  0.15251	 -0.20677	  4.94496	704.53802	 23.70	
 15.297	 70.709	  4.46521	  2.91211	  1.31033	  4.30512	  0.21110	 -0.19832	  4.95631	704.37598	 23.70	
 15.304	 64.289	  4.47065	  3.16284	  1.09365	  4.20335	  0.28678	 -0.18936	  4.96278	704.39301	 23.70	
 15.309	 57.858	  4.45758	  3.38795	  0.88997	  4.06113	  0.38478	 -0.19252	  4.95644	704.37402	 23.70	
 15.305	 51.417	  4.45491	  3.60619	  0.70743	  3.89711	  0.50844	 -0.19388	  4.95352	704.46899	 23.70	
 15.299	 45.015	  4.44766	  3.80487	  0.54221	  3.70599	  0.65155	 -0.20252	  4.94999	704.45300	 23.70	
 15.293	 38.572	  4.45616	  3.99305	  0.40275	  3.50674	  0.82016	 -0.20380	  4.96368	704.46899	 23.70	
 15.288	 32.146	  4.44727	  4.14510	  0.28187	  3.28012	  1.00067	 -0.20449	  4.96033	704.47601	 23.70	
 15.300	 25.739	  4.43860	  4.27087	  0.18055	  3.04311	  1.19665	 -0.20552	  4.95811	704.49200	 23.70	
 15.307	 19.324	  4.42525	  4.36504	  0.10484	  2.78935	  1.41423	 -0.20759	  4.94910	704.53699	 23.70	
 15.291	 12.833	  4.43207	  4.44645	  0.05471	  2.54097	  1.65287	 -0.20818	  4.96182	704.45898	 23.70	
 15.298	  6.413	  4.42737	  4.48989	  0.02281	  2.28769	  1.89317	 -0.20487	  4.96738	704.42700	 23.70	
 15.300	  0.000	  4.40600	  4.48900	  0.01057	  2.02679	  2.13565	 -0.20082	  4.95330	704.42999	 23.70	
 15.298	 -6.413	  4.41015	  4.47924	  0.02303	  1.78390	  2.39485	 -0.20194	  4.96168	704.40698	 23.80	
 15.291	-12.833	  4.40150	  4.42885	  0.06025	  1.54789	  2.64468	 -0.20306	  4.95977	704.43903	 23.70	
 15.307	-19.324	  4.39595	  4.35378	  0.11581	  1.31362	  2.90313	 -0.20419	  4.96539	704.37402	 23.70	
 15.300	-25.739	  4.39244	  4.24724	  0.19739	  1.10421	  3.14986	 -0.20581	  4.96771	704.50702	 23.70	
 15.288	-32.146	  4.36458	  4.09278	  0.29781	  0.90409	  3.36308	 -0.20636	  4.94010	704.56500	 23.70	
 15.293	-38.572	  4.37656	  3.95110	  0.42214	  0.72535	  3.60150	 -0.20892	  4.96634	704.45898	 23.70	
 15.299	-45.015	  4.35739	  3.75653	  0.56295	  0.55942	  3.79860	 -0.20676	  4.95527	704.46698	 23.70	
 15.305	-51.417	  4.35736	  3.55484	  0.73173	  0.42422	  3.97966	 -0.20544	  4.96069	704.37598	 23.70	
 15.309	-57.858	  4.34435	  3.32819	  0.91360	  0.30573	  4.13323	 -0.20456	  4.95292	704.44702	 23.80	
 15.304	-64.289	  4.34575	  3.09589	  1.11787	  0.20943	  4.27244	 -0.20471	  4.96395	704.56201	 23.80	
 15.297	-70.709	  4.33784	  2.84511	  1.33641	  0.13086	  4.37717	 -0.20664	  4.96270	704.50897	 23.80	
 15.293	-77.103	  4.31621	  2.58353	  1.56033	  0.07542	  4.43797	 -0.20852	  4.94534	704.51099	 23.80	
 15.293	-83.542	  4.32139	  2.33223	  1.80543	  0.04280	  4.49433	 -0.21155	  4.95771	704.59100	 23.80	
 15.300	-90.000	  4.31148	  2.07393	  2.05665	  0.03266	  4.50610	 -0.21861	  4.95527	704.64099	 23.80	
 15.293	-96.458	  4.31403	  1.82863	  2.31214	  0.04711	  4.49480	 -0.21923	  4.96167	704.45300	 23.80	
 15.293	-102.897	  4.31098	  1.58794	  2.56871	  0.08308	  4.45033	 -0.22223	  4.96045	704.53802	 23.70	
 15.297	-109.291	  4.31083	  1.35947	  2.82298	  0.13794	  4.37850	 -0.21376	  4.96083	704.49799	 23.80	
 15.304	-115.711	  4.31223	  1.14794	  3.07075	  0.21971	  4.27635	 -0.21068	  4.96065	704.61798	 23.70	
 15.309	-122.142	  4.29439	  0.94635	  3.29287	  0.32042	  4.12825	 -0.20502	  4.94279	704.39301	 23.70	
 15.305	-128.583	  4.31383	  0.76906	  3.52915	  0.44353	  3.98725	 -0.20509	  4.96188	704.43799	 23.80	
 15.299	-134.985	  4.31104	  0.61055	  3.72825	  0.58635	  3.80558	 -0.20884	  4.95614	704.48401	 23.80	
 15.293	-141.428	  4.32006	  0.47249	  3.91572	  0.75427	  3.60540	 -0.21293	  4.95875	704.54199	 23.80	
 15.288	-147.854	  4.32482	  0.35638	  4.07412	  0.94147	  3.38225	 -0.21768	  4.95663	704.53198	 23.80	
 15.300	-154.261	  4.33269	  0.25954	  4.20980	  1.13926	  3.15192	 -0.21893	  4.95785	704.58698	 23.80	
 15.307	-160.676	  4.33089	  0.18386	  4.30804	  1.35411	  2.90539	 -0.22286	  4.95336	704.49799	 23.80	
 15.291	-167.167	  4.35355	  0.13220	  4.39815	  1.59564	  2.65633	 -0.22421	  4.97128	704.59900	 23.80	
 15.298	-173.587	  4.33673	  0.10334	  4.41884	  1.82815	  2.39000	 -0.22155	  4.93906	704.47601	 23.80	
 15.300	180.000	  4.35277	  0.09440	  4.44201	  2.07949	  2.14463	 -0.21830	  4.94749	704.49298	 23.80	
 17.000	180.000	  4.20003	 -0.18205	  4.57402	  1.96980	  2.03056	 -0.24014	  4.94800	704.54602	 23.80	
 16.990	-174.179	  4.19455	 -0.17724	  4.56436	  1.72460	  2.27928	 -0.24410	  4.95380	704.58502	 23.80	
 17.009	-168.383	  4.19512	 -0.15145	  4.53536	  1.48894	  2.53449	 -0.24768	  4.96530	704.56799	 23.80	
 17.000	-162.596	  4.17900	 -0.10608	  4.45486	  1.25327	  2.78178	 -0.24391	  4.95290	704.64099	 23.80	
 16.990	-156.759	  4.17763	 -0.03918	  4.36457	  1.03868	  3.03015	 -0.24521	  4.95956	704.56000	 23.80	
 16.995	-150.919	  4.16955	  0.04592	  4.24168	  0.83419	  3.26760	 -0.24144	  4.95525	704.58801	 23.80	
 16.988	-145.161	  4.15104	  0.14601	  4.08452	  0.64242	  3.48350	 -0.24148	  4.94055	704.56799	 23.80	
 17.014	-139.343	  4.15788	  0.26530	  3.92831	  0.46793	  3.71018	 -0.24085	  4.95887	704.57300	 23.80	
 17.007	-133.546	  4.16534	  0.40848	  3.74763	  0.32035	  3.91181	 -0.23408	  4.96826	704.49799	 23.80	
 17.001	-127.699	  4.15294	  0.56928	  3.52895	  0.18353	  4.07975	 -0.22862	  4.95754	704.52600	 23.80	
 17.006	-121.937	  4.15518	  0.74365	  3.30988	  0.06384	  4.23976	 -0.22720	  4.96115	704.43597	 23.80	
 17.002	-116.134	  4.14900	  0.93322	  3.07118	 -0.03508	  4.36569	 -0.22377	  4.95866	704.60498	 23.80	
 17.001	-110.310	  4.14527	  1.14033	  2.82440	 -0.11426	  4.46774	 -0.22269	  4.95440	704.61298	 23.80	
 16.988	-104.517	  4.15580	  1.36685	  2.58101	 -0.16803	  4.55098	 -0.22345	  4.96354	704.57703	 23.80	
 17.008	-98.662	  4.14880	  1.59659	  2.32382	 -0.20996	  4.59667	 -0.21657	  4.95326	704.61298	 23.80	
 16.996	-92.909	  4.15270	  1.83492	  2.07186	 -0.23122	  4.62116	 -0.20798	  4.95359	704.56299	 23.80	
 16.996	-87.091	  4.14800	  2.07888	  1.81574	 -0.23025	  4.60993	 -0.20437	  4.94282	704.53802	 23.80	
 17.012	-81.253	  4.17184	  2.34241	  1.57959	 -0.21818	  4.60815	 -0.20035	  4.96845	704.56500	 23.80	
 16.988	-75.483	  4.18831	  2.59975	  1.35100	 -0.18139	  4.56607	 -0.19602	  4.98058	704.59998	 23.80	
 17.001	-69.690	  4.17225	  2.83692	  1.11748	 -0.12814	  4.46570	 -0.19574	  4.95338	704.61902	 23.80	
 17.002	-63.866	  4.18888	  3.09173	  0.91189	 -0.04878	  4.36871	 -0.19496	  4.96416	704.58698	 23.80	
 17.006	-58.063	  4.18880	  3.32233	  0.71356	  0.04478	  4.22827	 -0.20157	  4.95184	704.59399	 23.80	
 17.001	-52.301	  4.20639	  3.55419	  0.53842	  0.16111	  4.08295	 -0.20397	  4.96450	704.59100	 23.80	
 17.007	-46.454	  4.20675	  3.75946	  0.37030	  0.29135	  3.89868	 -0.20490	  4.95589	704.70898	 23.80	
 17.014	-40.657	  4.21834	  3.95472	  0.22629	  0.43889	  3.70990	 -0.21258	  4.96304	704.59998	 23.80	
 16.988	-34.839	  4.22659	  4.12399	  0.10171	  0.61147	  3.49489	 -0.20799	  4.96202	704.50098	 23.80	
 16.995	-29.081	  4.22174	  4.25725	 -0.00647	  0.79474	  3.25788	 -0.21133	  4.94623	704.52600	 23.80	
 16.990	-23.241	  4.23580	  4.38906	 -0.09628	  0.99439	  3.02490	 -0.21080	  4.95695	704.67499	 23.80	
 17.000	-17.404	  4.24195	  4.48619	 -0.16879	  1.20749	  2.77745	 -0.21175	  4.95818	704.61298	 23.80	
 17.009	-11.617	  4.24611	  4.55294	 -0.21861	  1.43396	  2.52493	 -0.20675	  4.95278	704.73499	 23.80	
 16.990	 -5.821	  4.24539	  4.58667	 -0.24500	  1.66749	  2.27147	 -0.20150	  4.94180	704.63300	 23.80	
 17.000	  0.000	  4.27473	  4.62878	 -0.25896	  1.91915	  2.03337	 -0.20146	  4.97098	704.66302	 23.80	
 16.990	  5.821	  4.26318	  4.59755	 -0.24768	  2.16493	  1.77774	 -0.20615	  4.94660	704.50098	 23.80	
 17.009	 11.617	  4.27055	  4.56756	 -0.22644	  2.41448	  1.53929	 -0.20819	  4.95253	704.70398	 23.80	
 17.000	 17.404	  4.28680	  4.51491	 -0.17781	  2.67150	  1.31576	 -0.21221	  4.96210	704.62500	 23.80	
 16.990	 23.241	  4.29593	  4.42442	 -0.11250	  2.92440	  1.09565	 -0.20947	  4.96126	704.59998	 23.80	
 16.995	 29.081	  4.29110	  4.29875	 -0.02460	  3.15850	  0.89042	 -0.20668	  4.94793	704.58698	 23.80	
 16.988	 34.839	  4.30767	  4.16865	  0.07928	  3.39513	  0.70785	 -0.21406	  4.96221	704.64203	 23.80	
 17.014	 40.657	  4.30472	  4.00096	  0.19959	  3.61275	  0.52842	 -0.21951	  4.95717	704.58698	 23.80	
 17.007	 46.454	  4.31730	  3.82262	  0.34312	  3.82068	  0.37605	 -0.22062	  4.96427	704.53400	 23.80	
 17.001	 52.301	  4.31272	  3.60834	  0.50693	  3.99366	  0.24301	 -0.21743	  4.95213	704.50299	 23.80	
 17.006	 58.063	  4.31495	  3.39121	  0.68393	  4.15161	  0.12435	 -0.21424	  4.94986	704.47302	 23.80	
 17.002	 63.866	  4.32878	  3.16958	  0.88051	  4.30198	  0.02569	 -0.21481	  4.96464	704.57599	 23.80	
 17.001	 69.690	  4.32160	  2.92136	  1.08865	  4.40881	 -0.05677	 -0.21862	  4.95781	704.42102	 23.80	
 16.988	 75.483	  4.32152	  2.66912	  1.31406	  4.49129	 -0.11399	 -0.22290	  4.95710	704.62500	 23.80	
 17.012	 81.253	  4.32452	  2.42252	  1.54777	  4.55383	 -0.15529	 -0.23069	  4.96163	704.39697	 23.80	
 16.996	 87.091	  4.32872	  2.17068	  1.80032	  4.58670	 -0.16918	 -0.22931	  4.96469	704.50098	 23.80	
 16.996	 92.909	  4.32329	  1.91527	  2.05243	  4.58440	 -0.16889	 -0.23098	  4.96002	704.53802	 23.80	
 17.008	 98.662	  4.32364	  1.67710	  2.30689	  4.56815	 -0.15058	 -0.23065	  4.96589	704.53101	 23.80	
 16.988	104.517	  4.31621	  1.43975	  2.56191	  4.51013	 -0.10912	 -0.23200	  4.95942	704.56500	 23.80	
 17.001	110.310	  4.31860	  1.21905	  2.82078	  4.44112	 -0.04863	 -0.23469	  4.96667	704.51703	 23.80	
 17.002	116.134	  4.29833	  1.00218	  3.05772	  4.32025	  0.03049	 -0.23134	  4.95017	704.41302	 23.80	
 17.006	121.937	  4.29437	  0.80850	  3.29859	  4.19229	  0.13340	 -0.23294	  4.95338	704.50897	 23.80	
 17.001	127.699	  4.29912	  0.62787	  3.53432	  4.05124	  0.24798	 -0.23564	  4.96498	704.53802	 23.80	
 17.007	133.546	  4.27706	  0.45969	  3.73391	  3.86458	  0.38160	 -0.23519	  4.95477	704.59302	 23.80	
 17.014	139.343	  4.27413	  0.31266	  3.93146	  3.67254	  0.53601	 -0.23110	  4.96124	704.43903	 23.80	
 16.988	145.161	  4.27147	  0.19018	  4.10494	  3.45843	  0.71488	 -0.23363	  4.96372	704.59302	 23.80	
 16.995	150.919	  4.25617	  0.07920	  4.24540	  3.22866	  0.89926	 -0.23086	  4.95895	704.52301	 23.80	
 16.990	156.759	  4.24853	 -0.01249	  4.37050	  2.99046	  1.10359	 -0.23483	  4.96287	704.56299	 23.80	
 17.000	162.596	  4.23227	 -0.08326	  4.45839	  2.73406	  1.31955	 -0.23723	  4.95462	704.60199	 23.80	
 17.009	168.383	  4.21869	 -0.13750	  4.52178	  2.47860	  1.54669	 -0.23796	  4.95030	704.53101	 23.80	
 16.990	174.179	  4.21426	 -0.16687	  4.56342	  2.22915	  1.78419	 -0.23832	  4.95600	704.75098	 23.80	
 18.709	174.675	  4.04342	 -0.43869	  4.67657	  2.10679	  1.66231	 -0.24779	  4.95452	704.55499	 23.80	
 18.703	169.441	  4.06318	 -0.41266	  4.65490	  2.35874	  1.43504	 -0.25260	  4.96752	704.50598	 23.80	
 18.691	164.085	  4.06334	 -0.36422	  4.58192	  2.60696	  1.20404	 -0.25230	  4.95434	704.40698	 23.80	
 18.706	158.818	  4.07201	 -0.30427	  4.49982	  2.85854	  0.98516	 -0.25407	  4.96209	704.49500	 23.80	
 18.695	153.537	  4.07874	 -0.22417	  4.38745	  3.09599	  0.78475	 -0.24954	  4.95522	704.59302	 23.80	
 18.704	148.255	  4.08798	 -0.12671	  4.25333	  3.32776	  0.59536	 -0.24921	  4.95011	704.68701	 23.80	
 18.698	142.952	  4.10177	 -0.01484	  4.10091	  3.55523	  0.41693	 -0.25038	  4.95680	704.58301	 23.80	
 18.699	137.625	  4.10958	  0.11553	  3.92085	  3.76180	  0.25846	 -0.24695	  4.95244	704.50098	 23.80	
 18.705	132.343	  4.11967	  0.26224	  3.72837	  3.95126	  0.11483	 -0.24734	  4.95320	704.56000	 23.80	
 18.713	127.067	  4.13473	  0.42419	  3.52124	  4.13207	 -0.01642	 -0.24356	  4.96217	704.51099	 23.80	
 18.700	121.794	  4.14569	  0.59812	  3.29871	  4.28775	 -0.12854	 -0.23641	  4.96390	704.56201	 23.80	
 18.698	116.504	  4.13746	  0.78907	  3.04935	  4.40372	 -0.22193	 -0.23379	  4.94941	704.54602	 23.80	
 18.707	111.165	  4.14796	  0.99370	  2.80828	  4.51538	 -0.30394	 -0.22877	  4.95545	704.58301	 23.80	
 18.690	105.863	  4.15211	  1.21153	  2.55594	  4.59209	 -0.35850	 -0.22304	  4.95049	704.44702	 23.80	
 18.696	100.583	  4.16303	  1.44427	  2.30724	  4.65439	 -0.40192	 -0.22191	  4.95791	704.63898	 23.80	
 18.700	 95.309	  4.15902	  1.67588	  2.05179	  4.67973	 -0.42720	 -0.21935	  4.95250	704.46198	 23.80	
 18.700	 90.000	  4.16889	  1.92336	  1.80446	  4.69478	 -0.43534	 -0.22310	  4.95971	704.45801	 23.80	
 18.700	 84.691	  4.17277	  2.17335	  1.55993	  4.68271	 -0.42759	 -0.22661	  4.96159	704.56500	 23.80	
 18.696	 79.417	  4.15854	  2.41512	  1.31990	  4.62931	 -0.39928	 -0.23014	  4.94586	704.59302	 23.80	
 18.690	 74.137	  4.17149	  2.66972	  1.09277	  4.57906	 -0.36481	 -0.23329	  4.96206	704.62097	 23.80	
 18.707	 68.835	  4.17073	  2.91629	  0.87147	  4.49506	 -0.30794	 -0.23455	  4.96267	704.59302	 23.80	
 18.698	 63.496	  4.16295	  3.15398	  0.66348	  4.37192	 -0.23067	 -0.23563	  4.95690	704.62097	 23.80	
 18.700	 58.206	  4.16676	  3.38880	  0.47404	  4.24062	 -0.13473	 -0.23260	  4.96346	704.49500	 23.80	
 18.713	 52.933	  4.16870	  3.61336	  0.30023	  4.08725	 -0.02290	 -0.23069	  4.96644	704.53400	 23.80	
 18.705	 47.657	  4.14713	  3.80050	  0.14233	  3.88934	  0.10622	 -0.22827	  4.94484	704.56897	 23.80	
 18.699	 42.375	  4.16244	  4.00653	 -0.00011	  3.71335	  0.24737	 -0.22352	  4.97028	704.56500	 23.80	
 18.698	 37.048	  4.14549	  4.16614	 -0.12783	  3.49043	  0.40823	 -0.21468	  4.95718	704.59900	 23.80	
 18.704	 31.745	  4.15436	  4.33250	 -0.24035	  3.27287	  0.58673	 -0.20947	  4.97236	704.54901	 23.80	
 18.695	 26.463	  4.14347	  4.45426	 -0.32957	  3.03251	  0.77795	 -0.20516	  4.96737	704.58002	 23.80	
 18.706	 21.182	  4.12443	  4.54725	 -0.40419	  2.78450	  0.97580	 -0.19819	  4.95361	704.55200	 23.80	
 18.691	 15.915	  4.11785	  4.62521	 -0.45965	  2.53503	  1.19253	 -0.19572	  4.95603	704.63599	 23.80	
 18.703	 10.559	  4.10906	  4.67954	 -0.50279	  2.27920	  1.42229	 -0.19493	  4.95128	704.59399	 23.80	
 18.709	  5.325	  4.10636	  4.71610	 -0.52683	  2.03717	  1.65343	 -0.19277	  4.95712	704.65601	 23.80	
 18.700	  0.000	  4.10221	  4.72753	 -0.53569	  1.78788	  1.90013	 -0.19102	  4.96127	704.62701	 23.80	
 18.709	 -5.325	  4.08960	  4.70631	 -0.52597	  1.54194	  2.14682	 -0.19163	  4.95486	704.69000	 23.80	
 18.703	-10.559	  4.09864	  4.68658	 -0.50035	  1.31755	  2.40093	 -0.20079	  4.97462	704.66302	 23.80	
 18.691	-15.915	  4.07549	  4.60170	 -0.45205	  1.08386	  2.64552	 -0.20193	  4.95028	704.58801	 23.80	
 18.706	-21.182	  4.05846	  4.50621	 -0.39318	  0.86998	  2.88220	 -0.20280	  4.94241	704.70898	 23.80	
 18.695	-26.463	  4.07441	  4.41887	 -0.31631	  0.67455	  3.13778	 -0.20736	  4.96728	704.53400	 23.80	
 18.704	-31.745	  4.06147	  4.27990	 -0.22399	  0.48115	  3.36985	 -0.19840	  4.96365	704.68298	 23.80	
 18.698	-37.048	  4.05849	  4.12473	 -0.11023	  0.31194	  3.59226	 -0.19602	  4.96334	704.58002	 23.80	
 18.699	-42.375	  4.05681	  3.95076	  0.01758	  0.15437	  3.80329	 -0.19238	  4.97486	704.64899	 23.80	
 18.705	-47.657	  4.03954	  3.74815	  0.15934	  0.01173	  3.98759	 -0.19288	  4.96010	704.63202	 23.80	
 18.713	-52.933	  4.02831	  3.53595	  0.31859	 -0.11603	  4.15732	 -0.19089	  4.95614	704.62500	 23.80	
 18.700	-58.206	  4.02467	  3.31227	  0.49519	 -0.22187	  4.31240	 -0.18911	  4.96131	704.60400	 23.80	
 18.698	-63.496	  4.01350	  3.07512	  0.68798	 -0.30787	  4.43662	 -0.18233	  4.95552	704.63599	 23.80	
 18.707	-68.835	  3.99389	  2.82120	  0.89106	 -0.37988	  4.52800	 -0.17721	  4.93948	704.70898	 23.80	
 18.690	-74.137	  4.00893	  2.58355	  1.11538	 -0.43539	  4.63183	 -0.18195	  4.96592	704.64099	 23.80	
 18.696	-79.417	  3.99511	  2.32780	  1.34108	 -0.47584	  4.68307	 -0.18468	  4.95630	704.49298	 23.80	
 18.700	-84.691	  3.99377	  2.07811	  1.57648	 -0.50387	  4.72599	 -0.18434	  4.96210	704.67297	 23.80	
 18.700	-90.000	  3.97744	  1.82292	  1.81858	 -0.51059	  4.72604	 -0.19084	  4.95023	704.67999	 23.90	
 18.700	-95.309	  3.98418	  1.58391	  2.07136	 -0.50089	  4.72513	 -0.19563	  4.96048	704.70898	 23.90	
 18.696	-100.583	  3.97057	  1.34578	  2.31495	 -0.47372	  4.67743	 -0.20617	  4.95139	704.66699	 23.90	
 18.690	-105.863	  3.98219	  1.12900	  2.57498	 -0.42740	  4.63398	 -0.21644	  4.96479	704.63300	 23.90	
 18.707	-111.165	  3.97950	  0.91167	  2.82281	 -0.37031	  4.55327	 -0.22621	  4.96411	704.66602	 23.90	
 18.698	-116.504	  3.96869	  0.70881	  3.05915	 -0.28921	  4.43270	 -0.23341	  4.94888	704.77399	 23.90	
 18.700	-121.794	  3.97835	  0.52363	  3.29934	 -0.20114	  4.31696	 -0.23658	  4.96395	704.61298	 23.90	
 18.713	-127.067	  3.97682	  0.35141	  3.51876	 -0.08845	  4.16156	 -0.24300	  4.96046	704.74200	 23.90	
 18.705	-132.343	  3.98520	  0.19758	  3.73215	  0.04267	  3.99228	 -0.25052	  4.96159	704.61102	 23.90	
 18.699	-137.625	  3.98747	  0.05970	  3.92332	  0.19347	  3.79792	 -0.25327	  4.95618	704.67499	 23.90	
 18.698	-142.952	  3.99130	 -0.06653	  4.10032	  0.34966	  3.59234	 -0.25244	  4.96090	704.60400	 23.90	
 18.704	-148.255	  3.99562	 -0.17001	  4.25391	  0.52777	  3.37045	 -0.25142	  4.95841	704.72803	 23.90	
 18.695	-153.537	  4.00742	 -0.26016	  4.39191	  0.72033	  3.13937	 -0.24730	  4.96034	704.65503	 23.90	
 18.706	-158.818	  4.00823	 -0.33389	  4.50003	  0.92541	  2.89732	 -0.24802	  4.95830	704.60400	 23.90	
 18.691	-164.085	  4.01455	 -0.38645	  4.58280	  1.13998	  2.65586	 -0.24913	  4.95644	704.70898	 23.90	
 18.703	-169.441	  4.01523	 -0.42454	  4.63648	  1.37273	  2.39639	 -0.25114	  4.95035	704.74298	 23.90	
 18.709	-174.675	  4.02551	 -0.44785	  4.67653	  1.60854	  2.15422	 -0.24954	  4.95506	704.77399	 23.90	
 18.700	180.000	  4.03839	 -0.45149	  4.69078	  1.85308	  1.90968	 -0.24801	  4.95581	704.70398	 23.90	
 20.400	180.000	  3.85247	 -0.74056	  4.78765	  1.71537	  1.76589	 -0.23677	  4.96155	704.68298	 23.90	
 20.401	-175.153	  3.83835	 -0.73609	  4.77253	  1.47206	  2.00555	 -0.23796	  4.95310	704.49200	 23.90	
 20.407	-170.264	  3.83347	 -0.71983	  4.74497	  1.23808	  2.25372	 -0.23903	  4.95907	704.72803	 23.90	
 20.410	-165.423	  3.82082	 -0.68770	  4.68514	  1.00617	  2.49833	 -0.23450	  4.95338	704.61902	 23.90	
 20.392	-160.496	  3.81365	 -0.63617	  4.60258	  0.79001	  2.74356	 -0.23323	  4.95036	704.71198	 23.90	
 20.401	-155.705	  3.80773	 -0.57461	  4.50524	  0.58704	  2.97998	 -0.23768	  4.95235	704.65601	 23.90	
 20.405	-150.835	  3.80542	 -0.50090	  4.38860	  0.38874	  3.22194	 -0.24399	  4.96250	704.58801	 23.90	
 20.397	-145.903	  3.80759	 -0.40686	  4.25048	  0.20915	  3.45462	 -0.24611	  4.96688	704.53198	 23.90	
 20.392	-141.062	  3.80356	 -0.29770	  4.08847	  0.04452	  3.66878	 -0.25049	  4.96573	704.57300	 23.90	
 20.396	-136.227	  3.80182	 -0.17419	  3.91050	 -0.11033	  3.87647	 -0.25038	  4.97310	704.72900	 23.90	
 20.408	-131.372	  3.78003	 -0.03915	  3.69699	 -0.25352	  4.04784	 -0.24549	  4.95325	704.65503	 23.90	
 20.410	-126.511	  3.78729	  0.11436	  3.49621	 -0.37412	  4.22642	 -0.23883	  4.96461	704.59302	 23.90	
 20.400	-121.604	  3.77744	  0.28347	  3.26396	 -0.47763	  4.36446	 -0.23064	  4.95167	704.60498	 23.90	
 20.403	-116.741	  3.78958	  0.46909	  3.03819	 -0.57112	  4.51128	 -0.22108	  4.97021	704.70099	 23.90	
 20.413	-111.900	  3.77892	  0.65907	  2.79187	 -0.65072	  4.60960	 -0.20922	  4.96096	704.53802	 23.90	
 20.398	-107.004	  3.78966	  0.87167	  2.55056	 -0.71104	  4.70612	 -0.20192	  4.97246	704.71399	 23.80	
 20.394	-102.132	  3.77797	  1.08617	  2.29120	 -0.75794	  4.75349	 -0.18891	  4.95283	704.61603	 23.90	
 20.403	-97.332	  3.78518	  1.31260	  2.04738	 -0.79321	  4.80262	 -0.17835	  4.96209	704.61902	 23.80	
 20.392	-92.440	  3.79000	  1.55145	  1.79826	 -0.80744	  4.82340	 -0.17406	  4.96346	704.47601	 23.80	
 20.392	-87.560	  3.78876	  1.79420	  1.55208	 -0.80981	  4.81878	 -0.16739	  4.95786	704.62701	 23.80	
 20.403	-82.668	  3.79815	  2.04583	  1.31180	 -0.80072	  4.80488	 -0.16196	  4.96395	704.50000	 23.80	
 20.394	-77.868	  3.79849	  2.28744	  1.08278	 -0.76984	  4.75657	 -0.16428	  4.95737	704.55701	 23.90	
 20.398	-72.996	  3.80341	  2.53966	  0.86210	 -0.72746	  4.68980	 -0.16401	  4.95408	704.55402	 23.90	
 20.413	-68.100	  3.81459	  2.79174	  0.64904	 -0.66924	  4.60795	 -0.16439	  4.96084	704.57599	 23.80	
 20.403	-63.259	  3.82614	  3.03716	  0.45152	 -0.59498	  4.50394	 -0.16685	  4.96325	704.63501	 23.80	
 20.400	-58.396	  3.83755	  3.27625	  0.26472	 -0.50780	  4.37628	 -0.17266	  4.96819	704.49200	 23.80	
 20.410	-53.489	  3.83446	  3.49628	  0.08600	 -0.40611	  4.21886	 -0.17747	  4.95726	704.43597	 23.80	
 20.408	-48.628	  3.84592	  3.71373	 -0.07410	 -0.29126	  4.05494	 -0.17593	  4.96246	704.42999	 23.80	
 20.396	-43.773	  3.85163	  3.90731	 -0.21158	 -0.15310	  3.86280	 -0.17932	  4.95558	704.50702	 23.80	
 20.392	-38.938	  3.86550	  4.09995	 -0.34107	 -0.00395	  3.66733	 -0.18737	  4.96360	704.57898	 23.80	
 20.397	-34.097	  3.86935	  4.26118	 -0.45589	  0.15590	  3.45020	 -0.18634	  4.96245	704.52600	 23.80	
 20.405	-29.165	  3.86817	  4.39898	 -0.55560	  0.33340	  3.21608	 -0.18870	  4.95199	704.61603	 23.80	
 20.401	-24.295	  3.88175	  4.53116	 -0.63871	  0.52693	  2.98308	 -0.19108	  4.96230	704.58502	 23.80	
 20.392	-19.504	  3.88902	  4.62765	 -0.70143	  0.72640	  2.74538	 -0.18961	  4.95848	704.63898	 23.80	
 20.410	-14.577	  3.89757	  4.71438	 -0.76144	  0.93990	  2.49958	 -0.18846	  4.96351	704.64398	 23.80	
 20.407	 -9.736	  3.89453	  4.75775	 -0.79678	  1.16218	  2.24255	 -0.18301	  4.95107	704.54602	 23.80	
 20.401	 -4.847	  3.91151	  4.80658	 -0.82177	  1.39854	  2.00079	 -0.17753	  4.96550	704.60498	 23.80	
 20.400	  0.000	  3.91535	  4.81474	 -0.82541	  1.63527	  1.75767	 -0.17453	  4.95926	704.62097	 23.80	
 20.401	  4.847	  3.92132	  4.80766	 -0.82269	  1.87841	  1.51394	 -0.17717	  4.96059	704.69501	 23.80	
 20.407	  9.736	  3.93244	  4.78442	 -0.80073	  2.13154	  1.28373	 -0.18110	  4.96361	704.69800	 23.80	
 20.410	 14.577	  3.93833	  4.73435	 -0.76560	  2.37774	  1.05627	 -0.17576	  4.96212	704.68701	 23.80	
 20.392	 19.504	  3.94438	  4.65730	 -0.71090	  2.63277	  0.83923	 -0.18164	  4.96242	704.78003	 23.80	
 20.401	 24.295	  3.95137	  4.56537	 -0.64631	  2.87150	  0.64023	 -0.17947	  4.96039	704.72101	 23.80	
 20.405	 29.165	  3.95504	  4.44691	 -0.56559	  3.10994	  0.44434	 -0.18484	  4.95779	704.68903	 23.80	
 20.397	 34.097	  3.96931	  4.31510	 -0.47006	  3.35515	  0.25851	 -0.20078	  4.96859	704.65802	 23.80	
 20.392	 38.938	  3.96930	  4.14952	 -0.35622	  3.56825	  0.09739	 -0.21032	  4.96032	704.61902	 23.80	
 20.396	 43.773	  3.97452	  3.97512	 -0.22836	  3.77306	 -0.04983	 -0.21948	  4.95808	704.67499	 23.80	
 20.408	 48.628	  3.97058	  3.77912	 -0.08957	  3.96164	 -0.18930	 -0.22596	  4.95104	704.64899	 23.80	
 20.410	 53.489	  3.98040	  3.57917	  0.06548	  4.14498	 -0.31346	 -0.22816	  4.95993	704.73102	 23.80	
 20.400	 58.396	  3.98962	  3.36064	  0.24194	  4.30918	 -0.41798	 -0.23138	  4.96763	704.65900	 23.80	
 20.403	 63.259	  3.97971	  3.12173	  0.42617	  4.43149	 -0.50616	 -0.23273	  4.95200	704.62701	 23.80	
 20.413	 68.100	  3.98211	  2.88484	  0.62599	  4.54388	 -0.58166	 -0.23125	  4.94963	704.70599	 23.80	
 20.398	 72.996	  3.99789	  2.64809	  0.84016	  4.65114	 -0.63994	 -0.22863	  4.96670	704.71100	 23.80	
 20.394	 77.868	  3.99154	  2.39606	  1.06390	  4.71382	 -0.68266	 -0.22557	  4.95855	704.69501	 23.80	
 20.403	 82.668	  3.99487	  2.15482	  1.29125	  4.76662	 -0.71223	 -0.21310	  4.96137	704.63300	 23.80	
 20.392	 87.560	  3.99008	  1.90496	  1.53224	  4.77916	 -0.71777	 -0.20558	  4.95309	704.71100	 23.80	
 20.392	 92.440	  3.98318	  1.65854	  1.78105	  4.77501	 -0.71312	 -0.19990	  4.94495	704.56201	 23.80	
 20.403	 97.332	  3.99462	  1.42441	  2.03774	  4.77799	 -0.70346	 -0.19810	  4.96484	704.63300	 23.80	
 20.394	102.132	  3.98621	  1.19582	  2.28393	  4.72969	 -0.67193	 -0.20427	  4.95606	704.46997	 23.80	
 20.398	107.004	  3.98817	  0.97447	  2.54054	  4.67498	 -0.62565	 -0.21047	  4.96428	704.58002	 23.80	
 20.413	111.900	  3.98087	  0.76117	  2.78881	  4.59238	 -0.56738	 -0.21544	  4.96195	704.73102	 23.80	
 20.403	116.741	  3.97143	  0.56565	  3.02804	  4.48088	 -0.49221	 -0.22022	  4.95857	704.56299	 23.80	
 20.400	121.604	  3.96101	  0.37409	  3.26316	  4.35221	 -0.40570	 -0.22984	  4.95904	704.58301	 23.80	
 20.410	126.511	  3.94899	  0.19612	  3.48776	  4.19757	 -0.29877	 -0.23429	  4.95452	704.55200	 23.80	
 20.408	131.372	  3.94729	  0.04078	  3.70793	  4.03462	 -0.17586	 -0.24198	  4.96225	704.59601	 23.80	
 20.396	136.227	  3.93619	 -0.10285	  3.90215	  3.83898	 -0.03651	 -0.24651	  4.95487	704.49298	 23.80	
 20.392	141.062	  3.92721	 -0.23195	  4.08583	  3.64382	  0.11158	 -0.24745	  4.95867	704.76202	 23.80	
 20.397	145.903	  3.92167	 -0.34962	  4.25341	  3.43128	  0.27282	 -0.25106	  4.96406	704.61603	 23.80	
 20.405	150.835	  3.91125	 -0.45186	  4.40070	  3.19899	  0.45529	 -0.25278	  4.96443	704.65900	 23.80	
 20.401	155.705	  3.90599	 -0.53733	  4.52828	  2.96278	  0.65212	 -0.25590	  4.96978	704.68597	 23.80	
 20.392	160.496	  3.89303	 -0.60556	  4.61886	  2.72181	  0.85157	 -0.25918	  4.96647	704.65601	 23.80	
 20.410	165.423	  3.85923	 -0.65789	  4.66886	  2.45214	  1.06390	 -0.25324	  4.93770	704.52399	 23.80	
 20.407	170.264	  3.86683	 -0.70335	  4.74180	  2.21182	  1.29175	 -0.25130	  4.95764	704.51801	 23.80	
 20.401	175.153	  3.86122	 -0.72796	  4.77783	  1.96461	  1.52341	 -0.24081	  4.95897	704.53101	 23.80	
  0.141	 45.000	  4.96161	  2.67758	  2.58930	  2.62685	  2.67470	  0.03147	  4.95702	704.57703	 23.80	
  4.001	128.691	  4.95558	  2.26274	  2.91070	  3.02367	  2.19591	  0.00956	  4.96044	704.54901	 23.80	
  4.002	 76.995	  4.96259	  2.75115	  2.40620	  3.14006	  2.09682	  0.01037	  4.96495	704.66998	 23.80	
  4.002	 25.892	  4.95666	  3.16128	  2.02907	  2.80164	  2.37457	  0.00479	  4.96169	704.46698	 23.80	
  4.002	-25.892	  4.94414	  3.15012	  2.02611	  2.28729	  2.88960	 -0.00110	  4.95784	704.56500	 23.80	
  4.002	-76.995	  4.94048	  2.73201	  2.40539	  2.00146	  3.22950	 -0.00317	  4.96092	704.53198	 23.80	
  4.001	-128.691	  4.93960	  2.24183	  2.91685	  2.11158	  3.10844	  0.00645	  4.96212	704.56000	 23.80	
  4.000	180.000	  4.94018	  2.05139	  3.14769	  2.54807	  2.62954	  0.01088	  4.95637	704.61102	 23.80	
  8.000	180.000	  4.82325	  1.36450	  3.68511	  2.44279	  2.52106	 -0.05498	  4.95183	704.76001	 23.80	
  7.991	-152.370	  4.82034	  1.47976	  3.54621	  1.90301	  3.09465	 -0.05424	  4.96091	704.62402	 23.80	
  7.997	-124.550	  4.80502	  1.81873	  3.13276	  1.49443	  3.54825	 -0.06056	  4.95619	704.66302	 23.80	
  8.006	-96.837	  4.81699	  2.33454	  2.57990	  1.31185	  3.77337	 -0.08003	  4.96801	704.62402	 23.80	
  7.988	-69.228	  4.81984	  2.91404	  2.00819	  1.36601	  3.69206	 -0.07916	  4.96040	704.59399	 23.80	
  7.997	-41.563	  4.81922	  3.40680	  1.55423	  1.64620	  3.33501	 -0.08073	  4.94470	704.67297	 23.80	
  8.008	-13.821	  4.85800	  3.72008	  1.31412	  2.14088	  2.81224	 -0.07052	  4.96898	704.74597	 23.80	
  8.008	 13.821	  4.86238	  3.72303	  1.30983	  2.71359	  2.23050	 -0.06597	  4.95691	704.72601	 23.80	
  7.997	 41.563	  4.87644	  3.44391	  1.55451	  3.24859	  1.75369	 -0.05762	  4.95960	704.57599	 23.80	
  7.988	 69.228	  4.86499	  2.94066	  1.99213	  3.59602	  1.45607	 -0.04757	  4.94390	704.70898	 23.80	
  8.006	 96.837	  4.87380	  2.37393	  2.56089	  3.68892	  1.39968	 -0.05548	  4.95519	704.70099	 23.80	
  7.997	124.550	  4.85649	  1.85117	  3.11722	  3.47001	  1.57817	 -0.05276	  4.94702	704.70099	 23.80	
  7.991	152.370	  4.85080	  1.50092	  3.53960	  3.01883	  1.98553	 -0.04552	  4.95970	704.65503	 23.80	
 12.009	161.059	  4.63155	  0.75163	  4.03944	  2.86936	  1.77734	 -0.13569	  4.95899	704.65503	 23.80	
 12.013	142.081	  4.66128	  1.00246	  3.73900	  3.42742	  1.28937	 -0.13860	  4.96598	704.70300	 23.80	
 12.006	123.113	  4.66578	  1.39786	  3.25724	  3.84156	  0.93640	 -0.14511	  4.94942	704.74902	 23.80	
 12.007	104.200	  4.68084	  1.90847	  2.68496	  4.09421	  0.72978	 -0.15312	  4.95129	704.79901	 23.80	
 11.989	 85.301	  4.68667	  2.48887	  2.08655	  4.13668	  0.68987	 -0.15104	  4.95054	704.71698	 23.80	
 12.013	 66.294	  4.69634	  3.08167	  1.53047	  3.97983	  0.81007	 -0.13026	  4.96108	704.63599	 23.80	
 12.012	 47.388	  4.68787	  3.60047	  1.07396	  3.61728	  1.09224	 -0.13766	  4.95634	704.71997	 23.80	
 11.990	 28.440	  4.67750	  3.98215	  0.75656	  3.11613	  1.51164	 -0.15146	  4.95835	704.67798	 23.80	
 11.991	  9.464	  4.65437	  4.17032	  0.59512	  2.53016	  2.03806	 -0.16294	  4.94883	704.60498	 23.80	
 11.991	 -9.464	  4.64631	  4.16731	  0.60036	  1.94176	  2.63202	 -0.15980	  4.95803	704.76801	 23.80	
 11.990	-28.440	  4.62546	  3.95075	  0.76532	  1.40977	  3.21129	 -0.16304	  4.95350	704.66602	 23.80	
 12.012	-47.388	  4.60843	  3.55554	  1.08318	  0.99018	  3.70702	 -0.17224	  4.95382	704.61298	 23.80	
 12.013	-66.294	  4.58167	  3.01773	  1.54092	  0.71326	  4.04729	 -0.17441	  4.94385	704.60400	 23.80	
 11.989	-85.301	  4.58772	  2.43556	  2.10638	  0.60616	  4.21355	 -0.18189	  4.96277	704.62701	 23.80	
 12.007	-104.200	  4.58261	  1.85609	  2.70466	  0.64774	  4.16828	 -0.17038	  4.96880	704.62701	 23.80	
 12.006	-123.113	  4.57147	  1.34654	  3.26673	  0.85089	  3.90746	 -0.14517	  4.95736	704.63300	 23.80	
 12.013	-142.081	  4.58381	  0.96645	  3.74080	  1.21500	  3.48371	 -0.14701	  4.96040	704.63599	 23.80	
 12.009	-161.059	  4.59816	  0.73168	  4.04758	  1.70256	  2.93911	 -0.14795	  4.96177	704.68701	 23.80	
 16.000	180.000	  4.30437	 -0.02397	  4.51200	  2.03902	  2.10318	 -0.22988	  4.96290	704.71100	 23.80	
 15.990	-165.604	  4.28466	  0.02434	  4.43629	  1.46951	  2.69176	 -0.23502	  4.96505	704.63202	 23.80	
 16.002	-151.165	  4.25936	  0.18918	  4.18570	  0.95782	  3.25613	 -0.23029	  4.95002	704.65503	 23.80	
 16.002	-136.836	  4.26153	  0.46663	  3.82160	  0.53684	  3.78031	 -0.22429	  4.97020	704.59302	 23.80	
 15.995	-122.439	  4.24769	  0.85400	  3.32289	  0.22432	  4.17270	 -0.21594	  4.95621	704.69397	 23.80	
 15.993	-107.966	  4.23758	  1.33196	  2.74823	  0.01661	  4.43452	 -0.22121	  4.95045	704.79700	 23.80	
 16.005	-93.629	  4.24839	  1.87925	  2.16162	 -0.07926	  4.55780	 -0.21454	  4.95870	704.68597	 23.80	
 15.992	-79.234	  4.26224	  2.47310	  1.58262	 -0.05241	  4.52177	 -0.20553	  4.96028	704.79901	 23.80	
 16.009	-64.774	  4.26283	  3.05323	  1.05117	  0.08702	  4.31251	 -0.19889	  4.94263	704.68103	 23.80	
 15.997	-50.364	  4.30944	  3.61320	  0.61549	  0.34335	  3.99927	 -0.20780	  4.97580	704.48602	 23.80	
 15.997	-36.045	  4.31605	  4.04668	  0.26813	  0.70103	  3.53050	 -0.20863	  4.96065	704.71399	 23.80	
 16.000	-21.597	  4.33207	  4.36414	  0.03399	  1.15898	  2.98395	 -0.20896	  4.96462	704.64398	 23.80	
 16.003	 -7.169	  4.33591	  4.51593	 -0.08740	  1.69254	  2.38250	 -0.20225	  4.94772	704.54901	 23.80	
 16.003	  7.169	  4.36100	  4.53291	 -0.09070	  2.27912	  1.80437	 -0.20975	  4.95578	704.48700	 23.80	
 16.000	 21.597	  4.37488	  4.38434	  0.01979	  2.86963	  1.26224	 -0.20792	  4.95304	704.63898	 23.80	
 15.997	 36.045	  4.38796	  4.08491	  0.24609	  3.42474	  0.79552	 -0.21016	  4.95240	704.57098	 23.80	
 15.997	 50.364	  4.40500	  3.66316	  0.58519	  3.90453	  0.42712	 -0.20917	  4.95984	704.64203	 23.80	
 16.009	 64.774	  4.40531	  3.13327	  1.02364	  4.25195	  0.16536	 -0.20353	  4.95370	704.56500	 23.80	
 15.992	 79.234	  4.41889	  2.55766	  1.56013	  4.46925	  0.02295	 -0.21910	  4.96828	704.73102	 23.80	
 16.005	 93.629	  4.41206	  1.96316	  2.14432	  4.51421	 -0.00656	 -0.22639	  4.96428	704.65900	 23.80	
 15.993	107.966	  4.39720	  1.40536	  2.74072	  4.39575	  0.08602	 -0.22703	  4.95443	704.68298	 23.80	
 15.995	122.439	  4.39010	  0.91637	  3.31930	  4.13493	  0.29363	 -0.22636	  4.95981	704.59399	 23.80	
 16.002	136.836	  4.36110	  0.51611	  3.80907	  3.72287	  0.60581	 -0.22136	  4.95341	704.68903	 23.80	
 16.002	151.165	  4.34839	  0.22207	  4.19925	  3.22238	  1.02534	 -0.21639	  4.96571	704.61102	 23.80	
 15.990	165.604	  4.32043	  0.04579	  4.42555	  2.63352	  1.53828	 -0.22404	  4.95747	704.59601	 23.80	
 20.003	168.362	  3.91729	 -0.61841	  4.70418	  2.33354	  1.24617	 -0.25277	  4.95544	704.67200	 23.80	
 20.008	156.764	  3.94141	 -0.48980	  4.52784	  2.91907	  0.74170	 -0.25506	  4.96383	704.50897	 23.80	
 20.000	145.147	  3.95556	 -0.26900	  4.20789	  3.45832	  0.30301	 -0.25194	  4.95078	704.53699	 23.80	
 19.995	133.545	  3.98665	  0.03755	  3.79409	  3.94046	 -0.04916	 -0.24793	  4.95791	704.57898	 23.80	
 20.009	121.926	  4.00485	  0.41656	  3.28785	  4.33020	 -0.33142	 -0.23369	  4.96090	704.63202	 23.80	
 20.005	110.327	  4.02817	  0.87770	  2.72847	  4.60472	 -0.52021	 -0.21911	  4.96651	704.69702	 23.80	
 19.989	 98.733	  4.03026	  1.39698	  2.13629	  4.73778	 -0.62261	 -0.20402	  4.95318	704.70300	 23.80	
 19.999	 87.075	  4.04558	  1.96824	  1.55462	  4.77095	 -0.64566	 -0.21275	  4.96576	704.60400	 23.80	
 19.992	 75.457	  4.03324	  2.54129	  1.00466	  4.65510	 -0.58329	 -0.23029	  4.95133	704.69800	 23.80	
 20.009	 63.844	  4.02962	  3.10663	  0.50756	  4.43316	 -0.44319	 -0.23407	  4.95588	704.65002	 23.80	
 19.989	 52.269	  4.03084	  3.63509	  0.09462	  4.09401	 -0.20709	 -0.23220	  4.96298	704.60797	 23.80	
 19.999	 40.602	  4.01770	  4.08910	 -0.24604	  3.64256	  0.11017	 -0.21562	  4.96273	704.59100	 23.80	
 20.004	 29.051	  4.00111	  4.43629	 -0.49806	  3.11648	  0.50775	 -0.19458	  4.95637	704.68298	 23.80	
 20.005	 17.433	  3.98243	  4.66838	 -0.66468	  2.54539	  0.97678	 -0.18501	  4.95439	704.71399	 23.80	
 20.006	  5.780	  3.97582	  4.79370	 -0.74883	  1.96477	  1.51223	 -0.18304	  4.96598	704.55701	 23.80	
 20.006	 -5.780	  3.95894	  4.78393	 -0.74827	  1.39636	  2.07987	 -0.18651	  4.96654	704.68597	 23.80	
 20.005	-17.433	  3.93843	  4.65188	 -0.66063	  0.86412	  2.66446	 -0.19623	  4.96440	704.71997	 23.80	
 20.004	-29.051	  3.92453	  4.40080	 -0.49037	  0.39791	  3.22738	 -0.18952	  4.96314	704.65601	 23.80	
 19.999	-40.602	  3.90534	  4.02724	 -0.23169	  0.00696	  3.73229	 -0.18772	  4.95803	704.74200	 23.80	
 19.989	-52.269	  3.88385	  3.55602	  0.10859	 -0.31041	  4.16853	 -0.18093	  4.95778	704.63898	 23.80	
 20.009	-63.844	  3.88176	  3.03198	  0.53102	 -0.53393	  4.51211	 -0.17298	  4.97210	704.67499	 23.80	
 19.992	-75.457	  3.85368	  2.44269	  1.02269	 -0.67382	  4.70697	 -0.16844	  4.95770	704.68597	 23.80	
 19.999	-87.075	  3.83898	  1.85797	  1.56449	 -0.73203	  4.79514	 -0.17041	  4.95752	704.70599	 23.80	
 19.989	-98.733	  3.82947	  1.29297	  2.14554	 -0.70761	  4.76673	 -0.18791	  4.95575	704.65900	 23.80	
 20.005	-110.327	  3.82812	  0.77953	  2.73034	 -0.60197	  4.62327	 -0.21479	  4.95971	704.73499	 23.80	
 20.009	-121.926	  3.82648	  0.33311	  3.28446	 -0.40699	  4.34861	 -0.23472	  4.95594	704.60999	 23.80	
 19.995	-133.545	  3.84369	 -0.03463	  3.79503	 -0.12761	  3.97471	 -0.24747	  4.96911	704.67999	 23.80	
 20.000	-145.147	  3.85280	 -0.32044	  4.21231	  0.24113	  3.49522	 -0.25055	  4.96581	704.75098	 23.80	
 20.008	-156.764	  3.86170	 -0.52457	  4.52067	  0.68327	  2.94927	 -0.24152	  4.96185	704.61102	 23.80	
 20.003	-168.362	  3.88676	 -0.63939	  4.71666	  1.19248	  2.38220	 -0.24347	  4.97094	704.59100	 23.80	
 20.000	180.000	  3.89365	 -0.66627	  4.75813	  1.74736	  1.79990	 -0.24491	  4.95122	704.52399	 23.80	
