FileType=PCF
NHL=14
Date=03/06/19	14:55:50
Facility=APL
Serial=16071-12
Customer=NASA
NP=6
Mach=0.150000
Calibration=1:1
CalPts=490
TstPts=95
PortNumbering=AP Standard
Units=Torr C m/s kg/m^3 deg mm 
Theta[deg]	Phi[deg]	P1[Torr]	P2[Torr]	P3[Torr]	P4[Torr]	P5[Torr]	P6[Torr]	Pt[Torr]	Ps[Abs,Torr]	Ts[C]	
  0.000	  0.000	 10.97004	  4.48926	  4.73329	  4.79996	  4.40602	  0.21232	 10.96021	708.84003	 25.40	
  1.691	128.401	 10.96181	  4.12110	  5.06396	  5.22555	  3.95389	  0.19506	 10.95803	708.78998	 25.40	
  1.692	 77.194	 10.96797	  4.59472	  4.59633	  5.34503	  3.84673	  0.22277	 10.96254	708.78003	 25.40	
  1.699	 26.182	 10.96909	  4.99552	  4.22285	  5.04157	  4.14552	  0.23469	 10.95980	708.87000	 25.40	
  1.699	-26.182	 10.97024	  5.00855	  4.22252	  4.55265	  4.64381	  0.22215	 10.95782	708.82001	 25.40	
  1.692	-77.194	 10.96565	  4.62556	  4.58890	  4.25491	  4.95525	  0.19783	 10.95474	708.96002	 25.40	
  1.691	-128.401	 10.96535	  4.14599	  5.06152	  4.36636	  4.81630	  0.17656	 10.96005	709.02002	 25.40	
  1.700	180.000	 10.96402	  3.92217	  5.29103	  4.78441	  4.38608	  0.17867	 10.96158	708.94000	 25.40	
  3.400	180.000	 10.93209	  3.32568	  5.84969	  4.71349	  4.30309	  0.13394	 10.96008	709.15002	 25.40	
  3.388	-152.325	 10.94091	  3.45723	  5.70111	  4.20112	  4.85361	  0.14321	 10.96033	708.84003	 25.40	
  3.397	-124.529	 10.94929	  3.81010	  5.32927	  3.82607	  5.29986	  0.13186	 10.96216	708.72998	 25.40	
  3.399	-96.763	 10.95456	  4.33246	  4.79563	  3.66086	  5.51381	  0.15355	 10.95881	708.85999	 25.40	
  3.394	-69.283	 10.95721	  4.88097	  4.26965	  3.72687	  5.47533	  0.16834	 10.95755	708.70001	 25.40	
  3.400	-41.398	 10.95756	  5.33712	  3.85361	  4.02038	  5.14402	  0.19743	 10.95996	708.71002	 25.40	
  3.401	-14.021	 10.95635	  5.59250	  3.62276	  4.48757	  4.64189	  0.21873	 10.95170	708.90997	 25.40	
  3.401	 14.021	 10.96037	  5.58800	  3.62308	  5.02144	  4.09339	  0.23402	 10.96101	708.87000	 25.40	
  3.400	 41.398	 10.95323	  5.29891	  3.85155	  5.47445	  3.64284	  0.21966	 10.95792	708.84003	 25.40	
  3.394	 69.283	 10.94189	  4.80535	  4.28398	  5.81107	  3.32235	  0.20966	 10.95520	708.84998	 25.40	
  3.399	 96.763	 10.94113	  4.26837	  4.80355	  5.91276	  3.24873	  0.18621	 10.96097	708.77002	 25.40	
  3.397	124.529	 10.93988	  3.77249	  5.30782	  5.66667	  3.42031	  0.16995	 10.96052	708.78998	 25.40	
  3.388	152.325	 10.93628	  3.42686	  5.70838	  5.21352	  3.81876	  0.15166	 10.96060	708.85999	 25.40	
  5.099	161.165	 10.86879	  2.75356	  6.31749	  5.17417	  3.68809	  0.07367	 10.96745	708.94000	 25.40	
  5.109	142.013	 10.86068	  2.98252	  6.01326	  5.70936	  3.19547	  0.08946	 10.95675	708.94000	 25.40	
  5.095	123.033	 10.86725	  3.37320	  5.55602	  6.13334	  2.85572	  0.10638	 10.95993	708.91998	 25.40	
  5.105	104.191	 10.87465	  3.88322	  5.00687	  6.39533	  2.66260	  0.12731	 10.96297	708.91998	 25.40	
  5.093	 85.207	 10.88261	  4.44210	  4.44766	  6.44656	  2.63573	  0.14823	 10.96210	708.87000	 25.40	
  5.104	 66.290	 10.88679	  5.01713	  3.91375	  6.30391	  2.75867	  0.16979	 10.95542	708.81000	 25.40	
  5.094	 47.331	 10.89892	  5.54436	  3.47197	  5.97050	  3.05843	  0.18076	 10.95799	708.89001	 25.40	
  5.089	 28.397	 10.91192	  5.94828	  3.16427	  5.49394	  3.49682	  0.18074	 10.96088	708.85999	 25.40	
  5.096	  9.576	 10.91848	  6.14200	  3.01262	  4.97504	  4.00624	  0.17828	 10.95957	708.91998	 25.40	
  5.096	 -9.576	 10.92334	  6.16838	  3.01834	  4.42033	  4.57566	  0.18093	 10.95816	708.89001	 25.40	
  5.089	-28.397	 10.92465	  5.97762	  3.18768	  3.89315	  5.14306	  0.16380	 10.95734	708.88000	 25.40	
  5.094	-47.331	 10.92379	  5.60204	  3.49108	  3.46385	  5.63243	  0.13289	 10.95916	708.91998	 25.40	
  5.104	-66.290	 10.92131	  5.12855	  3.91175	  3.18506	  5.94775	  0.11193	 10.95951	708.85999	 25.40	
  5.093	-85.207	 10.91648	  4.55112	  4.44354	  3.04884	  6.09363	  0.09225	 10.95826	708.78003	 25.40	
  5.105	-104.191	 10.90420	  3.96615	  5.01379	  3.06469	  6.04208	  0.07925	 10.95321	708.77002	 25.40	
  5.095	-123.033	 10.89570	  3.44715	  5.56452	  3.26081	  5.78588	  0.07072	 10.95929	708.84998	 25.40	
  5.109	-142.013	 10.88283	  3.03893	  6.01957	  3.60186	  5.36325	  0.06666	 10.95898	708.77002	 25.40	
  5.099	-161.165	 10.87130	  2.78094	  6.31351	  4.07818	  4.81289	  0.06527	 10.95940	708.78003	 25.40	
  5.100	180.000	 10.86488	  2.69138	  6.41584	  4.60901	  4.24114	  0.06577	 10.95752	708.81000	 25.50	
  6.800	180.000	 10.75694	  2.04234	  6.96442	  4.50324	  4.14360	 -0.03748	 10.96189	708.69000	 25.40	
  6.796	-166.229	 10.76456	  2.11336	  6.89152	  3.97163	  4.70791	 -0.03329	 10.96059	708.71002	 25.50	
  6.808	-152.311	 10.77121	  2.29749	  6.66966	  3.46766	  5.27527	 -0.03243	 10.95716	708.84003	 25.40	
  6.795	-138.383	 10.78433	  2.59333	  6.31164	  3.04542	  5.78466	 -0.03300	 10.95625	708.91998	 25.50	
  6.792	-124.591	 10.80107	  2.98673	  5.86190	  2.72847	  6.18698	 -0.03016	 10.95708	708.90002	 25.50	
  6.787	-110.754	 10.81126	  3.47004	  5.32978	  2.50950	  6.47946	 -0.02237	 10.95278	708.84003	 25.50	
  6.800	-96.985	 10.82728	  4.01322	  4.76831	  2.39827	  6.64245	 -0.01829	 10.95757	708.87000	 25.50	
  6.800	-83.015	 10.83025	  4.59021	  4.19677	  2.40275	  6.64152	 -0.00527	 10.95018	708.81000	 25.50	
  6.787	-69.246	 10.84198	  5.16000	  3.67559	  2.54234	  6.48970	  0.01482	 10.95829	708.84998	 25.50	
  6.792	-55.409	 10.84608	  5.69508	  3.21451	  2.77528	  6.21884	  0.03723	 10.96041	708.89001	 25.50	
  6.795	-41.617	 10.84823	  6.12043	  2.85317	  3.09455	  5.81964	  0.05142	 10.95917	708.90997	 25.50	
  6.808	-27.689	 10.84892	  6.47713	  2.57720	  3.53968	  5.30937	  0.07805	 10.96081	708.84998	 25.50	
  6.796	-13.771	 10.84405	  6.67308	  2.41528	  4.04537	  4.75303	  0.09004	 10.95711	708.88000	 25.50	
  6.800	  0.000	 10.84159	  6.73730	  2.34527	  4.58328	  4.17837	  0.10654	 10.95752	708.81000	 25.50	
  6.796	 13.771	 10.83213	  6.65132	  2.39758	  5.13429	  3.62695	  0.11475	 10.95875	708.85999	 25.50	
  6.808	 27.689	 10.81630	  6.41877	  2.55839	  5.67531	  3.12720	  0.11227	 10.95595	708.81000	 25.50	
  6.795	 41.617	 10.81088	  6.04777	  2.84558	  6.16710	  2.69197	  0.11385	 10.95732	708.79999	 25.50	
  6.792	 55.409	 10.79941	  5.57897	  3.22327	  6.55439	  2.35696	  0.11184	 10.95975	708.94000	 25.50	
  6.787	 69.246	 10.78019	  5.03058	  3.68627	  6.83230	  2.12416	  0.08974	 10.95265	708.91998	 25.50	
  6.800	 83.015	 10.77730	  4.46363	  4.21042	  6.98064	  1.99834	  0.06988	 10.95913	708.83002	 25.50	
  6.800	 96.985	 10.76090	  3.88887	  4.77188	  6.96672	  1.99657	  0.06133	 10.95420	708.84003	 25.50	
  6.787	110.754	 10.76322	  3.37022	  5.33252	  6.81422	  2.11089	  0.03968	 10.96797	708.90002	 25.50	
  6.792	124.591	 10.74854	  2.90208	  5.85504	  6.51098	  2.32969	  0.01551	 10.95290	708.90002	 25.50	
  6.795	138.383	 10.74426	  2.52683	  6.30638	  6.11014	  2.64758	  0.00131	 10.95222	708.87000	 25.50	
  6.808	152.311	 10.74295	  2.24803	  6.66457	  5.61297	  3.07723	 -0.00790	 10.95052	709.02002	 25.50	
  6.796	166.229	 10.75275	  2.09487	  6.88776	  5.05985	  3.59341	 -0.02771	 10.96104	708.96002	 25.50	
  8.491	168.704	 10.58993	  1.40276	  7.42615	  4.93213	  3.43350	 -0.14324	 10.95545	708.96002	 25.50	
  8.502	157.493	 10.58911	  1.53131	  7.24288	  5.50772	  2.90037	 -0.11865	 10.95906	709.01001	 25.50	
  8.494	146.194	 10.58675	  1.76049	  6.93081	  6.04813	  2.42793	 -0.10270	 10.95580	708.94000	 25.50	
  8.495	135.039	 10.59073	  2.06748	  6.53094	  6.52443	  2.03316	 -0.09958	 10.95212	709.07001	 25.50	
  8.487	123.723	 10.59314	  2.46362	  6.04337	  6.93657	  1.71417	 -0.08777	 10.95775	708.92999	 25.50	
  8.492	112.575	 10.60719	  2.92184	  5.51321	  7.24699	  1.49216	 -0.06185	 10.96448	708.91998	 25.50	
  8.510	101.220	 10.61030	  3.45069	  4.93337	  7.44862	  1.34809	 -0.03814	 10.95892	709.02002	 25.50	
  8.500	 90.000	 10.61672	  4.01570	  4.35295	  7.51978	  1.30721	 -0.03075	 10.95450	708.87000	 25.50	
  8.510	 78.780	 10.62873	  4.60375	  3.79236	  7.47188	  1.34965	 -0.01995	 10.95992	708.95001	 25.50	
  8.492	 67.425	 10.64992	  5.20466	  3.26397	  7.28922	  1.50206	  0.00434	 10.96932	708.84003	 25.50	
  8.487	 56.277	 10.65495	  5.75463	  2.80061	  6.99153	  1.74142	  0.02449	 10.95677	708.85999	 25.50	
  8.495	 44.961	 10.67118	  6.25690	  2.40391	  6.59860	  2.06164	  0.03047	 10.95774	708.84003	 25.50	
  8.494	 33.806	 10.68491	  6.67469	  2.08658	  6.13387	  2.45112	  0.02972	 10.96228	708.90002	 25.50	
  8.502	 22.507	 10.68630	  6.99322	  1.84542	  5.58994	  2.92607	  0.03820	 10.95066	708.97998	 25.50	
  8.491	 11.296	 10.69876	  7.19455	  1.70507	  5.02085	  3.45881	  0.03766	 10.95360	708.88000	 25.50	
  8.500	  0.000	 10.71160	  7.27326	  1.65609	  4.44421	  4.03311	  0.02191	 10.95757	708.91998	 25.50	
  8.491	-11.296	 10.71953	  7.22338	  1.70773	  3.88693	  4.62572	  0.00332	 10.95631	708.78003	 25.50	
  8.502	-22.507	 10.72048	  7.04929	  1.84198	  3.34787	  5.21249	 -0.01296	 10.95531	708.91998	 25.50	
  8.494	-33.806	 10.73181	  6.75391	  2.07481	  2.87264	  5.77018	 -0.03443	 10.96287	708.78998	 25.50	
  8.495	-44.961	 10.72314	  6.35783	  2.38656	  2.47558	  6.23931	 -0.05969	 10.95630	708.88000	 25.50	
  8.487	-56.277	 10.71928	  5.87391	  2.78650	  2.14156	  6.64966	 -0.08301	 10.95130	708.92999	 25.50	
  8.492	-67.425	 10.71816	  5.34187	  3.24709	  1.90560	  6.96134	 -0.09778	 10.95794	708.94000	 25.50	
  8.510	-78.780	 10.71050	  4.75451	  3.78021	  1.74712	  7.15614	 -0.11506	 10.95835	708.94000	 25.50	
  8.500	-90.000	 10.70578	  4.16948	  4.34797	  1.70032	  7.21640	 -0.13046	 10.95907	708.89001	 25.50	
  8.510	-101.220	 10.68959	  3.59077	  4.92864	  1.73882	  7.14793	 -0.14362	 10.95851	708.84998	 25.50	
  8.492	-112.575	 10.68467	  3.04707	  5.51782	  1.88444	  6.94729	 -0.13683	 10.96374	708.85999	 25.50	
  8.487	-123.723	 10.66342	  2.56762	  6.04963	  2.11111	  6.63545	 -0.13891	 10.95772	708.90997	 25.50	
  8.495	-135.039	 10.65036	  2.15134	  6.54054	  2.43029	  6.22115	 -0.14987	 10.95981	708.81000	 25.50	
  8.494	-146.194	 10.63099	  1.81916	  6.93445	  2.81483	  5.73841	 -0.14680	 10.95651	708.95001	 25.50	
  8.502	-157.493	 10.61941	  1.57246	  7.24478	  3.28284	  5.17862	 -0.14323	 10.95872	708.84003	 25.50	
  8.491	-168.704	 10.59929	  1.42777	  7.42558	  3.79905	  4.59082	 -0.14079	 10.94864	708.90002	 25.50	
  8.500	180.000	 10.59650	  1.36713	  7.49313	  4.35294	  4.00816	 -0.15538	 10.95541	708.92999	 25.50	
 10.200	180.000	 10.39737	  0.71099	  7.98343	  4.18452	  3.84929	 -0.27500	 10.95332	708.89001	 25.50	
 10.191	-170.497	 10.40968	  0.75961	  7.92863	  3.62361	  4.44211	 -0.26085	 10.95551	708.96997	 25.50	
 10.210	-161.034	 10.41783	  0.87719	  7.77291	  3.08155	  5.04190	 -0.25313	 10.95491	708.98999	 25.50	
 10.194	-151.526	 10.43600	  1.08441	  7.50523	  2.59644	  5.62140	 -0.25544	 10.95244	708.96997	 25.50	
 10.190	-142.105	 10.44686	  1.36233	  7.14953	  2.17906	  6.14943	 -0.25693	 10.94725	709.03003	 25.50	
 10.215	-132.646	 10.46738	  1.71565	  6.71314	  1.79861	  6.64383	 -0.25650	 10.95587	709.00000	 25.50	
 10.203	-123.092	 10.48465	  2.14361	  6.20429	  1.49660	  7.05657	 -0.24673	 10.95786	708.91998	 25.50	
 10.192	-113.678	 10.50108	  2.62339	  5.65436	  1.27547	  7.36890	 -0.24650	 10.95417	709.00000	 25.50	
 10.208	-104.249	 10.51359	  3.14843	  5.07860	  1.12658	  7.59126	 -0.25189	 10.95498	708.89001	 25.50	
 10.210	-94.801	 10.53057	  3.72404	  4.48887	  1.05786	  7.70640	 -0.25018	 10.95805	709.01001	 25.50	
 10.210	-85.199	 10.53654	  4.32030	  3.89985	  1.05996	  7.70703	 -0.23805	 10.95342	708.98999	 25.50	
 10.208	-75.751	 10.54476	  4.91626	  3.34097	  1.14073	  7.60054	 -0.22558	 10.95502	709.02002	 25.50	
 10.192	-66.322	 10.55156	  5.49633	  2.82325	  1.30338	  7.38667	 -0.21481	 10.95327	708.98999	 25.50	
 10.203	-56.908	 10.56148	  6.04821	  2.35464	  1.53342	  7.07875	 -0.20638	 10.96212	708.96002	 25.50	
 10.215	-47.354	 10.55520	  6.55083	  1.94802	  1.84869	  6.66637	 -0.18492	 10.95193	708.85999	 25.50	
 10.190	-37.895	 10.56050	  6.98484	  1.61184	  2.24346	  6.18116	 -0.15359	 10.95813	708.76001	 25.50	
 10.194	-28.474	 10.55962	  7.33154	  1.34269	  2.67266	  5.65487	 -0.13414	 10.95336	708.90002	 25.50	
 10.210	-18.966	 10.55288	  7.58818	  1.14591	  3.16815	  5.07619	 -0.10925	 10.94782	708.96997	 25.50	
 10.191	 -9.503	 10.54803	  7.73060	  1.04382	  3.71940	  4.47564	 -0.09149	 10.95151	708.90002	 25.50	
 10.200	  0.000	 10.54862	  7.77357	  1.00297	  4.28912	  3.88273	 -0.07255	 10.95684	708.90002	 25.50	
 10.191	  9.503	 10.54142	  7.70504	  1.04175	  4.87915	  3.30260	 -0.05777	 10.96228	708.91998	 25.50	
 10.210	 18.966	 10.51996	  7.53060	  1.15314	  5.46208	  2.74608	 -0.04925	 10.95363	708.91998	 25.50	
 10.194	 28.474	 10.51435	  7.25365	  1.35344	  6.02521	  2.25491	 -0.05572	 10.95972	708.81000	 25.60	
 10.190	 37.895	 10.49430	  6.87013	  1.62110	  6.53536	  1.81023	 -0.05737	 10.95209	708.79999	 25.60	
 10.215	 47.354	 10.48516	  6.42250	  1.95674	  7.00744	  1.42488	 -0.06130	 10.95825	708.89001	 25.50	
 10.203	 56.908	 10.47030	  5.89481	  2.36484	  7.40358	  1.11914	 -0.06720	 10.95726	708.88000	 25.60	
 10.192	 66.322	 10.45411	  5.33139	  2.82732	  7.70003	  0.88913	 -0.08991	 10.95592	708.98999	 25.60	
 10.208	 75.751	 10.44349	  4.73900	  3.34955	  7.90120	  0.73903	 -0.11250	 10.95521	708.73999	 25.60	
 10.210	 85.199	 10.43049	  4.13782	  3.90428	  7.99842	  0.66018	 -0.12659	 10.95771	708.94000	 25.60	
 10.210	 94.801	 10.41324	  3.54129	  4.48947	  7.98381	  0.65417	 -0.13468	 10.94812	708.88000	 25.60	
 10.208	104.249	 10.41209	  2.98668	  5.08210	  7.87344	  0.72896	 -0.14829	 10.95897	708.84998	 25.60	
 10.192	113.678	 10.40303	  2.47484	  5.65577	  7.64811	  0.88342	 -0.17046	 10.95526	708.90997	 25.60	
 10.203	123.092	 10.39352	  2.01686	  6.19740	  7.33937	  1.09563	 -0.20109	 10.95639	708.84003	 25.60	
 10.215	132.646	 10.39129	  1.60927	  6.70763	  6.92837	  1.40252	 -0.20943	 10.95431	708.84003	 25.60	
 10.190	142.105	 10.38315	  1.28311	  7.14297	  6.44339	  1.78448	 -0.20505	 10.94966	708.95001	 25.60	
 10.194	151.526	 10.38549	  1.02645	  7.50222	  5.92253	  2.22099	 -0.20961	 10.95497	709.02002	 25.60	
 10.210	161.034	 10.38871	  0.83971	  7.77211	  5.35659	  2.71477	 -0.23868	 10.95544	708.96002	 25.60	
 10.191	170.497	 10.39172	  0.74739	  7.92371	  4.77296	  3.26699	 -0.26215	 10.95179	708.84998	 25.60	
 11.899	171.783	 10.15857	  0.09329	  8.39445	  4.57752	  3.07932	 -0.37336	 10.95507	708.87000	 25.60	
 11.890	163.610	 10.15503	  0.17767	  8.25121	  5.16921	  2.52429	 -0.35779	 10.95861	708.90002	 25.60	
 11.889	155.445	 10.14901	  0.32845	  8.01794	  5.74244	  2.01832	 -0.33180	 10.95454	708.98999	 25.60	
 11.909	147.299	 10.14050	  0.53203	  7.70260	  6.29554	  1.54645	 -0.32018	 10.94935	708.92999	 25.60	
 11.902	139.148	 10.15040	  0.80794	  7.31292	  6.81848	  1.13867	 -0.32148	 10.95831	708.96002	 25.60	
 11.894	130.867	 10.14825	  1.15487	  6.84114	  7.28553	  0.78570	 -0.32320	 10.95378	709.00000	 25.60	
 11.897	122.732	 10.14982	  1.55389	  6.32591	  7.67874	  0.51054	 -0.31293	 10.94746	709.03998	 25.60	
 11.903	114.597	 10.15698	  2.00396	  5.77652	  7.99895	  0.29395	 -0.28921	 10.94393	709.03003	 25.60	
 11.893	106.346	 10.17177	  2.50798	  5.19689	  8.24751	  0.13230	 -0.26727	 10.95393	709.01001	 25.60	
 11.892	 98.155	 10.17921	  3.05925	  4.59755	  8.39807	  0.03807	 -0.25301	 10.95200	708.90002	 25.60	
 11.900	 90.000	 10.19276	  3.63511	  4.01427	  8.46307	  0.00388	 -0.24219	 10.95636	708.90997	 25.60	
 11.892	 81.845	 10.20053	  4.23080	  3.44356	  8.41635	  0.04187	 -0.22745	 10.94949	708.97998	 25.60	
 11.893	 73.654	 10.21452	  4.84241	  2.89183	  8.29056	  0.13804	 -0.21701	 10.94968	708.92999	 25.60	
 11.903	 65.403	 10.22356	  5.44123	  2.37660	  8.06437	  0.29825	 -0.19371	 10.94711	708.91998	 25.60	
 11.897	 57.268	 10.24201	  6.00695	  1.92227	  7.76040	  0.52435	 -0.17304	 10.95166	708.79999	 25.60	
 11.894	 49.133	 10.25109	  6.53606	  1.51426	  7.38378	  0.80399	 -0.16510	 10.94566	708.84998	 25.60	
 11.902	 40.852	 10.26507	  7.02880	  1.15835	  6.92147	  1.16316	 -0.15852	 10.94823	708.87000	 25.60	
 11.909	 32.701	 10.28733	  7.44581	  0.86830	  6.41714	  1.58027	 -0.15832	 10.95322	708.85999	 25.60	
 11.889	 24.555	 10.29679	  7.77057	  0.64944	  5.86537	  2.04857	 -0.15014	 10.95027	708.75000	 25.60	
 11.890	 16.390	 10.30511	  8.01596	  0.48746	  5.29237	  2.55815	 -0.14582	 10.94520	708.88000	 25.60	
 11.899	  8.217	 10.31681	  8.17537	  0.38726	  4.69507	  3.11590	 -0.15709	 10.94356	708.94000	 25.60	
 11.900	  0.000	 10.32610	  8.23779	  0.35265	  4.10501	  3.69738	 -0.17511	 10.94636	708.87000	 25.60	
 11.899	 -8.217	 10.33587	  8.20554	  0.38633	  3.53208	  4.29295	 -0.19040	 10.94624	708.84003	 25.60	
 11.890	-16.390	 10.33583	  8.06983	  0.48573	  2.98052	  4.90098	 -0.20840	 10.94236	708.89001	 25.60	
 11.889	-24.555	 10.34331	  7.85433	  0.64474	  2.47459	  5.49129	 -0.22941	 10.94720	708.72998	 25.60	
 11.909	-32.701	 10.33957	  7.54784	  0.86201	  2.01372	  6.04446	 -0.25399	 10.94170	708.84003	 25.60	
 11.902	-40.852	 10.34645	  7.16791	  1.14796	  1.59747	  6.57524	 -0.27831	 10.94699	708.79999	 25.60	
 11.894	-49.133	 10.33700	  6.69332	  1.50301	  1.23392	  7.04338	 -0.30560	 10.94021	708.84998	 25.60	
 11.897	-57.268	 10.33978	  6.18175	  1.91463	  0.94205	  7.44238	 -0.31334	 10.93886	708.88000	 25.60	
 11.903	-65.403	 10.33768	  5.63485	  2.36538	  0.71775	  7.75956	 -0.31291	 10.94419	708.88000	 25.60	
 11.893	-73.654	 10.33040	  5.04553	  2.87694	  0.55248	  7.99643	 -0.31785	 10.94511	708.94000	 25.60	
 11.892	-81.845	 10.32145	  4.44100	  3.42551	  0.45305	  8.13596	 -0.32970	 10.94167	708.90002	 25.60	
 11.900	-90.000	 10.31229	  3.84585	  3.99515	  0.41275	  8.18515	 -0.33827	 10.94329	708.78003	 25.60	
 11.892	-98.155	 10.30034	  3.26984	  4.58234	  0.44508	  8.13043	 -0.33962	 10.94331	708.84003	 25.60	
 11.893	-106.346	 10.28978	  2.70506	  5.18066	  0.53439	  7.98369	 -0.33675	 10.94698	708.90002	 25.60	
 11.903	-114.597	 10.27252	  2.17674	  5.76656	  0.68692	  7.74293	 -0.33243	 10.94472	708.91998	 25.60	
 11.897	-122.732	 10.25434	  1.70352	  6.31977	  0.90039	  7.42002	 -0.33266	 10.94243	708.84998	 25.60	
 11.894	-130.867	 10.23962	  1.28375	  6.83427	  1.18169	  7.02432	 -0.33878	 10.94670	708.77002	 25.60	
 11.902	-139.148	 10.22495	  0.91489	  7.30564	  1.53075	  6.54530	 -0.34780	 10.94787	708.84003	 25.60	
 11.909	-147.299	 10.20958	  0.61269	  7.70439	  1.93178	  6.02086	 -0.35433	 10.94631	708.78003	 25.60	
 11.889	-155.445	 10.19387	  0.38381	  8.01038	  2.38189	  5.45587	 -0.34706	 10.94137	708.95001	 25.60	
 11.890	-163.610	 10.18168	  0.21643	  8.24498	  2.87832	  4.86998	 -0.34974	 10.94320	708.88000	 25.60	
 11.899	-171.783	 10.17310	  0.10969	  8.39045	  3.42028	  4.26202	 -0.36648	 10.94789	708.91998	 25.60	
 11.900	180.000	 10.16566	  0.07048	  8.43721	  3.98969	  3.66392	 -0.37681	 10.94989	708.96002	 25.60	
 13.600	180.000	  9.88990	 -0.56996	  8.86835	  3.76252	  3.44927	 -0.46265	 10.95135	708.90002	 25.60	
 13.608	-172.853	  9.89629	 -0.53577	  8.83264	  3.20521	  4.04302	 -0.44806	 10.94994	708.96002	 25.70	
 13.611	-165.583	  9.90425	 -0.45003	  8.70347	  2.65016	  4.65670	 -0.42513	 10.94802	708.90002	 25.70	
 13.601	-158.353	  9.92161	 -0.30184	  8.49230	  2.14685	  5.25916	 -0.41380	 10.94753	708.82001	 25.70	
 13.609	-151.210	  9.93039	 -0.10239	  8.19952	  1.68249	  5.83389	 -0.41291	 10.94029	708.79999	 25.70	
 13.611	-143.999	  9.94568	  0.15617	  7.83672	  1.25525	  6.40140	 -0.40738	 10.94464	708.85999	 25.70	
 13.601	-136.825	  9.96465	  0.46802	  7.41317	  0.89215	  6.90517	 -0.39911	 10.94266	708.91998	 25.70	
 13.596	-129.640	  9.98210	  0.83618	  6.93644	  0.57805	  7.36357	 -0.38411	 10.94547	708.81000	 25.70	
 13.611	-122.431	 10.00315	  1.25257	  6.41276	  0.30601	  7.77229	 -0.37936	 10.94953	708.90002	 25.70	
 13.604	-115.211	 10.01299	  1.72436	  5.84253	  0.09531	  8.09688	 -0.37634	 10.94321	708.82001	 25.70	
 13.595	-108.042	 10.02978	  2.22837	  5.26514	 -0.06348	  8.35298	 -0.38127	 10.94430	708.90997	 25.70	
 13.607	-100.793	 10.04589	  2.78101	  4.66426	 -0.17007	  8.53511	 -0.38879	 10.94868	708.84003	 25.70	
 13.601	-93.617	 10.05673	  3.35702	  4.07314	 -0.21319	  8.61809	 -0.38962	 10.94140	708.76001	 25.70	
 13.601	-86.383	 10.06650	  3.94090	  3.49427	 -0.21129	  8.62188	 -0.38685	 10.94348	708.85999	 25.70	
 13.607	-79.207	 10.07407	  4.54168	  2.93231	 -0.16036	  8.54501	 -0.38487	 10.94394	708.97998	 25.70	
 13.595	-71.958	 10.08898	  5.15039	  2.39978	 -0.03689	  8.37240	 -0.38606	 10.94785	708.98999	 25.70	
 13.604	-64.789	 10.09151	  5.73027	  1.90525	  0.12592	  8.12518	 -0.38859	 10.94447	708.95001	 25.70	
 13.611	-57.569	 10.10076	  6.29778	  1.45344	  0.35146	  7.80202	 -0.38584	 10.94777	708.91998	 25.70	
 13.596	-50.360	 10.10286	  6.82240	  1.05251	  0.63169	  7.39732	 -0.38653	 10.94848	708.82001	 25.70	
 13.601	-43.175	 10.10352	  7.29681	  0.70011	  0.96073	  6.94337	 -0.37960	 10.94954	708.96997	 25.70	
 13.611	-36.001	 10.10731	  7.71309	  0.40199	  1.34432	  6.43891	 -0.36530	 10.94959	709.01001	 25.70	
 13.609	-28.790	 10.10292	  8.07106	  0.15851	  1.78180	  5.88456	 -0.34395	 10.95073	708.96997	 25.70	
 13.601	-21.647	 10.09901	  8.34252	 -0.03666	  2.25247	  5.30886	 -0.32857	 10.95035	708.90997	 25.70	
 13.611	-14.417	 10.10078	  8.54518	 -0.17362	  2.76860	  4.71279	 -0.31403	 10.95383	709.12000	 25.70	
 13.608	 -7.147	 10.09324	  8.65526	 -0.25542	  3.33284	  4.08733	 -0.29796	 10.95269	709.07001	 25.70	
 13.600	  0.000	 10.07698	  8.68042	 -0.28340	  3.89759	  3.49668	 -0.27945	 10.94717	708.92999	 25.70	
 13.608	  7.147	 10.06852	  8.63007	 -0.25993	  4.48338	  2.91599	 -0.26368	 10.95055	708.92999	 25.70	
 13.611	 14.417	 10.05534	  8.48547	 -0.18237	  5.08490	  2.35033	 -0.25640	 10.94534	708.87000	 25.70	
 13.601	 21.647	 10.04297	  8.25074	 -0.03361	  5.67020	  1.82916	 -0.25108	 10.94046	708.96997	 25.70	
 13.609	 28.790	 10.03137	  7.95210	  0.15501	  6.23530	  1.34982	 -0.25798	 10.94652	708.91998	 25.70	
 13.611	 36.001	 10.01432	  7.57669	  0.40243	  6.77906	  0.90735	 -0.26719	 10.95175	708.94000	 25.70	
 13.601	 43.175	 10.00024	  7.13354	  0.69745	  7.27424	  0.52330	 -0.27945	 10.94736	708.96997	 25.70	
 13.596	 50.360	  9.98935	  6.64047	  1.05515	  7.70949	  0.20489	 -0.28397	 10.94997	708.94000	 25.70	
 13.611	 57.569	  9.97178	  6.09298	  1.45675	  8.09445	 -0.07485	 -0.28885	 10.94693	708.89001	 25.70	
 13.604	 64.789	  9.95274	  5.51274	  1.90920	  8.41055	 -0.30067	 -0.31116	 10.94894	709.00000	 25.70	
 13.595	 71.958	  9.94130	  4.91773	  2.40189	  8.64724	 -0.46870	 -0.33530	 10.94733	708.95001	 25.70	
 13.607	 79.207	  9.92954	  4.31287	  2.94122	  8.80455	 -0.57223	 -0.34841	 10.95265	708.92999	 25.70	
 13.601	 86.383	  9.91520	  3.70185	  3.50599	  8.87353	 -0.62468	 -0.35874	 10.94801	708.97998	 25.70	
 13.601	 93.617	  9.90940	  3.11836	  4.09025	  8.86641	 -0.62347	 -0.36299	 10.95094	708.98999	 25.70	
 13.607	100.793	  9.89397	  2.54958	  4.68497	  8.77077	 -0.57239	 -0.37248	 10.95200	708.89001	 25.70	
 13.595	108.042	  9.88078	  2.01052	  5.27533	  8.58921	 -0.46943	 -0.39039	 10.94723	708.88000	 25.70	
 13.604	115.211	  9.87649	  1.52508	  5.85844	  8.33245	 -0.30750	 -0.41319	 10.94703	708.92999	 25.70	
 13.611	122.431	  9.87093	  1.07579	  6.42111	  8.00023	 -0.09284	 -0.43043	 10.94872	708.92999	 25.70	
 13.596	129.640	  9.86913	  0.68681	  6.94819	  7.59615	  0.18780	 -0.43298	 10.94533	708.90997	 25.70	
 13.601	136.825	  9.86322	  0.33812	  7.42013	  7.14974	  0.49477	 -0.43384	 10.94602	708.83002	 25.70	
 13.611	143.999	  9.86121	  0.05125	  7.84507	  6.64223	  0.87739	 -0.42588	 10.95058	708.90997	 25.70	
 13.609	151.210	  9.86573	 -0.17981	  8.20881	  6.09773	  1.31618	 -0.42972	 10.95104	708.90002	 25.70	
 13.601	158.353	  9.86453	 -0.35773	  8.49102	  5.52783	  1.78683	 -0.44375	 10.94905	708.94000	 25.70	
 13.611	165.583	  9.86777	 -0.48709	  8.70361	  4.94590	  2.30062	 -0.46313	 10.95047	708.96002	 25.70	
 13.608	172.853	  9.87683	 -0.55585	  8.82823	  4.34154	  2.87029	 -0.46988	 10.95253	709.01001	 25.70	
 15.298	173.587	  9.56370	 -1.16929	  9.21065	  4.09431	  2.64084	 -0.54301	 10.94572	709.07001	 25.70	
 15.291	167.167	  9.55592	 -1.10487	  9.09932	  4.68936	  2.09474	 -0.54821	 10.94248	708.97998	 25.70	
 15.307	160.676	  9.55409	 -1.00446	  8.91780	  5.27798	  1.56982	 -0.54378	 10.95092	708.97998	 25.70	
 15.300	154.261	  9.54954	 -0.86068	  8.66127	  5.86025	  1.07935	 -0.53957	 10.95152	709.02002	 25.70	
 15.288	147.854	  9.54704	 -0.65905	  8.33292	  6.42410	  0.63311	 -0.53331	 10.94875	709.09998	 25.70	
 15.293	141.428	  9.55246	 -0.41800	  7.95147	  6.95703	  0.23160	 -0.53994	 10.95618	709.09003	 25.70	
 15.299	134.985	  9.55340	 -0.12177	  7.50264	  7.45037	 -0.11941	 -0.54903	 10.95154	709.09003	 25.70	
 15.305	128.583	  9.55704	  0.21402	  7.01647	  7.90145	 -0.42534	 -0.55191	 10.95300	709.03998	 25.70	
 15.309	122.142	  9.55571	  0.59643	  6.49002	  8.29603	 -0.68538	 -0.54669	 10.95052	708.97998	 25.70	
 15.304	115.711	  9.56602	  1.03986	  5.92474	  8.63136	 -0.88762	 -0.52324	 10.95280	708.97998	 25.80	
 15.297	109.291	  9.57811	  1.52246	  5.34702	  8.89691	 -1.03708	 -0.50489	 10.95471	708.96997	 25.80	
 15.293	102.897	  9.58355	  2.03212	  4.75781	  9.08686	 -1.14879	 -0.49269	 10.94621	709.03003	 25.70	
 15.293	 96.458	  9.59233	  2.58487	  4.15655	  9.20906	 -1.21343	 -0.48292	 10.94760	709.03003	 25.80	
 15.300	 90.000	  9.60085	  3.16277	  3.56547	  9.25714	 -1.23997	 -0.47928	 10.94433	708.98999	 25.80	
 15.293	 83.542	  9.62487	  3.76086	  2.99990	  9.23447	 -1.20830	 -0.46486	 10.95009	709.06000	 25.80	
 15.293	 77.103	  9.63099	  4.36537	  2.44311	  9.13551	 -1.14662	 -0.45471	 10.95204	709.00000	 25.80	
 15.297	 70.709	  9.63871	  4.96768	  1.92642	  8.95762	 -1.03074	 -0.43830	 10.94630	709.03003	 25.80	
 15.304	 64.289	  9.65403	  5.56262	  1.44956	  8.71324	 -0.87428	 -0.42435	 10.94541	708.94000	 25.80	
 15.309	 57.858	  9.66645	  6.14226	  1.00040	  8.40104	 -0.66725	 -0.40972	 10.94801	709.03003	 25.80	
 15.305	 51.417	  9.68843	  6.70010	  0.60150	  8.02094	 -0.40161	 -0.39980	 10.95103	708.94000	 25.80	
 15.299	 45.015	  9.70890	  7.20707	  0.25479	  7.59129	 -0.09309	 -0.38920	 10.95355	708.98999	 25.80	
 15.293	 38.572	  9.72486	  7.66545	 -0.04950	  7.11336	  0.26234	 -0.38735	 10.95444	709.03003	 25.80	
 15.288	 32.146	  9.73847	  8.06686	 -0.30683	  6.58734	  0.66516	 -0.37758	 10.95289	709.04999	 25.80	
 15.300	 25.739	  9.74951	  8.41901	 -0.52714	  6.02702	  1.10996	 -0.37227	 10.94789	708.94000	 25.80	
 15.307	 19.324	  9.75575	  8.69367	 -0.69427	  5.44578	  1.59656	 -0.35930	 10.94618	709.06000	 25.80	
 15.291	 12.833	  9.77888	  8.90850	 -0.80749	  4.85471	  2.13397	 -0.35675	 10.95673	709.07001	 25.80	
 15.298	  6.413	  9.77862	  9.02736	 -0.88020	  4.25319	  2.69383	 -0.36757	 10.94257	708.98999	 25.80	
 15.300	  0.000	  9.79449	  9.08453	 -0.89813	  3.67138	  3.28061	 -0.37680	 10.95024	709.06000	 25.80	
 15.298	 -6.413	  9.80342	  9.05890	 -0.87195	  3.10698	  3.86990	 -0.38432	 10.94790	709.06000	 25.80	
 15.291	-12.833	  9.81041	  8.95541	 -0.79705	  2.55338	  4.48525	 -0.39390	 10.94949	709.08002	 25.80	
 15.307	-19.324	  9.81218	  8.78499	 -0.69234	  2.02714	  5.08946	 -0.40379	 10.94693	709.03998	 25.80	
 15.300	-25.739	  9.82242	  8.54311	 -0.52527	  1.54980	  5.67892	 -0.41468	 10.95326	709.13000	 25.80	
 15.288	-32.146	  9.82380	  8.22217	 -0.31344	  1.10287	  6.24833	 -0.42614	 10.95207	709.04999	 25.80	
 15.293	-38.572	  9.82619	  7.83713	 -0.05321	  0.70037	  6.78554	 -0.43063	 10.95451	709.00000	 25.80	
 15.299	-45.015	  9.81924	  7.39754	  0.24690	  0.34778	  7.27020	 -0.42805	 10.94699	708.96002	 25.80	
 15.305	-51.417	  9.81753	  6.90938	  0.59496	  0.03585	  7.71651	 -0.42842	 10.94739	708.96002	 25.80	
 15.309	-57.858	  9.81458	  6.37853	  0.98616	 -0.23486	  8.12043	 -0.42577	 10.95138	709.03003	 25.80	
 15.304	-64.289	  9.80487	  5.80557	  1.43226	 -0.45378	  8.44625	 -0.41868	 10.94767	709.27002	 25.80	
 15.297	-70.709	  9.80292	  5.22945	  1.90658	 -0.61514	  8.70721	 -0.40770	 10.95007	709.00000	 25.80	
 15.293	-77.103	  9.79513	  4.63487	  2.42193	 -0.73216	  8.89001	 -0.40534	 10.94513	709.02002	 25.80	
 15.293	-83.542	  9.78827	  4.03014	  2.97090	 -0.79771	  8.99740	 -0.40462	 10.94622	709.32001	 25.80	
 15.300	-90.000	  9.78001	  3.43161	  3.54063	 -0.82276	  9.03441	 -0.40503	 10.94589	708.85999	 25.80	
 15.293	-96.458	  9.76414	  2.84600	  4.12995	 -0.80875	  8.99545	 -0.40043	 10.94555	708.90002	 25.80	
 15.293	-102.897	  9.75628	  2.28255	  4.73133	 -0.74551	  8.88026	 -0.39363	 10.95296	709.06000	 25.80	
 15.297	-109.291	  9.73852	  1.75593	  5.31560	 -0.63658	  8.67895	 -0.39271	 10.94662	709.01001	 25.80	
 15.304	-115.711	  9.72519	  1.26230	  5.90002	 -0.48340	  8.42409	 -0.38818	 10.95162	709.06000	 25.80	
 15.309	-122.142	  9.70439	  0.79824	  6.46608	 -0.28075	  8.08621	 -0.39421	 10.94835	709.03998	 25.80	
 15.305	-128.583	  9.69111	  0.38735	  7.00229	 -0.02989	  7.69129	 -0.40296	 10.95125	709.01001	 25.80	
 15.299	-134.985	  9.67324	  0.02375	  7.48993	  0.27315	  7.22956	 -0.41985	 10.94660	708.87000	 25.80	
 15.293	-141.428	  9.65934	 -0.28951	  7.93389	  0.60883	  6.74129	 -0.42383	 10.95224	708.90002	 25.80	
 15.288	-147.854	  9.64437	 -0.56151	  8.32867	  1.00504	  6.19142	 -0.43294	 10.94800	708.92999	 25.80	
 15.300	-154.261	  9.62233	 -0.78842	  8.65912	  1.42972	  5.61694	 -0.44684	 10.94886	708.90002	 25.80	
 15.307	-160.676	  9.60860	 -0.95517	  8.91913	  1.89941	  5.02918	 -0.45367	 10.94613	708.95001	 25.80	
 15.291	-167.167	  9.59497	 -1.07697	  9.10612	  2.41374	  4.41649	 -0.48081	 10.94640	709.03003	 25.80	
 15.298	-173.587	  9.58637	 -1.14525	  9.21838	  2.96038	  3.81420	 -0.49528	 10.94729	708.94000	 25.80	
 15.300	180.000	  9.57402	 -1.17272	  9.25188	  3.52094	  3.22597	 -0.52125	 10.94025	709.37000	 25.80	
 17.000	180.000	  9.23235	 -1.76691	  9.60675	  3.26416	  2.97397	 -0.56037	 10.95169	709.12000	 25.80	
 16.990	-174.179	  9.24020	 -1.73454	  9.57131	  2.70178	  3.56389	 -0.51880	 10.94842	709.70001	 25.80	
 17.009	-168.383	  9.24891	 -1.67869	  9.47254	  2.16225	  4.16472	 -0.49480	 10.94819	709.71002	 25.80	
 17.000	-162.596	  9.26324	 -1.56718	  9.29941	  1.65628	  4.77089	 -0.46769	 10.94697	709.78003	 25.80	
 16.990	-156.759	  9.28033	 -1.41970	  9.06170	  1.17956	  5.37168	 -0.44793	 10.94682	709.70001	 25.80	
 16.995	-150.919	  9.29367	 -1.23570	  8.76101	  0.73326	  5.95949	 -0.43447	 10.94872	709.67999	 25.80	
 16.988	-145.161	  9.30584	 -1.01033	  8.39848	  0.33946	  6.50992	 -0.42295	 10.94431	709.71002	 25.80	
 17.014	-139.343	  9.32283	 -0.73818	  7.99533	 -0.01433	  7.03719	 -0.40672	 10.94732	709.67999	 25.80	
 17.007	-133.546	  9.33475	 -0.41336	  7.52474	 -0.33909	  7.52750	 -0.39464	 10.94084	709.75000	 25.80	
 17.001	-127.699	  9.35680	 -0.04853	  7.02863	 -0.61815	  7.97960	 -0.39219	 10.94645	709.69000	 25.80	
 17.006	-121.937	  9.36547	  0.34339	  6.49913	 -0.85327	  8.36801	 -0.38635	 10.94321	709.76001	 25.80	
 17.002	-116.134	  9.38691	  0.79393	  5.94227	 -1.03649	  8.70035	 -0.38127	 10.94474	709.65997	 25.80	
 17.001	-110.310	  9.40460	  1.27945	  5.36020	 -1.18706	  8.97552	 -0.37618	 10.94621	709.26001	 25.80	
 16.988	-104.517	  9.42029	  1.78785	  4.77693	 -1.30139	  9.18203	 -0.37851	 10.94550	709.67999	 25.80	
 17.008	-98.662	  9.43204	  2.33214	  4.17238	 -1.38852	  9.32916	 -0.37885	 10.94853	709.69000	 25.80	
 16.996	-92.909	  9.44575	  2.90247	  3.58836	 -1.41510	  9.39522	 -0.39580	 10.94403	709.71997	 25.80	
 16.996	-87.091	  9.45338	  3.47949	  3.01969	 -1.41107	  9.39611	 -0.39813	 10.94303	709.69000	 25.80	
 17.012	-81.253	  9.46186	  4.07791	  2.45043	 -1.37658	  9.33617	 -0.39285	 10.94497	709.66998	 25.80	
 16.988	-75.483	  9.47792	  4.68913	  1.92230	 -1.28529	  9.19514	 -0.40874	 10.94606	709.78998	 25.80	
 17.001	-69.690	  9.48004	  5.27958	  1.42508	 -1.16905	  8.99520	 -0.41027	 10.94527	709.73999	 25.80	
 17.002	-63.866	  9.48226	  5.85964	  0.95766	 -1.01227	  8.73489	 -0.40942	 10.94710	709.60999	 25.80	
 17.006	-58.063	  9.48644	  6.42573	  0.52654	 -0.80911	  8.40735	 -0.42309	 10.94355	709.75000	 25.80	
 17.001	-52.301	  9.49003	  6.95393	  0.14696	 -0.56433	  8.02080	 -0.42543	 10.94377	709.71002	 25.80	
 17.007	-46.454	  9.50246	  7.45831	 -0.19122	 -0.26098	  7.58622	 -0.43717	 10.95024	709.72998	 25.80	
 17.014	-40.657	  9.49704	  7.91924	 -0.50831	  0.07139	  7.09253	 -0.44920	 10.94623	709.73999	 25.80	
 16.988	-34.839	  9.50156	  8.32096	 -0.76211	  0.44653	  6.57103	 -0.45546	 10.94719	709.70001	 25.80	
 16.995	-29.081	  9.49883	  8.66670	 -0.98507	  0.85209	  6.02155	 -0.47207	 10.94593	709.64001	 25.80	
 16.990	-23.241	  9.50269	  8.96156	 -1.16173	  1.31890	  5.43289	 -0.46439	 10.94734	709.72998	 25.80	
 17.000	-17.404	  9.48841	  9.18044	 -1.30596	  1.79672	  4.83957	 -0.46085	 10.94329	709.71997	 25.80	
 17.009	-11.617	  9.48027	  9.33698	 -1.40966	  2.30447	  4.24285	 -0.46042	 10.94163	709.70001	 25.80	
 16.990	 -5.821	  9.47332	  9.42087	 -1.46547	  2.85732	  3.63080	 -0.45864	 10.93731	709.72998	 25.80	
 17.000	  0.000	  9.46642	  9.44483	 -1.49308	  3.41870	  3.04286	 -0.45635	 10.94386	709.67999	 25.80	
 16.990	  5.821	  9.45964	  9.39401	 -1.46681	  4.00030	  2.47031	 -0.45664	 10.94164	709.69000	 25.80	
 17.009	 11.617	  9.44504	  9.28298	 -1.42186	  4.59560	  1.90019	 -0.45404	 10.94328	709.73999	 25.80	
 17.000	 17.404	  9.43849	  9.09262	 -1.31319	  5.17975	  1.37972	 -0.45786	 10.94232	709.65002	 25.80	
 16.990	 23.241	  9.42165	  8.83812	 -1.17410	  5.76521	  0.87424	 -0.47049	 10.94447	709.72998	 25.80	
 16.995	 29.081	  9.40649	  8.52169	 -0.99240	  6.34566	  0.40919	 -0.48584	 10.94584	709.79999	 25.80	
 16.988	 34.839	  9.39133	  8.14708	 -0.76830	  6.87086	  0.00944	 -0.49239	 10.94100	709.71997	 25.80	
 17.014	 40.657	  9.37046	  7.71687	 -0.50801	  7.38481	 -0.37388	 -0.50269	 10.94099	709.77002	 25.80	
 17.007	 46.454	  9.35998	  7.23517	 -0.19586	  7.86293	 -0.70201	 -0.51546	 10.94153	709.72998	 25.80	
 17.001	 52.301	  9.34154	  6.71293	  0.15698	  8.28986	 -0.98728	 -0.52322	 10.94195	709.65997	 25.80	
 17.006	 58.063	  9.32280	  6.16334	  0.53665	  8.65917	 -1.23127	 -0.53480	 10.94365	709.65997	 25.80	
 17.002	 63.866	  9.31984	  5.58901	  0.97385	  8.98039	 -1.42294	 -0.54228	 10.94264	709.75000	 25.80	
 17.001	 69.690	  9.29812	  4.99038	  1.44148	  9.23360	 -1.58728	 -0.55171	 10.94268	709.71997	 25.80	
 16.988	 75.483	  9.28361	  4.39306	  1.94099	  9.41977	 -1.70241	 -0.56635	 10.93881	709.82001	 25.80	
 17.012	 81.253	  9.27298	  3.79322	  2.46855	  9.54915	 -1.78768	 -0.58632	 10.94298	709.78998	 25.80	
 16.996	 87.091	  9.26532	  3.19349	  3.03201	  9.60255	 -1.82455	 -0.59412	 10.94694	709.79999	 25.80	
 16.996	 92.909	  9.24198	  2.61246	  3.60084	  9.58594	 -1.83022	 -0.59954	 10.93713	709.77002	 25.80	
 17.008	 98.662	  9.24168	  2.05510	  4.18955	  9.52341	 -1.79823	 -0.59921	 10.94998	709.64001	 25.80	
 16.988	104.517	  9.22962	  1.52393	  4.79159	  9.35881	 -1.70266	 -0.60431	 10.93744	709.67999	 25.80	
 17.001	110.310	  9.21624	  1.01715	  5.37569	  9.15736	 -1.60548	 -0.61981	 10.94285	709.70001	 25.80	
 17.002	116.134	  9.20817	  0.55840	  5.95457	  8.87443	 -1.44328	 -0.63451	 10.93728	709.79999	 25.80	
 17.006	121.937	  9.19364	  0.12865	  6.51217	  8.54731	 -1.25690	 -0.65333	 10.93952	709.76001	 25.80	
 17.001	127.699	  9.19321	 -0.24740	  7.04083	  8.15879	 -1.01312	 -0.65913	 10.93985	709.67999	 25.80	
 17.007	133.546	  9.18987	 -0.58521	  7.54704	  7.71124	 -0.72169	 -0.64353	 10.94062	709.73999	 25.80	
 17.014	139.343	  9.18070	 -0.88643	  7.99774	  7.22381	 -0.40159	 -0.64121	 10.93339	709.67999	 25.80	
 16.988	145.161	  9.18291	 -1.12350	  8.40124	  6.70610	 -0.02560	 -0.63308	 10.93614	709.67999	 25.80	
 16.995	150.919	  9.18587	 -1.32717	  8.75461	  6.16498	  0.38083	 -0.62131	 10.93485	709.71997	 25.80	
 16.990	156.759	  9.19231	 -1.49621	  9.05892	  5.59226	  0.84071	 -0.61405	 10.94143	709.62000	 25.80	
 17.000	162.596	  9.19325	 -1.61957	  9.28720	  5.00177	  1.33280	 -0.60664	 10.93344	709.69000	 25.80	
 17.009	168.383	  9.19926	 -1.71043	  9.45414	  4.42182	  1.84233	 -0.59956	 10.93235	709.71997	 25.80	
 16.990	174.179	  9.21262	 -1.74945	  9.55739	  3.83358	  2.40504	 -0.57869	 10.93641	709.54999	 25.80	
 18.709	174.675	  8.81807	 -2.33164	  9.87225	  3.54273	  2.13974	 -0.57902	 10.93300	709.60999	 25.80	
 18.703	169.441	  8.81365	 -2.29402	  9.78174	  4.12259	  1.60187	 -0.60728	 10.92879	709.59003	 25.80	
 18.691	164.085	  8.81281	 -2.21385	  9.62919	  4.70941	  1.09205	 -0.63477	 10.93794	709.71002	 25.90	
 18.706	158.818	  8.80042	 -2.11134	  9.42025	  5.29078	  0.60142	 -0.65516	 10.93418	709.79999	 25.80	
 18.695	153.537	  8.80011	 -1.97175	  9.14568	  5.86802	  0.14236	 -0.67986	 10.93752	709.81000	 25.90	
 18.704	148.255	  8.79553	 -1.79556	  8.82162	  6.41852	 -0.26827	 -0.69355	 10.93371	709.65997	 25.90	
 18.698	142.952	  8.79086	 -1.58252	  8.44593	  6.95440	 -0.65228	 -0.70427	 10.92890	709.67999	 25.90	
 18.699	137.625	  8.79264	 -1.33266	  8.02255	  7.46922	 -1.00004	 -0.71876	 10.93469	709.58002	 25.90	
 18.705	132.343	  8.78884	 -1.04805	  7.55210	  7.93446	 -1.30289	 -0.73627	 10.92748	709.56000	 25.90	
 18.713	127.067	  8.79572	 -0.71036	  7.04884	  8.36462	 -1.56471	 -0.74427	 10.92720	709.64001	 25.80	
 18.700	121.794	  8.81019	 -0.34068	  6.52135	  8.74960	 -1.78715	 -0.73806	 10.92872	709.65002	 25.90	
 18.698	116.504	  8.81664	  0.06483	  5.96610	  9.08311	 -1.97528	 -0.72821	 10.93113	709.64001	 25.90	
 18.707	111.165	  8.81787	  0.51547	  5.37438	  9.37710	 -2.14200	 -0.72242	 10.93286	709.70001	 25.90	
 18.690	105.863	  8.83077	  0.99694	  4.79494	  9.59669	 -2.25277	 -0.70855	 10.93117	709.63000	 25.90	
 18.696	100.583	  8.83696	  1.50516	  4.20674	  9.75759	 -2.34010	 -0.71150	 10.92905	709.60999	 25.90	
 18.700	 95.309	  8.84745	  2.04885	  3.61867	  9.86518	 -2.39113	 -0.70536	 10.93073	709.69000	 25.90	
 18.700	 90.000	  8.85909	  2.60982	  3.04556	  9.90885	 -2.40921	 -0.70503	 10.93305	709.60999	 25.90	
 18.700	 84.691	  8.87064	  3.18801	  2.49285	  9.88749	 -2.38733	 -0.70129	 10.92789	709.59998	 25.90	
 18.696	 79.417	  8.88450	  3.78657	  1.94938	  9.80916	 -2.33466	 -0.68618	 10.93005	709.64001	 25.90	
 18.690	 74.137	  8.90560	  4.38965	  1.44297	  9.67007	 -2.24448	 -0.67130	 10.93628	709.65997	 25.90	
 18.707	 68.835	  8.91572	  4.97745	  0.95976	  9.47039	 -2.13121	 -0.66147	 10.93314	709.64001	 25.90	
 18.698	 63.496	  8.92674	  5.57315	  0.50819	  9.19627	 -1.96778	 -0.66121	 10.92525	709.56000	 25.90	
 18.700	 58.206	  8.94434	  6.15313	  0.08944	  8.87870	 -1.77366	 -0.65661	 10.92596	709.59998	 25.90	
 18.713	 52.933	  8.96009	  6.70564	 -0.29162	  8.51663	 -1.55013	 -0.64977	 10.93307	709.53003	 25.90	
 18.705	 47.657	  8.97015	  7.22720	 -0.63735	  8.10101	 -1.29432	 -0.63582	 10.93057	709.56000	 25.90	
 18.699	 42.375	  8.98840	  7.71683	 -0.94292	  7.63679	 -0.98637	 -0.62621	 10.92834	709.69000	 25.90	
 18.698	 37.048	  9.00900	  8.16726	 -1.20873	  7.13697	 -0.63894	 -0.61382	 10.93121	709.65997	 25.90	
 18.704	 31.745	  9.02635	  8.56792	 -1.43994	  6.61214	 -0.25538	 -0.59607	 10.93302	709.59003	 25.90	
 18.695	 26.463	  9.03460	  8.90434	 -1.62495	  6.05910	  0.16871	 -0.57886	 10.92502	709.56000	 25.90	
 18.706	 21.182	  9.05418	  9.20540	 -1.78982	  5.48445	  0.63272	 -0.56045	 10.93035	709.53998	 25.90	
 18.691	 15.915	  9.06561	  9.43944	 -1.90962	  4.90056	  1.12799	 -0.54662	 10.93410	709.64001	 25.90	
 18.703	 10.559	  9.07044	  9.61200	 -2.00101	  4.30839	  1.64968	 -0.53555	 10.92868	709.60999	 25.90	
 18.709	  5.325	  9.08438	  9.72307	 -2.05466	  3.72084	  2.20744	 -0.52491	 10.93449	709.59998	 25.90	
 18.700	  0.000	  9.09376	  9.76411	 -2.07009	  3.14092	  2.77754	 -0.51555	 10.93044	709.58002	 25.90	
 18.709	 -5.325	  9.09629	  9.74722	 -2.05478	  2.59132	  3.35557	 -0.50816	 10.93095	709.67999	 25.90	
 18.703	-10.559	  9.10539	  9.66687	 -1.99596	  2.05517	  3.94791	 -0.49496	 10.93060	709.59998	 25.90	
 18.691	-15.915	  9.11710	  9.51914	 -1.89965	  1.54340	  4.55549	 -0.49013	 10.93154	709.65002	 25.90	
 18.706	-21.182	  9.11395	  9.31941	 -1.77964	  1.05945	  5.14763	 -0.47735	 10.92388	709.50000	 25.90	
 18.695	-26.463	  9.12241	  9.05622	 -1.61847	  0.61043	  5.73943	 -0.47605	 10.92820	709.56000	 25.90	
 18.704	-31.745	  9.12092	  8.74168	 -1.43800	  0.18948	  6.30167	 -0.46584	 10.92925	709.52002	 25.90	
 18.698	-37.048	  9.12522	  8.36995	 -1.20674	 -0.18828	  6.83995	 -0.44887	 10.92813	709.53003	 25.90	
 18.699	-42.375	  9.12291	  7.94021	 -0.93928	 -0.53793	  7.35824	 -0.43871	 10.92595	709.45001	 25.90	
 18.705	-47.657	  9.12728	  7.47618	 -0.62995	 -0.84859	  7.84001	 -0.42948	 10.93191	709.51001	 25.90	
 18.713	-52.933	  9.12222	  6.97565	 -0.29748	 -1.12149	  8.26415	 -0.41358	 10.92894	709.56000	 25.90	
 18.700	-58.206	  9.12273	  6.44769	  0.07402	 -1.34950	  8.63720	 -0.40254	 10.93577	709.57001	 25.90	
 18.698	-63.496	  9.11916	  5.88845	  0.48631	 -1.54657	  8.96841	 -0.40180	 10.93123	709.60999	 25.90	
 18.707	-68.835	  9.09931	  5.29113	  0.93689	 -1.71162	  9.24251	 -0.39270	 10.92650	709.54999	 25.90	
 18.690	-74.137	  9.09569	  4.70344	  1.41933	 -1.83361	  9.45730	 -0.39015	 10.92958	709.54999	 25.90	
 18.696	-79.417	  9.08689	  4.10831	  1.93215	 -1.92036	  9.60786	 -0.37785	 10.92782	709.66998	 25.90	
 18.700	-84.691	  9.07492	  3.51249	  2.47355	 -1.97768	  9.69622	 -0.37223	 10.92630	709.64001	 25.90	
 18.700	-90.000	  9.06214	  2.92892	  3.03006	 -1.98954	  9.71685	 -0.36096	 10.91710	709.59003	 25.90	
 18.700	-95.309	  9.05028	  2.35925	  3.60247	 -1.97719	  9.68059	 -0.35252	 10.91750	709.54999	 25.90	
 18.696	-100.583	  9.04273	  1.80815	  4.19210	 -1.92615	  9.58961	 -0.35848	 10.92240	709.65997	 25.90	
 18.690	-105.863	  9.02552	  1.28796	  4.77643	 -1.84831	  9.42876	 -0.36005	 10.92205	709.58002	 25.90	
 18.707	-111.165	  9.00713	  0.79122	  5.35941	 -1.73331	  9.21107	 -0.35436	 10.91951	709.57001	 25.90	
 18.698	-116.504	  8.99948	  0.32248	  5.94402	 -1.57535	  8.92927	 -0.35932	 10.92319	709.71997	 25.90	
 18.700	-121.794	  8.98282	 -0.10325	  6.50149	 -1.39650	  8.59286	 -0.36004	 10.92262	709.58002	 25.90	
 18.713	-127.067	  8.96035	 -0.50165	  7.03000	 -1.18436	  8.21291	 -0.36265	 10.92239	709.59003	 25.90	
 18.705	-132.343	  8.94204	 -0.85139	  7.53049	 -0.93061	  7.77308	 -0.36826	 10.91934	709.59998	 25.90	
 18.699	-137.625	  8.92947	 -1.16337	  7.99887	 -0.62834	  7.29258	 -0.38097	 10.92234	709.54999	 25.90	
 18.698	-142.952	  8.91353	 -1.43566	  8.41512	 -0.28566	  6.77032	 -0.39408	 10.91621	709.62000	 25.90	
 18.704	-148.255	  8.90078	 -1.68003	  8.79973	  0.07140	  6.23058	 -0.40447	 10.92514	709.58002	 25.90	
 18.695	-153.537	  8.88403	 -1.86900	  9.12270	  0.48024	  5.65969	 -0.42775	 10.91359	709.47998	 25.90	
 18.706	-158.818	  8.87183	 -2.03592	  9.40368	  0.91283	  5.07371	 -0.44383	 10.92375	709.59003	 25.90	
 18.691	-164.085	  8.86510	 -2.15987	  9.62129	  1.39172	  4.48223	 -0.46619	 10.92404	709.51001	 25.90	
 18.703	-169.441	  8.84321	 -2.25935	  9.77682	  1.89364	  3.87695	 -0.49490	 10.92201	709.41998	 25.90	
 18.709	-174.675	  8.82860	 -2.31124	  9.86445	  2.42461	  3.28673	 -0.52312	 10.91805	709.51001	 25.90	
 18.700	180.000	  8.82121	 -2.33604	  9.89842	  2.97126	  2.70677	 -0.54794	 10.92549	709.53003	 25.90	
 20.400	180.000	  8.40506	 -2.88928	 10.16825	  2.67642	  2.42102	 -0.52500	 10.92490	709.50000	 25.90	
 20.401	-175.153	  8.41166	 -2.86590	 10.13774	  2.13814	  2.98984	 -0.50254	 10.91879	709.48999	 25.90	
 20.407	-170.264	  8.42813	 -2.82449	 10.06287	  1.60843	  3.58051	 -0.47122	 10.92451	709.57001	 25.90	
 20.410	-165.423	  8.43721	 -2.74613	  9.92209	  1.12060	  4.16160	 -0.44857	 10.92298	709.53003	 25.90	
 20.392	-160.496	  8.45494	 -2.62570	  9.71734	  0.64089	  4.76682	 -0.42044	 10.92039	709.45001	 25.90	
 20.401	-155.705	  8.46233	 -2.49800	  9.46887	  0.19559	  5.34846	 -0.40819	 10.92295	709.48999	 25.90	
 20.405	-150.835	  8.48032	 -2.32378	  9.16744	 -0.20136	  5.92095	 -0.39481	 10.92155	709.52002	 25.90	
 20.397	-145.903	  8.49898	 -2.10754	  8.81461	 -0.57099	  6.48993	 -0.37760	 10.92161	709.53998	 25.90	
 20.392	-141.062	  8.51667	 -1.86601	  8.42178	 -0.91578	  7.02887	 -0.37455	 10.91611	709.56000	 25.90	
 20.396	-136.227	  8.52800	 -1.58923	  7.98531	 -1.23117	  7.52943	 -0.36229	 10.91877	709.60999	 25.90	
 20.408	-131.372	  8.54077	 -1.29453	  7.51428	 -1.50283	  7.99128	 -0.35241	 10.91903	709.48999	 25.90	
 20.410	-126.511	  8.55632	 -0.93843	  7.00221	 -1.73862	  8.42283	 -0.35062	 10.91675	709.59003	 25.90	
 20.400	-121.604	  8.57492	 -0.55208	  6.46170	 -1.94465	  8.80901	 -0.34634	 10.91945	709.50000	 25.90	
 20.403	-116.741	  8.59031	 -0.14586	  5.90954	 -2.12622	  9.14809	 -0.34180	 10.92141	709.62000	 25.90	
 20.413	-111.900	  8.59908	  0.29310	  5.33737	 -2.27342	  9.42909	 -0.33547	 10.91987	709.47998	 25.90	
 20.398	-107.004	  8.61670	  0.78154	  4.75464	 -2.38740	  9.65729	 -0.33951	 10.92142	709.46002	 25.90	
 20.394	-102.132	  8.63149	  1.28751	  4.18024	 -2.46511	  9.82417	 -0.33349	 10.91834	709.48999	 25.90	
 20.403	-97.332	  8.64718	  1.81169	  3.61214	 -2.52168	  9.94272	 -0.33597	 10.91802	709.46002	 25.90	
 20.392	-92.440	  8.66066	  2.36929	  3.03536	 -2.54006	  9.99873	 -0.34537	 10.91513	709.48999	 25.90	
 20.392	-87.560	  8.67570	  2.94243	  2.47856	 -2.53948	 10.00209	 -0.34898	 10.91973	709.51001	 26.00	
 20.403	-82.668	  8.68165	  3.53071	  1.92157	 -2.51744	  9.95478	 -0.34891	 10.92056	709.46997	 25.90	
 20.394	-77.868	  8.68655	  4.10737	  1.41148	 -2.45646	  9.84473	 -0.36229	 10.92304	709.46997	 25.90	
 20.398	-72.996	  8.69316	  4.69913	  0.91618	 -2.36954	  9.68424	 -0.36240	 10.92341	709.48999	 25.90	
 20.413	-68.100	  8.70231	  5.29226	  0.43465	 -2.24901	  9.46121	 -0.36956	 10.92575	709.48999	 25.90	
 20.403	-63.259	  8.70232	  5.86700	  0.00061	 -2.09581	  9.17445	 -0.38113	 10.91640	709.60999	 25.90	
 20.400	-58.396	  8.71597	  6.42633	 -0.38849	 -1.90655	  8.85091	 -0.39111	 10.92015	709.56000	 25.90	
 20.410	-53.489	  8.71948	  6.96359	 -0.75379	 -1.68354	  8.47017	 -0.39293	 10.92152	709.50000	 25.90	
 20.408	-48.628	  8.71721	  7.47251	 -1.08723	 -1.43152	  8.04239	 -0.40044	 10.92027	709.60999	 26.00	
 20.396	-43.773	  8.72181	  7.94388	 -1.38259	 -1.14435	  7.57964	 -0.40964	 10.91798	709.54999	 26.00	
 20.392	-38.938	  8.72716	  8.37706	 -1.64610	 -0.82242	  7.08280	 -0.42771	 10.92080	709.59003	 26.00	
 20.397	-34.097	  8.72528	  8.76388	 -1.87107	 -0.46531	  6.54686	 -0.44649	 10.91796	709.59003	 26.00	
 20.405	-29.165	  8.71983	  9.11392	 -2.08210	 -0.07696	  5.98183	 -0.46552	 10.91761	709.57001	 26.00	
 20.401	-24.295	  8.71908	  9.40812	 -2.24469	  0.34487	  5.40878	 -0.47448	 10.91580	709.62000	 26.00	
 20.392	-19.504	  8.71969	  9.64134	 -2.37379	  0.79059	  4.82652	 -0.48406	 10.91378	709.52002	 26.00	
 20.410	-14.577	  8.70998	  9.82869	 -2.48766	  1.27440	  4.22863	 -0.49695	 10.91454	709.53003	 26.00	
 20.407	 -9.736	  8.70514	  9.95515	 -2.55897	  1.77574	  3.64418	 -0.51429	 10.92112	709.53998	 26.00	
 20.401	 -4.847	  8.69862	 10.02985	 -2.61270	  2.30942	  3.04782	 -0.51960	 10.92126	709.54999	 26.00	
 20.400	  0.000	  8.69043	 10.04083	 -2.62361	  2.85240	  2.48152	 -0.53959	 10.91769	709.48999	 26.00	
 20.401	  4.847	  8.68521	 10.00623	 -2.60960	  3.41928	  1.92318	 -0.55373	 10.92144	709.48999	 26.00	
 20.407	  9.736	  8.66507	  9.90056	 -2.56826	  4.00175	  1.36823	 -0.57947	 10.91603	709.46002	 26.00	
 20.410	 14.577	  8.65330	  9.74295	 -2.49844	  4.57657	  0.86203	 -0.59406	 10.91457	709.40002	 26.00	
 20.392	 19.504	  8.64799	  9.52791	 -2.38662	  5.16848	  0.36971	 -0.62268	 10.91922	709.42999	 26.00	
 20.401	 24.295	  8.63301	  9.26052	 -2.25644	  5.73890	 -0.08618	 -0.64572	 10.91503	709.42999	 26.00	
 20.405	 29.165	  8.61903	  8.94265	 -2.08558	  6.29506	 -0.50403	 -0.66630	 10.91645	709.40002	 26.00	
 20.397	 34.097	  8.60881	  8.56145	 -1.87736	  6.85107	 -0.90909	 -0.68250	 10.91779	709.39001	 26.00	
 20.392	 38.938	  8.58654	  8.14053	 -1.64278	  7.36411	 -1.26240	 -0.69736	 10.91210	709.39001	 26.00	
 20.396	 43.773	  8.56998	  7.68545	 -1.38031	  7.84798	 -1.58332	 -0.71714	 10.91375	709.48999	 26.00	
 20.408	 48.628	  8.55330	  7.19083	 -1.08504	  8.28821	 -1.86201	 -0.73351	 10.91227	709.41998	 26.00	
 20.410	 53.489	  8.52959	  6.65575	 -0.74874	  8.69793	 -2.11140	 -0.75399	 10.90460	709.58002	 26.00	
 20.400	 58.396	  8.52347	  6.10576	 -0.37970	  9.07383	 -2.32526	 -0.76100	 10.91111	709.47998	 26.00	
 20.403	 63.259	  8.50350	  5.53419	  0.01942	  9.38973	 -2.51157	 -0.76620	 10.91163	709.59003	 26.00	
 20.413	 68.100	  8.48301	  4.94721	  0.44858	  9.65561	 -2.66676	 -0.76446	 10.91010	709.45001	 26.00	
 20.398	 72.996	  8.47293	  4.35224	  0.92130	  9.86067	 -2.77505	 -0.77608	 10.90968	709.47998	 26.00	
 20.394	 77.868	  8.46118	  3.76251	  1.41487	 10.01439	 -2.85866	 -0.78035	 10.91055	709.46997	 26.00	
 20.403	 82.668	  8.44803	  3.18212	  1.92613	 10.11120	 -2.91942	 -0.78842	 10.91502	709.56000	 26.00	
 20.392	 87.560	  8.44086	  2.60432	  2.47470	 10.15252	 -2.94739	 -0.79719	 10.91397	709.46997	 26.00	
 20.392	 92.440	  8.43009	  2.03791	  3.03068	 10.14552	 -2.94499	 -0.79299	 10.91398	709.44000	 26.00	
 20.403	 97.332	  8.41721	  1.48644	  3.60786	 10.08033	 -2.92075	 -0.79468	 10.91645	709.57001	 26.00	
 20.394	102.132	  8.40369	  0.97319	  4.17665	  9.95814	 -2.86682	 -0.79519	 10.90959	709.57001	 26.00	
 20.398	107.004	  8.39204	  0.46896	  4.75599	  9.78712	 -2.78725	 -0.79523	 10.91484	709.42999	 26.00	
 20.413	111.900	  8.37937	  0.00147	  5.33853	  9.55464	 -2.67416	 -0.79320	 10.91490	709.48999	 26.00	
 20.403	116.741	  8.37201	 -0.42310	  5.90638	  9.26458	 -2.52522	 -0.79256	 10.91079	709.52002	 26.00	
 20.400	121.604	  8.36962	 -0.81456	  6.46304	  8.92988	 -2.33526	 -0.79720	 10.91152	709.51001	 26.00	
 20.410	126.511	  8.36437	 -1.17632	  7.00350	  8.54836	 -2.12090	 -0.79654	 10.91181	709.52002	 26.00	
 20.408	131.372	  8.35842	 -1.50164	  7.51759	  8.11512	 -1.86274	 -0.78371	 10.90790	709.56000	 26.00	
 20.396	136.227	  8.35173	 -1.77986	  7.98504	  7.65786	 -1.58063	 -0.77391	 10.90854	709.47998	 26.00	
 20.392	141.062	  8.35551	 -2.02488	  8.42210	  7.16874	 -1.27099	 -0.74579	 10.91277	709.63000	 26.00	
 20.397	145.903	  8.35642	 -2.23156	  8.82057	  6.64520	 -0.91671	 -0.72857	 10.91585	709.53998	 26.00	
 20.405	150.835	  8.34866	 -2.42916	  9.17024	  6.08312	 -0.52658	 -0.71111	 10.90703	709.54999	 26.00	
 20.401	155.705	  8.35284	 -2.57910	  9.46933	  5.52521	 -0.11129	 -0.69084	 10.90705	709.56000	 26.00	
 20.392	160.496	  8.36469	 -2.69144	  9.71658	  4.95997	  0.33708	 -0.65891	 10.91372	709.46002	 26.00	
 20.410	165.423	  8.36654	 -2.78458	  9.90667	  4.36971	  0.82182	 -0.62014	 10.91117	709.50000	 26.00	
 20.407	170.264	  8.37358	 -2.84672	 10.04513	  3.80286	  1.32398	 -0.59047	 10.90977	709.54999	 26.00	
 20.401	175.153	  8.38204	 -2.88248	 10.12387	  3.22803	  1.86146	 -0.56315	 10.90574	709.46002	 26.00	
  0.141	 45.000	 10.93027	  4.51810	  4.68577	  4.82413	  4.36223	  0.21896	 10.91150	709.48999	 26.00	
  4.001	128.691	 10.87487	  3.53995	  5.47418	  5.74511	  3.26066	  0.14993	 10.91456	709.46997	 26.00	
  4.002	 76.995	 10.88693	  4.65863	  4.34035	  6.04143	  3.05924	  0.18952	 10.91363	709.50000	 26.00	
  4.002	 25.892	 10.90238	  5.66269	  3.48996	  5.30088	  3.75121	  0.22457	 10.90985	709.40997	 26.00	
  4.002	-25.892	 10.91243	  5.67581	  3.50271	  4.15213	  4.92950	  0.19868	 10.90808	709.46997	 26.00	
  4.002	-76.995	 10.90000	  4.74904	  4.31986	  3.47111	  5.67049	  0.15069	 10.90650	709.56000	 26.00	
  4.001	-128.691	 10.88752	  3.58273	  5.49094	  3.67288	  5.38437	  0.10799	 10.91107	709.45001	 26.00	
  4.000	180.000	 10.86272	  3.09013	  6.02658	  4.64761	  4.26539	  0.11853	 10.90378	709.46002	 26.00	
  8.000	180.000	 10.60115	  1.56187	  7.30798	  4.38682	  4.02779	 -0.11586	 10.90492	709.46997	 26.00	
  7.991	-152.370	 10.63248	  1.85838	  6.95860	  3.17841	  5.36693	 -0.10954	 10.91227	709.47998	 26.00	
  7.997	-124.550	 10.65430	  2.65787	  5.99668	  2.29761	  6.45512	 -0.10696	 10.90327	709.46997	 26.00	
  8.006	-96.837	 10.69060	  3.86328	  4.69999	  1.90539	  6.99904	 -0.10044	 10.90435	709.45001	 26.00	
  7.988	-69.228	 10.71139	  5.20541	  3.42096	  2.06343	  6.81930	 -0.06254	 10.91049	709.46002	 26.00	
  7.997	-41.563	 10.71587	  6.35629	  2.43702	  2.72624	  5.99280	 -0.01972	 10.90566	709.37000	 26.00	
  8.008	-13.821	 10.71519	  7.02373	  1.91417	  3.82849	  4.73831	  0.02550	 10.91189	709.47998	 26.00	
  8.008	 13.821	 10.70372	  6.99246	  1.91906	  5.13321	  3.41363	  0.06351	 10.91702	709.48999	 26.00	
  7.997	 41.563	 10.67044	  6.27035	  2.45255	  6.34587	  2.32245	  0.05731	 10.90875	709.41998	 26.00	
  7.988	 69.228	 10.64156	  5.07037	  3.43331	  7.15288	  1.65810	  0.03009	 10.91063	709.42999	 26.00	
  8.006	 96.837	 10.61286	  3.72383	  4.70800	  7.30961	  1.51462	 -0.00360	 10.90593	709.45001	 26.00	
  7.997	124.550	 10.60309	  2.56686	  5.99535	  6.77491	  1.90408	 -0.05760	 10.91177	709.45001	 26.00	
  7.991	152.370	 10.59424	  1.81264	  6.95143	  5.70103	  2.78340	 -0.07797	 10.90619	709.37000	 26.10	
 12.009	161.059	 10.08166	  0.17759	  8.17142	  5.32734	  2.32093	 -0.35380	 10.89837	709.40997	 26.00	
 12.013	142.081	 10.08980	  0.66593	  7.44984	  6.62253	  1.24445	 -0.32864	 10.91184	709.35999	 26.00	
 12.006	123.113	 10.09929	  1.49958	  6.33755	  7.65660	  0.47959	 -0.32391	 10.90957	709.41998	 26.00	
 12.007	104.200	 10.10316	  2.61599	  5.00901	  8.28076	  0.05926	 -0.27122	 10.89301	709.44000	 26.00	
 11.989	 85.301	 10.13483	  3.95291	  3.65198	  8.43385	 -0.01582	 -0.24312	 10.90211	709.40002	 26.00	
 12.013	 66.294	 10.16500	  5.36000	  2.39581	  8.08924	  0.23324	 -0.20225	 10.90521	709.42999	 26.00	
 12.012	 47.388	 10.19270	  6.63680	  1.38857	  7.27768	  0.83106	 -0.17064	 10.90288	709.45001	 26.00	
 11.990	 28.440	 10.23040	  7.61426	  0.71192	  6.10817	  1.78873	 -0.15773	 10.89949	709.40997	 26.00	
 11.991	  9.464	 10.25537	  8.14768	  0.36271	  4.76271	  2.99861	 -0.15757	 10.89484	709.35999	 26.00	
 11.991	 -9.464	 10.27698	  8.18254	  0.36277	  3.41705	  4.36316	 -0.20003	 10.89821	709.44000	 26.00	
 11.990	-28.440	 10.28644	  7.71085	  0.70902	  2.22208	  5.73318	 -0.24513	 10.89872	709.45001	 26.00	
 12.012	-47.388	 10.27875	  6.79061	  1.38147	  1.26921	  6.93695	 -0.30155	 10.88848	709.44000	 26.00	
 12.013	-66.294	 10.27763	  5.55826	  2.38085	  0.65669	  7.78021	 -0.32107	 10.89450	709.50000	 26.00	
 11.989	-85.301	 10.26461	  4.16799	  3.63771	  0.39778	  8.15769	 -0.33284	 10.89881	709.48999	 26.10	
 12.007	-104.200	 10.22409	  2.81594	  4.99714	  0.46449	  8.02011	 -0.33958	 10.89034	709.53998	 26.10	
 12.006	-123.113	 10.19371	  1.64907	  6.32662	  0.87501	  7.39108	 -0.33271	 10.89602	709.48999	 26.10	
 12.013	-142.081	 10.15747	  0.76162	  7.44536	  1.63127	  6.34428	 -0.35424	 10.89753	709.56000	 26.10	
 12.009	-161.059	 10.12704	  0.22208	  8.17753	  2.68771	  5.03328	 -0.35179	 10.89646	709.53998	 26.10	
 16.000	180.000	  9.39037	 -1.41150	  9.35496	  3.40085	  3.11199	 -0.53142	 10.89349	709.58002	 26.10	
 15.990	-165.604	  9.41669	 -1.27281	  9.15906	  2.12897	  4.50710	 -0.47044	 10.89150	709.48999	 26.10	
 16.002	-151.165	  9.45339	 -0.91203	  8.58610	  1.02046	  5.89236	 -0.43898	 10.90362	709.58002	 26.10	
 16.002	-136.836	  9.48695	 -0.28157	  7.66019	  0.15021	  7.13182	 -0.40945	 10.89255	709.59003	 26.10	
 15.995	-122.439	  9.51996	  0.58610	  6.47906	 -0.50338	  8.14494	 -0.38525	 10.89399	709.51001	 26.10	
 15.993	-107.966	  9.56471	  1.70302	  5.14972	 -0.89481	  8.83086	 -0.38806	 10.89958	709.53998	 26.10	
 16.005	-93.629	  9.59714	  2.98248	  3.76463	 -1.06136	  9.13877	 -0.39704	 10.89803	709.56000	 26.10	
 15.992	-79.234	  9.62179	  4.36485	  2.45477	 -0.99113	  9.04727	 -0.40245	 10.90251	709.51001	 26.10	
 16.009	-64.774	  9.63098	  5.74341	  1.28071	 -0.70571	  8.56862	 -0.41465	 10.89896	709.41998	 26.10	
 15.997	-50.364	  9.64599	  7.01832	  0.33265	 -0.13758	  7.71222	 -0.43462	 10.89606	709.51001	 26.10	
 15.997	-36.045	  9.65006	  8.06429	 -0.38886	  0.64487	  6.59868	 -0.44065	 10.90128	709.41998	 26.10	
 16.000	-21.597	  9.64234	  8.80235	 -0.86476	  1.68128	  5.26603	 -0.43758	 10.89625	709.44000	 26.10	
 16.003	 -7.169	  9.63084	  9.16632	 -1.10771	  2.89601	  3.86535	 -0.42016	 10.89702	709.47998	 26.10	
 16.003	  7.169	  9.61106	  9.13221	 -1.11188	  4.23072	  2.50312	 -0.40342	 10.89794	709.53003	 26.10	
 16.000	 21.597	  9.59044	  8.71082	 -0.87336	  5.61093	  1.25912	 -0.40192	 10.90238	709.51001	 26.10	
 15.997	 36.045	  9.55803	  7.90743	 -0.39006	  6.91701	  0.21511	 -0.42397	 10.91091	709.48999	 26.10	
 15.997	 50.364	  9.51438	  6.80412	  0.33546	  8.00786	 -0.57421	 -0.44475	 10.90271	709.50000	 26.10	
 16.009	 64.774	  9.48196	  5.49386	  1.29499	  8.83241	 -1.12342	 -0.47427	 10.90814	709.50000	 26.10	
 15.992	 79.234	  9.45678	  4.09385	  2.47423	  9.28637	 -1.41039	 -0.50686	 10.91086	709.46997	 26.10	
 16.005	 93.629	  9.41494	  2.70835	  3.79112	  9.35477	 -1.47981	 -0.52998	 10.90132	709.46002	 26.10	
 15.993	107.966	  9.39380	  1.45646	  5.16638	  9.03529	 -1.30437	 -0.54909	 10.90115	709.44000	 26.10	
 15.995	122.439	  9.37773	  0.38441	  6.51059	  8.35528	 -0.90252	 -0.59008	 10.90684	709.48999	 26.10	
 16.002	136.836	  9.36974	 -0.43043	  7.68041	  7.34695	 -0.23709	 -0.58999	 10.90278	709.45001	 26.10	
 16.002	151.165	  9.35990	 -0.99576	  8.58429	  6.11573	  0.66890	 -0.56816	 10.89476	709.38000	 26.10	
 15.990	165.604	  9.37979	 -1.31690	  9.16273	  4.76909	  1.80550	 -0.57038	 10.90024	709.39001	 26.10	
 20.003	168.362	  8.46959	 -2.69009	  9.93178	  4.08158	  1.20749	 -0.61532	 10.89869	709.46997	 26.10	
 20.008	156.764	  8.43873	 -2.47915	  9.46282	  5.42014	  0.08208	 -0.68422	 10.89531	709.50000	 26.10	
 20.000	145.147	  8.44117	 -2.07730	  8.70526	  6.71728	 -0.85785	 -0.72858	 10.88873	709.41998	 26.10	
 19.995	133.545	  8.44825	 -1.50741	  7.70447	  7.88956	 -1.61782	 -0.77450	 10.89634	709.53998	 26.10	
 20.009	121.926	  8.46076	 -0.72359	  6.49970	  8.85714	 -2.19171	 -0.78686	 10.90031	709.51001	 26.10	
 20.005	110.327	  8.47672	  0.25443	  5.17741	  9.56682	 -2.57483	 -0.77888	 10.89798	709.48999	 26.10	
 19.989	 98.733	  8.49935	  1.41730	  3.82436	  9.97190	 -2.77333	 -0.76917	 10.89337	709.46997	 26.10	
 19.999	 87.075	  8.53068	  2.72027	  2.49458	 10.08166	 -2.81108	 -0.77283	 10.89899	709.46002	 26.10	
 19.992	 75.457	  8.55743	  4.09171	  1.25994	  9.87722	 -2.68978	 -0.75700	 10.89693	709.44000	 26.10	
 20.009	 63.844	  8.58402	  5.47418	  0.16858	  9.36654	 -2.40831	 -0.74223	 10.90122	709.38000	 26.10	
 19.989	 52.269	  8.63326	  6.78666	 -0.71283	  8.56173	 -1.91518	 -0.72432	 10.90048	709.38000	 26.10	
 19.999	 40.602	  8.66788	  7.95400	 -1.43409	  7.51302	 -1.26183	 -0.69050	 10.90504	709.29999	 26.10	
 20.004	 29.051	  8.70132	  8.88674	 -1.95580	  6.28735	 -0.39108	 -0.65420	 10.89733	709.39001	 26.10	
 20.005	 17.433	  8.73220	  9.55465	 -2.30200	  4.94965	  0.66485	 -0.59719	 10.89716	709.64001	 26.10	
 20.006	  5.780	  8.75804	  9.90881	 -2.47198	  3.58264	  1.88946	 -0.55651	 10.90176	709.51001	 26.10	
 20.006	 -5.780	  8.77720	  9.93342	 -2.46849	  2.28175	  3.21027	 -0.52127	 10.89897	709.34998	 26.10	
 20.005	-17.433	  8.79856	  9.65745	 -2.29081	  1.08902	  4.60061	 -0.49560	 10.90438	709.41998	 26.10	
 20.004	-29.051	  8.80001	  9.05656	 -1.95365	  0.04475	  5.96349	 -0.46430	 10.89617	709.48999	 26.10	
 19.999	-40.602	  8.80544	  8.18905	 -1.43294	 -0.81015	  7.22330	 -0.42581	 10.90306	709.46997	 26.10	
 19.989	-52.269	  8.80078	  7.06858	 -0.70894	 -1.47940	  8.30544	 -0.39286	 10.89341	709.40997	 26.10	
 20.009	-63.844	  8.78423	  5.79964	  0.16217	 -1.98106	  9.14616	 -0.38064	 10.89939	709.46002	 26.10	
 19.992	-75.457	  8.77287	  4.43519	  1.25053	 -2.27781	  9.68808	 -0.36655	 10.89994	709.44000	 26.10	
 19.999	-87.075	  8.75102	  3.05384	  2.48487	 -2.40932	  9.91770	 -0.35216	 10.89668	709.34998	 26.10	
 19.989	-98.733	  8.72536	  1.73995	  3.82176	 -2.37079	  9.83215	 -0.34272	 10.90043	709.44000	 26.10	
 20.005	-110.327	  8.68427	  0.54965	  5.17453	 -2.17457	  9.43007	 -0.34256	 10.89380	709.46002	 26.20	
 20.009	-121.926	  8.65263	 -0.46822	  6.49237	 -1.80476	  8.72740	 -0.35704	 10.89907	709.50000	 26.20	
 19.995	-133.545	  8.61665	 -1.30834	  7.69777	 -1.26449	  7.75273	 -0.36080	 10.90008	709.35999	 26.20	
 20.000	-145.147	  8.58445	 -1.94165	  8.69779	 -0.51076	  6.56129	 -0.38345	 10.89912	709.38000	 26.20	
 20.008	-156.764	  8.53948	 -2.39287	  9.45548	  0.40375	  5.23163	 -0.42591	 10.89487	709.40002	 26.20	
 20.003	-168.362	  8.51253	 -2.65531	  9.92856	  1.49782	  3.84998	 -0.47081	 10.89650	709.44000	 26.20	
 20.000	180.000	  8.48873	 -2.75270	 10.08336	  2.74723	  2.48701	 -0.53386	 10.89869	709.47998	 26.20	
