FileType=PCF
NHL=14
Date=03/18/19	14:48:47
Facility=APL
Serial=16071-6
Customer=NASA
NP=6
Mach=0.036000
Calibration=1:1
CalPts=490
TstPts=95
PortNumbering=AP Standard
Units=Torr C m/s kg/m^3 deg mm 
Theta[deg]	Phi[deg]	P1[Torr]	P2[Torr]	P3[Torr]	P4[Torr]	P5[Torr]	P6[Torr]	Pt[Torr]	Ps[Abs,Torr]	Ts[C]	
  0.000	  0.000	  0.63548	  0.30151	  0.29913	  0.29639	  0.29797	  0.04637	  0.63771	710.01001	 20.90	
  1.691	128.401	  0.63436	  0.28292	  0.31621	  0.31924	  0.27382	  0.04716	  0.63572	710.20001	 20.90	
  1.692	 77.194	  0.63211	  0.30541	  0.29101	  0.32387	  0.26949	  0.04974	  0.63370	710.07001	 20.90	
  1.699	 26.182	  0.63660	  0.32670	  0.27443	  0.30776	  0.28573	  0.04756	  0.63833	710.03003	 20.90	
  1.699	-26.182	  0.63573	  0.32419	  0.27390	  0.28186	  0.30962	  0.04657	  0.63873	710.10999	 20.90	
  1.692	-77.194	  0.62996	  0.30213	  0.28939	  0.26768	  0.32174	  0.04185	  0.63444	710.09003	 20.90	
  1.691	-128.401	  0.63295	  0.28064	  0.31566	  0.27192	  0.31740	  0.04256	  0.63541	710.04999	 20.90	
  1.700	180.000	  0.63722	  0.27275	  0.32983	  0.29560	  0.29521	  0.04344	  0.63997	710.03003	 20.90	
  3.400	180.000	  0.63727	  0.23964	  0.36306	  0.29419	  0.29340	  0.04109	  0.64048	710.09998	 20.90	
  3.388	-152.325	  0.63509	  0.24731	  0.35322	  0.26547	  0.32181	  0.03931	  0.64087	710.07001	 20.90	
  3.397	-124.529	  0.63006	  0.26167	  0.33003	  0.24331	  0.34166	  0.03667	  0.63577	710.06000	 20.90	
  3.399	-96.763	  0.63869	  0.28887	  0.30532	  0.23781	  0.35642	  0.03576	  0.64414	710.03998	 20.90	
  3.394	-69.283	  0.63550	  0.31695	  0.27607	  0.24009	  0.35196	  0.03929	  0.64072	710.10999	 20.90	
  3.400	-41.398	  0.63584	  0.34304	  0.25342	  0.25336	  0.33636	  0.04114	  0.63889	710.14001	 20.90	
  3.401	-14.021	  0.63649	  0.35826	  0.24134	  0.27802	  0.30995	  0.04289	  0.63902	710.09003	 20.90	
  3.401	 14.021	  0.63312	  0.35887	  0.24048	  0.30625	  0.27999	  0.04864	  0.63468	710.08002	 20.90	
  3.400	 41.398	  0.63857	  0.34762	  0.25502	  0.33678	  0.25794	  0.05274	  0.63828	710.09998	 20.90	
  3.394	 69.283	  0.63513	  0.32173	  0.27523	  0.35604	  0.24020	  0.05189	  0.63508	710.00000	 20.90	
  3.399	 96.763	  0.63637	  0.29415	  0.30194	  0.36175	  0.23580	  0.04913	  0.63594	710.13000	 20.90	
  3.397	124.529	  0.64051	  0.26844	  0.33358	  0.35235	  0.24486	  0.04734	  0.64055	710.17999	 20.90	
  3.388	152.325	  0.63608	  0.24840	  0.35166	  0.32564	  0.26289	  0.04371	  0.63831	710.07001	 20.90	
  5.099	161.165	  0.63223	  0.21309	  0.38589	  0.32519	  0.25755	  0.04004	  0.63757	710.08002	 20.90	
  5.109	142.013	  0.63539	  0.22765	  0.37162	  0.35512	  0.23414	  0.04330	  0.63836	710.07001	 20.90	
  5.095	123.033	  0.63198	  0.24856	  0.34378	  0.37608	  0.21466	  0.04662	  0.63308	710.13000	 20.90	
  5.105	104.191	  0.63313	  0.27569	  0.31575	  0.38988	  0.20630	  0.04958	  0.63504	710.14001	 20.90	
  5.093	 85.207	  0.63869	  0.30819	  0.28662	  0.39507	  0.20519	  0.05089	  0.63940	710.10999	 20.90	
  5.104	 66.290	  0.63845	  0.33803	  0.25941	  0.38487	  0.21481	  0.05284	  0.63878	709.97998	 20.90	
  5.094	 47.331	  0.63570	  0.36406	  0.23372	  0.36380	  0.22844	  0.05011	  0.63709	710.01001	 20.90	
  5.089	 28.397	  0.63578	  0.38285	  0.21693	  0.33658	  0.25053	  0.04985	  0.63888	710.20001	 21.00	
  5.096	  9.576	  0.63216	  0.39055	  0.20560	  0.30306	  0.27689	  0.04580	  0.63497	710.10999	 21.00	
  5.096	 -9.576	  0.63340	  0.38950	  0.20679	  0.27127	  0.30696	  0.04194	  0.63858	710.15997	 20.90	
  5.089	-28.397	  0.63158	  0.37637	  0.21400	  0.24267	  0.33616	  0.03807	  0.63849	710.10999	 20.90	
  5.094	-47.331	  0.62867	  0.35391	  0.23117	  0.21932	  0.36030	  0.03478	  0.63769	710.00000	 21.00	
  5.104	-66.290	  0.62553	  0.32391	  0.25283	  0.20259	  0.37668	  0.03145	  0.63533	710.01001	 21.00	
  5.093	-85.207	  0.62710	  0.29529	  0.28279	  0.19945	  0.38378	  0.02971	  0.63687	710.09998	 21.00	
  5.105	-104.191	  0.62546	  0.26481	  0.31243	  0.20105	  0.37951	  0.02993	  0.63602	710.09003	 21.00	
  5.095	-123.033	  0.62835	  0.24185	  0.34323	  0.21334	  0.36789	  0.02929	  0.63920	709.98999	 21.00	
  5.109	-142.013	  0.62717	  0.22135	  0.36775	  0.23188	  0.34462	  0.02949	  0.63647	710.09998	 21.00	
  5.099	-161.165	  0.63114	  0.21041	  0.38592	  0.26053	  0.31654	  0.03440	  0.63824	709.98999	 21.00	
  5.100	180.000	  0.62714	  0.20643	  0.38868	  0.28903	  0.28561	  0.03716	  0.63340	709.87000	 21.00	
  6.800	180.000	  0.62662	  0.17312	  0.42120	  0.28650	  0.28094	  0.02979	  0.63734	710.12000	 21.00	
  6.796	-166.229	  0.62151	  0.17384	  0.41464	  0.25486	  0.30807	  0.02694	  0.63380	710.04999	 21.00	
  6.808	-152.311	  0.62024	  0.18207	  0.40298	  0.22560	  0.33759	  0.02423	  0.63518	710.09003	 21.00	
  6.795	-138.383	  0.61431	  0.19372	  0.38032	  0.19907	  0.36117	  0.02159	  0.62986	710.06000	 21.00	
  6.792	-124.591	  0.62387	  0.21544	  0.36072	  0.18411	  0.38863	  0.02051	  0.64142	710.09003	 21.00	
  6.787	-110.754	  0.61773	  0.23750	  0.32966	  0.17078	  0.40034	  0.02122	  0.63549	710.06000	 21.00	
  6.800	-96.985	  0.62466	  0.26681	  0.30203	  0.16466	  0.41342	  0.01876	  0.64125	709.96997	 21.00	
  6.800	-83.015	  0.62656	  0.29727	  0.27275	  0.16500	  0.41453	  0.02122	  0.64370	710.16998	 21.00	
  6.787	-69.246	  0.62730	  0.32768	  0.24409	  0.17073	  0.40836	  0.02327	  0.64268	710.10999	 21.00	
  6.792	-55.409	  0.62582	  0.35636	  0.21873	  0.18155	  0.39340	  0.02520	  0.64099	710.10999	 21.00	
  6.795	-41.617	  0.62401	  0.37952	  0.19841	  0.19746	  0.37141	  0.02934	  0.63649	709.87000	 21.00	
  6.808	-27.689	  0.62782	  0.40218	  0.18409	  0.22277	  0.34746	  0.03274	  0.64012	710.03998	 21.00	
  6.796	-13.771	  0.62711	  0.41470	  0.17473	  0.24974	  0.31606	  0.03564	  0.63688	710.00000	 21.00	
  6.800	  0.000	  0.62316	  0.41829	  0.16995	  0.27874	  0.28641	  0.03984	  0.63208	709.96997	 21.00	
  6.796	 13.771	  0.62879	  0.41935	  0.17423	  0.31274	  0.25786	  0.04207	  0.63522	710.04999	 21.00	
  6.808	 27.689	  0.63392	  0.41096	  0.18548	  0.34584	  0.23409	  0.04540	  0.64021	709.97998	 21.00	
  6.795	 41.617	  0.63298	  0.39206	  0.20118	  0.37314	  0.21108	  0.04860	  0.63752	710.03998	 21.00	
  6.792	 55.409	  0.63847	  0.37253	  0.22249	  0.40029	  0.19525	  0.04936	  0.64198	709.98999	 21.00	
  6.787	 69.246	  0.63517	  0.34169	  0.24715	  0.41531	  0.18031	  0.04973	  0.63837	710.06000	 21.00	
  6.800	 83.015	  0.63902	  0.31434	  0.27608	  0.42621	  0.17536	  0.05040	  0.64157	710.10999	 21.00	
  6.800	 96.985	  0.63681	  0.28269	  0.30587	  0.42608	  0.17406	  0.04792	  0.63956	710.15002	 21.00	
  6.787	110.754	  0.64168	  0.25612	  0.33936	  0.42125	  0.18054	  0.04684	  0.64492	710.08002	 21.00	
  6.792	124.591	  0.63464	  0.22739	  0.36594	  0.40212	  0.18975	  0.04628	  0.64014	710.12000	 21.00	
  6.795	138.383	  0.63006	  0.20555	  0.38808	  0.37734	  0.20558	  0.04048	  0.63545	710.04999	 21.00	
  6.808	152.311	  0.63391	  0.19033	  0.41025	  0.35396	  0.22742	  0.03751	  0.64217	710.10999	 21.00	
  6.796	166.229	  0.62840	  0.17844	  0.41775	  0.31959	  0.25292	  0.03384	  0.63785	710.09003	 21.00	
  8.491	168.704	  0.61958	  0.14232	  0.44655	  0.31263	  0.24367	  0.02507	  0.63614	710.06000	 21.00	
  8.502	157.493	  0.61978	  0.15130	  0.43618	  0.34512	  0.21730	  0.02992	  0.63401	710.13000	 21.00	
  8.494	146.194	  0.62867	  0.16737	  0.42424	  0.37871	  0.19538	  0.03394	  0.64195	710.12000	 21.00	
  8.495	135.039	  0.63223	  0.18641	  0.40361	  0.40769	  0.17647	  0.03523	  0.64310	710.13000	 21.00	
  8.487	123.723	  0.63328	  0.20839	  0.37885	  0.43006	  0.15931	  0.03870	  0.64325	710.10999	 21.00	
  8.492	112.575	  0.62749	  0.23280	  0.34556	  0.44251	  0.14812	  0.04181	  0.63656	710.21002	 21.00	
  8.510	101.220	  0.62994	  0.26310	  0.31464	  0.45422	  0.14080	  0.04401	  0.63840	710.10999	 21.00	
  8.500	 90.000	  0.63128	  0.29292	  0.28326	  0.45733	  0.14019	  0.04371	  0.63817	710.06000	 21.00	
  8.510	 78.780	  0.62792	  0.32307	  0.25202	  0.44957	  0.14286	  0.04572	  0.63585	710.04999	 21.00	
  8.492	 67.425	  0.63638	  0.35764	  0.22705	  0.44401	  0.15117	  0.04425	  0.64485	710.00000	 21.00	
  8.487	 56.277	  0.62792	  0.38130	  0.20028	  0.42119	  0.16348	  0.04418	  0.63753	710.13000	 21.00	
  8.495	 44.961	  0.62886	  0.40731	  0.17775	  0.39843	  0.17994	  0.04323	  0.63904	710.14001	 21.00	
  8.494	 33.806	  0.62619	  0.42629	  0.16028	  0.36969	  0.20055	  0.04172	  0.63791	710.16998	 21.00	
  8.502	 22.507	  0.61966	  0.43830	  0.14542	  0.33637	  0.22359	  0.04017	  0.63164	710.07001	 21.00	
  8.491	 11.296	  0.62290	  0.44818	  0.13950	  0.30619	  0.25215	  0.03509	  0.63589	710.06000	 21.00	
  8.500	  0.000	  0.61864	  0.44771	  0.13551	  0.27261	  0.28079	  0.03093	  0.63376	709.96997	 21.00	
  8.491	-11.296	  0.62286	  0.44513	  0.13786	  0.24244	  0.31270	  0.02712	  0.63998	710.06000	 21.00	
  8.502	-22.507	  0.62087	  0.43227	  0.14628	  0.21207	  0.34336	  0.02369	  0.63907	709.96997	 21.00	
  8.494	-33.806	  0.61350	  0.41006	  0.15658	  0.18488	  0.36811	  0.01984	  0.63436	709.97998	 21.00	
  8.495	-44.961	  0.61873	  0.39135	  0.17408	  0.16431	  0.39577	  0.01731	  0.64110	710.09998	 21.00	
  8.487	-56.277	  0.61783	  0.36416	  0.19657	  0.14863	  0.41630	  0.01539	  0.64040	710.03003	 21.00	
  8.492	-67.425	  0.61019	  0.33039	  0.21843	  0.13439	  0.42604	  0.01116	  0.63415	710.16998	 21.00	
  8.510	-78.780	  0.60879	  0.29929	  0.24640	  0.12800	  0.43569	  0.00867	  0.63421	710.01001	 21.00	
  8.500	-90.000	  0.61360	  0.27142	  0.27856	  0.12544	  0.44184	  0.00579	  0.63896	709.98999	 21.00	
  8.510	-101.220	  0.61343	  0.24233	  0.30976	  0.13081	  0.43593	  0.00885	  0.63814	710.07001	 21.00	
  8.492	-112.575	  0.61037	  0.21369	  0.33910	  0.13802	  0.42186	  0.00665	  0.63465	710.00000	 21.00	
  8.487	-123.723	  0.61377	  0.19189	  0.37072	  0.15227	  0.40823	  0.00952	  0.63783	710.02002	 21.00	
  8.495	-135.039	  0.61594	  0.17279	  0.39748	  0.16925	  0.38800	  0.01019	  0.64002	710.08002	 21.00	
  8.494	-146.194	  0.61652	  0.15639	  0.41902	  0.19159	  0.36207	  0.01201	  0.63884	709.96997	 21.00	
  8.502	-157.493	  0.61570	  0.14488	  0.43584	  0.21719	  0.33252	  0.01552	  0.63756	710.06000	 21.00	
  8.491	-168.704	  0.61909	  0.13974	  0.44750	  0.24855	  0.30317	  0.02179	  0.63967	709.96002	 21.00	
  8.500	180.000	  0.62142	  0.13888	  0.45071	  0.28071	  0.27506	  0.02165	  0.63905	710.04999	 21.00	
 10.200	180.000	  0.61602	  0.10481	  0.48135	  0.27452	  0.26761	  0.01420	  0.64322	710.04999	 21.00	
 10.191	-170.497	  0.60957	  0.10522	  0.47545	  0.24087	  0.29538	  0.00880	  0.63974	709.98999	 21.00	
 10.210	-161.034	  0.60995	  0.10922	  0.46679	  0.20996	  0.32671	  0.00739	  0.64074	710.01001	 21.00	
 10.194	-151.526	  0.60299	  0.11772	  0.44767	  0.18123	  0.35375	  0.00437	  0.63681	710.02002	 21.00	
 10.190	-142.105	  0.60550	  0.13154	  0.43142	  0.15777	  0.38321	  0.00481	  0.63974	709.96002	 21.00	
 10.215	-132.646	  0.60616	  0.14724	  0.40830	  0.13618	  0.40910	  0.00322	  0.64175	710.02002	 21.00	
 10.203	-123.092	  0.59721	  0.16604	  0.37459	  0.11881	  0.42386	 -0.00133	  0.63234	710.03998	 21.00	
 10.192	-113.678	  0.60000	  0.19000	  0.34728	  0.10444	  0.44516	 -0.00165	  0.63794	710.07001	 21.00	
 10.208	-104.249	  0.60295	  0.21762	  0.31895	  0.09635	  0.46001	 -0.00311	  0.64091	710.04999	 21.00	
 10.210	-94.801	  0.60117	  0.24511	  0.28484	  0.09029	  0.46485	 -0.00392	  0.63688	710.08002	 21.00	
 10.210	-85.199	  0.60603	  0.27820	  0.25582	  0.09050	  0.46933	 -0.00213	  0.64218	710.09998	 21.00	
 10.208	-75.751	  0.60459	  0.30872	  0.22485	  0.09304	  0.46261	 -0.00036	  0.64109	710.15002	 21.00	
 10.192	-66.322	  0.60285	  0.33909	  0.19649	  0.10091	  0.45172	  0.00160	  0.63834	710.01001	 21.00	
 10.203	-56.908	  0.60601	  0.36998	  0.17266	  0.11302	  0.43629	  0.00523	  0.63912	710.09998	 21.00	
 10.215	-47.354	  0.60882	  0.39991	  0.15018	  0.12951	  0.41786	  0.00499	  0.64192	709.96002	 21.00	
 10.190	-37.895	  0.60849	  0.42391	  0.13285	  0.15070	  0.39267	  0.00922	  0.64059	710.03003	 21.00	
 10.194	-28.474	  0.61063	  0.44470	  0.11893	  0.17404	  0.36651	  0.01286	  0.64110	710.01001	 21.00	
 10.210	-18.966	  0.60873	  0.45967	  0.10749	  0.20139	  0.33523	  0.01664	  0.63766	710.04999	 21.00	
 10.191	 -9.503	  0.61578	  0.47392	  0.10394	  0.23293	  0.30623	  0.02188	  0.64231	710.03998	 21.00	
 10.200	  0.000	  0.60738	  0.47227	  0.10102	  0.26150	  0.27152	  0.02544	  0.63153	710.14001	 21.00	
 10.191	  9.503	  0.61830	  0.47894	  0.10398	  0.29956	  0.24519	  0.02735	  0.64190	710.10999	 21.00	
 10.210	 18.966	  0.61538	  0.46934	  0.11142	  0.33055	  0.21640	  0.03066	  0.63728	710.15997	 21.00	
 10.194	 28.474	  0.62210	  0.46085	  0.12329	  0.36497	  0.19216	  0.03547	  0.64326	710.08002	 21.00	
 10.190	 37.895	  0.62099	  0.44166	  0.13784	  0.39450	  0.16842	  0.03740	  0.63953	710.06000	 21.00	
 10.215	 47.354	  0.61931	  0.41771	  0.15514	  0.42115	  0.14683	  0.04010	  0.63725	710.04999	 21.00	
 10.203	 56.908	  0.62563	  0.39430	  0.17814	  0.44658	  0.13276	  0.03967	  0.64243	710.13000	 21.00	
 10.192	 66.322	  0.62418	  0.36513	  0.20368	  0.46383	  0.12060	  0.04083	  0.63991	710.15997	 21.00	
 10.208	 75.751	  0.62557	  0.33468	  0.23161	  0.47744	  0.11191	  0.04118	  0.64054	710.03998	 21.00	
 10.210	 85.199	  0.61954	  0.30050	  0.25986	  0.48019	  0.10702	  0.04124	  0.63522	710.09998	 21.00	
 10.210	 94.801	  0.62392	  0.27104	  0.29246	  0.48484	  0.10667	  0.03835	  0.63983	710.12000	 21.00	
 10.208	104.249	  0.62136	  0.24010	  0.32483	  0.47786	  0.11071	  0.03772	  0.63813	710.08002	 21.00	
 10.192	113.678	  0.62151	  0.21176	  0.35620	  0.46633	  0.11660	  0.03545	  0.64034	710.10999	 21.00	
 10.203	123.092	  0.62164	  0.18585	  0.38699	  0.45119	  0.12734	  0.03177	  0.64055	710.08002	 21.00	
 10.215	132.646	  0.61712	  0.16113	  0.41180	  0.42720	  0.14097	  0.03010	  0.63708	710.13000	 21.00	
 10.190	142.105	  0.61518	  0.14268	  0.43406	  0.39904	  0.16135	  0.02741	  0.63669	710.15997	 21.00	
 10.194	151.526	  0.61533	  0.12658	  0.45447	  0.37043	  0.18315	  0.02474	  0.63775	710.19000	 21.00	
 10.210	161.034	  0.61671	  0.11371	  0.47092	  0.34150	  0.20706	  0.02009	  0.64320	709.96002	 21.00	
 10.191	170.497	  0.60825	  0.10537	  0.47424	  0.30499	  0.23215	  0.01490	  0.63706	710.04999	 21.00	
 11.899	171.783	  0.59161	  0.07148	  0.49575	  0.29483	  0.22053	  0.00527	  0.62928	710.13000	 21.00	
 11.890	163.610	  0.59921	  0.07919	  0.49182	  0.33074	  0.19306	  0.01184	  0.63533	710.12000	 21.00	
 11.889	155.445	  0.60758	  0.08875	  0.48424	  0.36609	  0.16960	  0.01080	  0.64269	710.01001	 21.00	
 11.909	147.299	  0.60375	  0.10139	  0.46482	  0.39477	  0.14585	  0.01705	  0.63756	710.01001	 21.00	
 11.902	139.148	  0.60610	  0.11897	  0.44466	  0.42388	  0.12635	  0.01975	  0.63864	710.03003	 21.00	
 11.894	130.867	  0.60759	  0.13921	  0.41861	  0.44813	  0.10927	  0.02041	  0.63831	710.07001	 21.00	
 11.897	122.732	  0.61340	  0.16534	  0.39382	  0.47270	  0.09826	  0.02452	  0.64070	710.00000	 21.00	
 11.903	114.597	  0.61056	  0.19032	  0.36237	  0.48798	  0.08771	  0.02934	  0.63648	709.96002	 21.00	
 11.893	106.346	  0.61300	  0.21779	  0.33164	  0.50116	  0.07984	  0.02913	  0.63834	710.09998	 21.00	
 11.892	 98.155	  0.61489	  0.24902	  0.29965	  0.50988	  0.07602	  0.03197	  0.64083	710.07001	 21.00	
 11.900	 90.000	  0.61098	  0.27789	  0.26676	  0.50971	  0.07278	  0.03352	  0.63594	710.07001	 21.00	
 11.892	 81.845	  0.61198	  0.30967	  0.23514	  0.50601	  0.07389	  0.03244	  0.63770	710.06000	 21.00	
 11.893	 73.654	  0.61587	  0.34322	  0.20839	  0.49818	  0.08431	  0.03582	  0.64167	710.03998	 21.00	
 11.903	 65.403	  0.61140	  0.36999	  0.18103	  0.48384	  0.08855	  0.03342	  0.63810	710.06000	 21.00	
 11.897	 57.268	  0.61297	  0.39975	  0.15644	  0.46780	  0.09948	  0.03150	  0.63933	709.96997	 21.00	
 11.894	 49.133	  0.61240	  0.42870	  0.13347	  0.44465	  0.11536	  0.03293	  0.64058	710.00000	 21.00	
 11.902	 40.852	  0.60590	  0.44734	  0.11234	  0.41568	  0.13190	  0.02986	  0.63438	709.89001	 21.00	
 11.909	 32.701	  0.61090	  0.47248	  0.09827	  0.38941	  0.15424	  0.02808	  0.64208	710.08002	 21.00	
 11.889	 24.555	  0.60559	  0.48446	  0.08456	  0.35411	  0.17890	  0.02493	  0.63658	710.09998	 21.00	
 11.890	 16.390	  0.60497	  0.49569	  0.07562	  0.32248	  0.20527	  0.02099	  0.63807	709.96002	 21.00	
 11.899	  8.217	  0.60150	  0.49841	  0.06936	  0.28809	  0.23215	  0.01960	  0.63615	710.12000	 21.00	
 11.900	  0.000	  0.60215	  0.50052	  0.06894	  0.25392	  0.26445	  0.01925	  0.63768	710.09003	 21.00	
 11.899	 -8.217	  0.60429	  0.49882	  0.06985	  0.22411	  0.29672	  0.01503	  0.64201	710.09003	 21.00	
 11.890	-16.390	  0.59657	  0.48319	  0.07449	  0.19076	  0.32536	  0.01196	  0.63452	710.12000	 21.00	
 11.889	-24.555	  0.60139	  0.47380	  0.08332	  0.16410	  0.35959	  0.00804	  0.64188	710.09003	 21.00	
 11.909	-32.701	  0.59464	  0.45145	  0.09236	  0.13740	  0.38310	  0.00210	  0.63679	710.03998	 21.00	
 11.902	-40.852	  0.59047	  0.42736	  0.10650	  0.11407	  0.40867	 -0.00073	  0.63385	710.03003	 21.00	
 11.894	-49.133	  0.59061	  0.40181	  0.12645	  0.09568	  0.43419	 -0.00174	  0.63689	709.98999	 21.00	
 11.897	-57.268	  0.58898	  0.37313	  0.14735	  0.08039	  0.45379	 -0.00510	  0.63464	710.04999	 21.00	
 11.903	-65.403	  0.59436	  0.34624	  0.17242	  0.06792	  0.47432	 -0.00713	  0.64261	710.01001	 21.00	
 11.893	-73.654	  0.58732	  0.31152	  0.19853	  0.05885	  0.48041	 -0.00870	  0.63571	710.01001	 21.00	
 11.892	-81.845	  0.59356	  0.28325	  0.23103	  0.05593	  0.49243	 -0.01096	  0.64123	710.08002	 21.00	
 11.900	-90.000	  0.59434	  0.25179	  0.26176	  0.05417	  0.49491	 -0.01170	  0.64441	710.04999	 21.00	
 11.892	-98.155	  0.58372	  0.21907	  0.28866	  0.05845	  0.48235	 -0.01030	  0.63240	710.10999	 21.00	
 11.893	-106.346	  0.58779	  0.19158	  0.32349	  0.06247	  0.47754	 -0.01302	  0.63778	710.03003	 21.00	
 11.903	-114.597	  0.59169	  0.16643	  0.35688	  0.07229	  0.46607	 -0.01140	  0.64090	710.06000	 21.00	
 11.897	-122.732	  0.59301	  0.14297	  0.38722	  0.08525	  0.45044	 -0.01076	  0.64241	710.00000	 21.00	
 11.894	-130.867	  0.58716	  0.12219	  0.41168	  0.10147	  0.42434	 -0.00924	  0.63528	710.02002	 21.00	
 11.902	-139.148	  0.58600	  0.10480	  0.43523	  0.12201	  0.39731	 -0.00594	  0.63295	710.09003	 21.00	
 11.909	-147.299	  0.59303	  0.08983	  0.46042	  0.14515	  0.37436	 -0.00467	  0.63998	710.03998	 21.00	
 11.889	-155.445	  0.58964	  0.08012	  0.47476	  0.17001	  0.34405	 -0.00112	  0.63509	710.03998	 21.00	
 11.890	-163.610	  0.59774	  0.07327	  0.49421	  0.20088	  0.31609	  0.00103	  0.64092	709.94000	 21.00	
 11.899	-171.783	  0.59473	  0.06969	  0.49877	  0.23086	  0.28385	  0.00139	  0.63743	710.04999	 21.00	
 11.900	180.000	  0.59691	  0.06966	  0.50114	  0.26262	  0.25295	  0.00464	  0.63631	710.12000	 21.00	
 13.600	180.000	  0.58659	  0.03602	  0.52733	  0.25476	  0.24248	 -0.00511	  0.63953	710.06000	 21.00	
 13.608	-172.853	  0.58272	  0.03506	  0.52257	  0.22232	  0.27076	 -0.00887	  0.63836	709.94000	 21.00	
 13.611	-165.583	  0.58363	  0.03887	  0.51765	  0.19141	  0.30484	 -0.01109	  0.64084	709.97998	 21.00	
 13.601	-158.353	  0.57609	  0.04382	  0.50181	  0.15921	  0.33209	 -0.01105	  0.63563	710.04999	 21.00	
 13.609	-151.210	  0.57732	  0.05240	  0.48759	  0.13418	  0.36317	 -0.01474	  0.63868	710.12000	 21.00	
 13.611	-143.999	  0.57651	  0.06386	  0.46752	  0.10780	  0.39295	 -0.01660	  0.63892	710.03998	 21.00	
 13.601	-136.825	  0.57981	  0.08065	  0.44766	  0.08805	  0.42270	 -0.01781	  0.64246	710.16998	 21.00	
 13.596	-129.640	  0.57761	  0.09614	  0.42088	  0.06873	  0.44496	 -0.02092	  0.64132	710.07001	 21.00	
 13.611	-122.431	  0.57218	  0.11678	  0.38867	  0.05301	  0.46247	 -0.02107	  0.63549	710.02002	 21.00	
 13.604	-115.211	  0.57362	  0.14040	  0.36016	  0.04063	  0.48277	 -0.02228	  0.63932	710.03003	 21.00	
 13.595	-108.042	  0.56980	  0.16415	  0.32611	  0.03007	  0.49315	 -0.02124	  0.63456	710.08002	 21.00	
 13.607	-100.793	  0.57138	  0.19192	  0.29551	  0.02331	  0.50464	 -0.02395	  0.63652	710.03998	 21.00	
 13.601	-93.617	  0.57285	  0.22099	  0.26405	  0.01927	  0.51159	 -0.02316	  0.63676	710.06000	 21.00	
 13.601	-86.383	  0.57027	  0.25082	  0.23228	  0.01984	  0.50872	 -0.02297	  0.63374	710.06000	 21.00	
 13.607	-79.207	  0.57398	  0.28383	  0.20260	  0.02150	  0.51016	 -0.02209	  0.63837	709.94000	 21.00	
 13.595	-71.958	  0.57298	  0.31560	  0.17377	  0.02827	  0.50045	 -0.02086	  0.63603	709.94000	 21.00	
 13.604	-64.789	  0.57333	  0.34624	  0.14733	  0.03572	  0.48785	 -0.01728	  0.63593	709.98999	 21.00	
 13.611	-57.569	  0.57383	  0.37575	  0.12212	  0.04565	  0.47214	 -0.01750	  0.63551	710.01001	 21.00	
 13.596	-50.360	  0.57481	  0.40376	  0.10210	  0.06044	  0.45160	 -0.01543	  0.63363	709.96002	 21.00	
 13.601	-43.175	  0.57680	  0.43178	  0.08401	  0.07842	  0.42923	 -0.01175	  0.63552	709.85999	 21.00	
 13.611	-36.001	  0.57853	  0.45661	  0.06829	  0.09965	  0.40436	 -0.00889	  0.63609	709.89001	 21.00	
 13.609	-28.790	  0.57576	  0.47411	  0.05448	  0.12390	  0.37198	 -0.00713	  0.63118	709.94000	 21.00	
 13.601	-21.647	  0.57718	  0.49131	  0.04415	  0.14926	  0.34271	 -0.00603	  0.63045	709.94000	 21.00	
 13.611	-14.417	  0.58278	  0.50824	  0.03751	  0.17846	  0.31432	  0.00025	  0.63516	709.79999	 21.00	
 13.608	 -7.147	  0.59011	  0.52242	  0.03297	  0.21199	  0.28517	  0.00302	  0.64192	709.85999	 21.00	
 13.600	  0.000	  0.59011	  0.52427	  0.03457	  0.24220	  0.25562	  0.00737	  0.63800	709.87000	 21.00	
 13.608	  7.147	  0.58620	  0.52065	  0.03519	  0.27365	  0.22286	  0.00878	  0.63440	709.96997	 21.00	
 13.611	 14.417	  0.59156	  0.51967	  0.04019	  0.30924	  0.19400	  0.01319	  0.63765	709.85999	 21.00	
 13.601	 21.647	  0.58928	  0.50673	  0.04988	  0.34014	  0.16782	  0.01684	  0.63447	709.89001	 21.00	
 13.609	 28.790	  0.59350	  0.49487	  0.06212	  0.37403	  0.14456	  0.01990	  0.63739	709.95001	 21.00	
 13.611	 36.001	  0.59966	  0.48139	  0.07618	  0.40798	  0.12256	  0.02128	  0.64177	709.96002	 21.00	
 13.601	 43.175	  0.59819	  0.45953	  0.09127	  0.43472	  0.10330	  0.02362	  0.63903	709.95001	 21.00	
 13.596	 50.360	  0.59965	  0.43483	  0.11056	  0.46077	  0.08545	  0.02421	  0.63941	709.97998	 21.00	
 13.611	 57.569	  0.60064	  0.40966	  0.13154	  0.48485	  0.07074	  0.02375	  0.64056	709.96997	 21.00	
 13.604	 64.789	  0.59935	  0.37733	  0.15694	  0.50208	  0.05932	  0.02675	  0.63739	709.87000	 21.00	
 13.595	 71.958	  0.60208	  0.34945	  0.18305	  0.51858	  0.05006	  0.02603	  0.63949	709.79999	 21.00	
 13.607	 79.207	  0.60086	  0.31626	  0.21048	  0.52783	  0.04334	  0.02454	  0.63763	710.01001	 21.00	
 13.601	 86.383	  0.60237	  0.28490	  0.24080	  0.53488	  0.04053	  0.02434	  0.63988	709.90002	 21.00	
 13.601	 93.617	  0.59751	  0.25318	  0.26945	  0.53139	  0.04096	  0.02404	  0.63441	709.88000	 21.00	
 13.607	100.793	  0.59877	  0.22265	  0.30267	  0.52805	  0.04256	  0.02337	  0.63730	709.87000	 21.00	
 13.595	108.042	  0.60192	  0.19496	  0.33730	  0.52368	  0.04764	  0.02203	  0.64180	710.00000	 21.00	
 13.604	115.211	  0.60176	  0.16744	  0.36750	  0.51067	  0.05416	  0.02036	  0.64152	709.88000	 21.00	
 13.611	122.431	  0.59591	  0.14192	  0.39557	  0.48997	  0.06525	  0.01623	  0.63739	709.85999	 21.00	
 13.596	129.640	  0.59352	  0.11862	  0.42320	  0.46606	  0.07856	  0.01352	  0.63615	709.90002	 21.00	
 13.601	136.825	  0.59623	  0.09898	  0.45026	  0.44519	  0.09441	  0.01060	  0.64080	709.90002	 21.00	
 13.611	143.999	  0.58644	  0.08086	  0.46737	  0.41219	  0.11155	  0.01110	  0.63158	709.91998	 21.00	
 13.609	151.210	  0.58916	  0.06744	  0.48942	  0.38468	  0.13441	  0.00814	  0.63699	709.88000	 21.00	
 13.601	158.353	  0.58762	  0.05543	  0.50446	  0.35240	  0.15791	  0.00328	  0.63558	709.97998	 21.00	
 13.611	165.583	  0.58995	  0.04563	  0.51926	  0.32247	  0.18521	  0.00157	  0.64034	709.89001	 21.00	
 13.608	172.853	  0.58579	  0.03894	  0.52315	  0.28617	  0.21193	 -0.00161	  0.63826	709.95001	 21.00	
 15.298	173.587	  0.56777	  0.00753	  0.54191	  0.27474	  0.19910	 -0.01216	  0.63568	709.97998	 21.00	
 15.291	167.167	  0.57497	  0.01263	  0.54108	  0.31025	  0.17327	 -0.00913	  0.64117	709.96002	 21.00	
 15.307	160.676	  0.57395	  0.02206	  0.52812	  0.34242	  0.14587	 -0.00658	  0.63750	710.01001	 21.00	
 15.300	154.261	  0.57586	  0.03240	  0.51487	  0.37514	  0.12270	 -0.00589	  0.63813	709.95001	 21.00	
 15.288	147.854	  0.57435	  0.04564	  0.49551	  0.40431	  0.10027	 -0.00175	  0.63424	709.92999	 21.00	
 15.293	141.428	  0.58154	  0.06018	  0.47914	  0.43671	  0.08002	  0.00130	  0.64010	709.92999	 21.00	
 15.299	134.985	  0.57987	  0.07785	  0.45378	  0.46238	  0.06356	  0.00293	  0.63818	709.89001	 21.00	
 15.305	128.583	  0.58144	  0.09894	  0.42855	  0.48745	  0.04957	  0.00477	  0.63870	709.95001	 21.00	
 15.309	122.142	  0.58438	  0.12047	  0.40058	  0.51047	  0.03520	  0.00754	  0.63901	709.90997	 21.00	
 15.304	115.711	  0.58343	  0.14487	  0.36895	  0.52568	  0.02655	  0.01244	  0.63759	709.76001	 21.00	
 15.297	109.291	  0.58646	  0.17099	  0.34023	  0.53991	  0.01865	  0.01379	  0.63919	709.95001	 21.00	
 15.293	102.897	  0.58751	  0.19910	  0.30905	  0.54941	  0.01369	  0.01655	  0.64012	709.98999	 21.00	
 15.293	 96.458	  0.58596	  0.22847	  0.27635	  0.55339	  0.01121	  0.01563	  0.63845	710.09003	 21.00	
 15.300	 90.000	  0.58922	  0.26043	  0.24514	  0.55811	  0.00864	  0.01580	  0.64137	709.95001	 21.00	
 15.293	 83.542	  0.58566	  0.28998	  0.21477	  0.55161	  0.01168	  0.01826	  0.63719	709.94000	 21.00	
 15.293	 77.103	  0.58075	  0.31922	  0.18505	  0.54057	  0.01523	  0.01818	  0.63278	709.98999	 21.00	
 15.297	 70.709	  0.58651	  0.35382	  0.15943	  0.53489	  0.02300	  0.01857	  0.63829	710.00000	 21.00	
 15.304	 64.289	  0.58552	  0.38336	  0.13204	  0.52015	  0.02963	  0.01671	  0.63844	709.92999	 21.00	
 15.309	 57.858	  0.58028	  0.40903	  0.10776	  0.49657	  0.04077	  0.01646	  0.63348	709.96002	 21.00	
 15.305	 51.417	  0.58697	  0.44078	  0.08701	  0.47990	  0.05413	  0.01332	  0.64106	710.10999	 21.00	
 15.299	 45.015	  0.58195	  0.46380	  0.06826	  0.45209	  0.07098	  0.01374	  0.63722	710.03998	 21.00	
 15.293	 38.572	  0.58682	  0.49082	  0.05188	  0.42735	  0.08986	  0.01234	  0.64356	709.83002	 21.00	
 15.288	 32.146	  0.58594	  0.51025	  0.03739	  0.39654	  0.11023	  0.01156	  0.64427	709.92999	 21.00	
 15.300	 25.739	  0.57675	  0.51969	  0.02503	  0.36022	  0.13406	  0.00776	  0.63608	709.96997	 21.00	
 15.307	 19.324	  0.57864	  0.53468	  0.01610	  0.32988	  0.15867	  0.00499	  0.63838	710.00000	 21.00	
 15.291	 12.833	  0.57476	  0.54004	  0.00696	  0.29404	  0.18448	  0.00254	  0.63742	709.95001	 21.00	
 15.298	  6.413	  0.57408	  0.54414	  0.00423	  0.26174	  0.21378	  0.00168	  0.63746	709.94000	 21.00	
 15.300	  0.000	  0.57095	  0.54300	  0.00172	  0.22874	  0.24273	 -0.00151	  0.63630	710.01001	 21.00	
 15.298	 -6.413	  0.57376	  0.54361	  0.00194	  0.19778	  0.27491	 -0.00659	  0.64129	710.01001	 21.00	
 15.291	-12.833	  0.56759	  0.52980	  0.00455	  0.16521	  0.30330	 -0.00903	  0.63522	709.91998	 21.00	
 15.307	-19.324	  0.56472	  0.51677	  0.01025	  0.13627	  0.33325	 -0.01278	  0.63301	709.96997	 21.00	
 15.300	-25.739	  0.56594	  0.50281	  0.01904	  0.11085	  0.36465	 -0.01669	  0.63578	709.98999	 21.00	
 15.288	-32.146	  0.56877	  0.48796	  0.02920	  0.08724	  0.39699	 -0.01760	  0.64218	710.01001	 21.00	
 15.293	-38.572	  0.56560	  0.46228	  0.04437	  0.06542	  0.42400	 -0.01965	  0.63888	710.01001	 21.00	
 15.299	-45.015	  0.56417	  0.43787	  0.05981	  0.04552	  0.44863	 -0.02351	  0.63888	709.98999	 21.00	
 15.305	-51.417	  0.55946	  0.40713	  0.07894	  0.02858	  0.46949	 -0.02744	  0.63569	709.85999	 21.00	
 15.309	-57.858	  0.56131	  0.37881	  0.09976	  0.01411	  0.49005	 -0.03057	  0.63748	709.96997	 21.00	
 15.304	-64.289	  0.55651	  0.34661	  0.12350	  0.00261	  0.50606	 -0.02954	  0.63612	709.96997	 21.00	
 15.297	-70.709	  0.55755	  0.31610	  0.14944	 -0.00710	  0.51958	 -0.03056	  0.63831	709.95001	 21.00	
 15.293	-77.103	  0.55434	  0.28298	  0.17644	 -0.01242	  0.52585	 -0.03116	  0.63488	709.98999	 21.00	
 15.293	-83.542	  0.55695	  0.25245	  0.20766	 -0.01413	  0.53260	 -0.03147	  0.63842	710.01001	 21.00	
 15.300	-90.000	  0.55651	  0.22125	  0.23730	 -0.01521	  0.53251	 -0.03214	  0.63873	709.94000	 21.00	
 15.293	-96.458	  0.55539	  0.19240	  0.26972	 -0.01244	  0.52881	 -0.03145	  0.63725	709.96002	 21.00	
 15.293	-102.897	  0.55067	  0.16048	  0.29886	 -0.00848	  0.51681	 -0.03239	  0.63355	709.96002	 21.00	
 15.297	-109.291	  0.55431	  0.13759	  0.33290	 -0.00060	  0.51025	 -0.03217	  0.63621	709.92999	 21.00	
 15.304	-115.711	  0.55753	  0.11253	  0.36705	  0.00925	  0.49759	 -0.03303	  0.63953	709.89001	 21.00	
 15.309	-122.142	  0.55314	  0.09064	  0.39368	  0.02160	  0.47662	 -0.03073	  0.63366	709.90002	 21.00	
 15.305	-128.583	  0.55841	  0.07157	  0.42492	  0.03637	  0.45843	 -0.03161	  0.63914	709.96997	 21.00	
 15.299	-134.985	  0.55707	  0.05451	  0.44973	  0.05521	  0.43238	 -0.02620	  0.63651	709.84003	 21.00	
 15.293	-141.428	  0.56140	  0.03819	  0.47551	  0.07335	  0.41032	 -0.02966	  0.64144	710.01001	 21.00	
 15.288	-147.854	  0.56044	  0.02574	  0.49483	  0.09605	  0.37959	 -0.02470	  0.63651	709.98999	 21.00	
 15.300	-154.261	  0.56097	  0.01744	  0.51208	  0.12268	  0.35046	 -0.02565	  0.63709	709.91998	 21.00	
 15.307	-160.676	  0.56088	  0.00950	  0.52502	  0.15145	  0.31587	 -0.02529	  0.63670	709.90002	 21.00	
 15.291	-167.167	  0.56692	  0.00378	  0.53937	  0.18281	  0.28642	 -0.01999	  0.64028	709.91998	 21.00	
 15.298	-173.587	  0.56634	  0.00283	  0.54355	  0.21305	  0.25530	 -0.01538	  0.63677	710.01001	 21.00	
 15.300	180.000	  0.57029	  0.00304	  0.54741	  0.24548	  0.22586	 -0.01698	  0.64031	709.88000	 21.00	
 17.000	180.000	  0.55291	 -0.02903	  0.56764	  0.23268	  0.21289	 -0.02394	  0.64067	709.90997	 21.00	
 16.990	-174.179	  0.55100	 -0.02933	  0.56408	  0.20085	  0.24285	 -0.02566	  0.63903	709.89001	 21.00	
 17.009	-168.383	  0.54512	 -0.02744	  0.55549	  0.16888	  0.27106	 -0.02954	  0.63528	709.88000	 21.00	
 17.000	-162.596	  0.54964	 -0.02460	  0.55321	  0.14051	  0.30553	 -0.03130	  0.64349	709.91998	 21.00	
 16.990	-156.759	  0.54618	 -0.01860	  0.53792	  0.11215	  0.33563	 -0.03667	  0.64064	710.00000	 21.00	
 16.995	-150.919	  0.54394	 -0.01113	  0.52005	  0.08392	  0.36609	 -0.03496	  0.64017	709.89001	 21.00	
 16.988	-145.161	  0.54600	  0.00051	  0.50422	  0.06213	  0.39693	 -0.04216	  0.64385	709.88000	 21.00	
 17.014	-139.343	  0.54207	  0.01363	  0.47941	  0.04151	  0.42336	 -0.03885	  0.64009	709.90002	 21.00	
 17.007	-133.546	  0.53919	  0.02775	  0.45149	  0.02070	  0.44710	 -0.04398	  0.63770	709.83002	 21.00	
 17.001	-127.699	  0.53670	  0.04593	  0.42328	  0.00305	  0.47063	 -0.03907	  0.63716	709.94000	 21.00	
 17.006	-121.937	  0.54030	  0.06577	  0.39765	 -0.01085	  0.49508	 -0.03844	  0.64190	709.90002	 21.00	
 17.002	-116.134	  0.53358	  0.08692	  0.36299	 -0.02283	  0.50833	 -0.03880	  0.63535	709.88000	 21.00	
 17.001	-110.310	  0.53883	  0.11169	  0.33435	 -0.03245	  0.52725	 -0.03864	  0.64089	709.84998	 21.00	
 16.988	-104.517	  0.53313	  0.13549	  0.30153	 -0.03794	  0.53359	 -0.03821	  0.63503	710.00000	 21.00	
 17.008	-98.662	  0.53614	  0.16397	  0.27069	 -0.04466	  0.54488	 -0.04172	  0.63874	709.78998	 21.00	
 16.996	-92.909	  0.53469	  0.19367	  0.23867	 -0.04577	  0.54771	 -0.04089	  0.63506	709.97998	 21.00	
 16.996	-87.091	  0.53829	  0.22386	  0.20690	 -0.04888	  0.55220	 -0.04104	  0.63856	709.96997	 21.00	
 17.012	-81.253	  0.54037	  0.25479	  0.17803	 -0.04774	  0.55226	 -0.03841	  0.64208	709.96002	 21.00	
 16.988	-75.483	  0.53569	  0.28435	  0.14911	 -0.04104	  0.53888	 -0.04162	  0.63311	709.82001	 21.00	
 17.001	-69.690	  0.53786	  0.31739	  0.12273	 -0.03517	  0.53114	 -0.03993	  0.63615	710.01001	 21.00	
 17.002	-63.866	  0.53802	  0.34750	  0.09764	 -0.02710	  0.51797	 -0.03895	  0.63585	709.92999	 21.00	
 17.006	-58.063	  0.54438	  0.38271	  0.07260	 -0.01796	  0.50767	 -0.03818	  0.64339	709.82001	 21.00	
 17.001	-52.301	  0.54293	  0.41077	  0.05354	 -0.00285	  0.48523	 -0.03577	  0.63823	709.85999	 21.00	
 17.007	-46.454	  0.53977	  0.43473	  0.03395	  0.01116	  0.46054	 -0.03117	  0.63422	709.95001	 21.00	
 17.014	-40.657	  0.54448	  0.46280	  0.01810	  0.02839	  0.43838	 -0.03043	  0.63837	709.95001	 21.00	
 16.988	-34.839	  0.54861	  0.48935	  0.00559	  0.05020	  0.41437	 -0.02828	  0.64024	710.04999	 21.00	
 16.995	-29.081	  0.55143	  0.51175	 -0.00811	  0.07109	  0.38662	 -0.02526	  0.64244	710.09003	 21.00	
 16.990	-23.241	  0.55077	  0.52711	 -0.01732	  0.09669	  0.35475	 -0.02266	  0.64095	709.90002	 21.00	
 17.000	-17.404	  0.55022	  0.54084	 -0.02249	  0.12419	  0.32410	 -0.02105	  0.63794	709.97998	 21.00	
 17.009	-11.617	  0.55398	  0.55318	 -0.02738	  0.15387	  0.29349	 -0.01753	  0.64000	709.96997	 21.00	
 16.990	 -5.821	  0.55128	  0.55708	 -0.03124	  0.18200	  0.25998	 -0.01604	  0.63536	709.87000	 21.00	
 17.000	  0.000	  0.55804	  0.56468	 -0.02905	  0.21582	  0.23282	 -0.00996	  0.64168	709.94000	 21.00	
 16.990	  5.821	  0.55619	  0.56202	 -0.02727	  0.24705	  0.20192	 -0.01055	  0.63765	709.90002	 21.00	
 17.009	 11.617	  0.56069	  0.56393	 -0.02475	  0.28185	  0.17443	 -0.00846	  0.64215	709.90997	 21.00	
 17.000	 17.404	  0.56002	  0.55431	 -0.01778	  0.31315	  0.14650	 -0.00611	  0.63812	709.98999	 21.00	
 16.990	 23.241	  0.56402	  0.54681	 -0.00973	  0.34838	  0.12118	 -0.00174	  0.64285	709.90997	 21.00	
 16.995	 29.081	  0.56414	  0.53089	  0.00096	  0.38042	  0.09779	 -0.00152	  0.63981	709.98999	 21.00	
 16.988	 34.839	  0.56035	  0.50882	  0.01495	  0.40704	  0.07807	  0.00227	  0.63333	709.90002	 21.00	
 17.014	 40.657	  0.56866	  0.49401	  0.03025	  0.44274	  0.05836	  0.00254	  0.64169	710.01001	 21.00	
 17.007	 46.454	  0.56473	  0.46727	  0.04686	  0.46693	  0.04171	  0.00336	  0.63665	709.91998	 21.00	
 17.001	 52.301	  0.56912	  0.44427	  0.06495	  0.49370	  0.02574	  0.00301	  0.63963	709.92999	 21.00	
 17.006	 58.063	  0.56954	  0.41684	  0.08677	  0.51663	  0.01330	  0.00475	  0.64068	709.85999	 21.00	
 17.002	 63.866	  0.56446	  0.38302	  0.10941	  0.52972	  0.00436	  0.00586	  0.63284	710.02002	 21.00	
 17.001	 69.690	  0.56891	  0.35509	  0.13390	  0.54818	 -0.00620	  0.00499	  0.63698	710.02002	 21.00	
 16.988	 75.483	  0.56885	  0.32542	  0.16261	  0.56055	 -0.00985	  0.01045	  0.63678	710.04999	 21.00	
 17.012	 81.253	  0.57094	  0.29484	  0.18847	  0.57119	 -0.01711	  0.00673	  0.63914	710.00000	 21.00	
 16.996	 87.091	  0.56560	  0.26026	  0.21760	  0.56928	 -0.01830	  0.00672	  0.63326	710.06000	 21.00	
 16.996	 92.909	  0.57275	  0.23195	  0.24966	  0.57733	 -0.02100	  0.00576	  0.64146	710.02002	 21.00	
 17.008	 98.662	  0.56719	  0.20177	  0.27960	  0.56909	 -0.01705	  0.00408	  0.63608	709.98999	 21.00	
 16.988	104.517	  0.57176	  0.17376	  0.31328	  0.56760	 -0.01533	  0.00264	  0.64197	710.02002	 21.00	
 17.001	110.310	  0.56846	  0.14709	  0.34200	  0.55480	 -0.00864	  0.00402	  0.63924	709.85999	 21.00	
 17.002	116.134	  0.56846	  0.12147	  0.37197	  0.54256	 -0.00327	 -0.00033	  0.64014	709.91998	 20.90	
 17.006	121.937	  0.56359	  0.09688	  0.40019	  0.52024	  0.00728	  0.00030	  0.63429	709.92999	 21.00	
 17.001	127.699	  0.56534	  0.07615	  0.42902	  0.50410	  0.01833	 -0.00388	  0.63949	709.90002	 21.00	
 17.007	133.546	  0.56851	  0.05640	  0.45974	  0.48293	  0.03123	 -0.00879	  0.64396	710.02002	 20.90	
 17.014	139.343	  0.56515	  0.03731	  0.48256	  0.45469	  0.04751	 -0.01070	  0.64211	709.91998	 20.90	
 16.988	145.161	  0.56018	  0.02345	  0.50051	  0.42239	  0.06591	 -0.01046	  0.63706	709.92999	 20.90	
 16.995	150.919	  0.55516	  0.00945	  0.51699	  0.39140	  0.08571	 -0.01134	  0.63441	709.91998	 21.00	
 16.990	156.759	  0.55355	 -0.00284	  0.53401	  0.35813	  0.10846	 -0.01421	  0.63310	709.90002	 21.00	
 17.000	162.596	  0.55640	 -0.01187	  0.54967	  0.32831	  0.13418	 -0.01577	  0.63834	709.97998	 20.90	
 17.009	168.383	  0.55345	 -0.01918	  0.55690	  0.29501	  0.15858	 -0.01802	  0.63626	709.94000	 20.90	
 16.990	174.179	  0.55191	 -0.02368	  0.56277	  0.26251	  0.18736	 -0.01904	  0.63868	709.96997	 20.90	
 18.709	174.675	  0.53111	 -0.05672	  0.58002	  0.24699	  0.17089	 -0.02990	  0.63637	709.90997	 20.90	
 18.703	169.441	  0.53605	 -0.05311	  0.57876	  0.28179	  0.14462	 -0.03039	  0.64081	709.97998	 20.90	
 18.691	164.085	  0.53684	 -0.04563	  0.56842	  0.31410	  0.11821	 -0.02746	  0.64016	709.85999	 20.90	
 18.706	158.818	  0.53877	 -0.03868	  0.55790	  0.34704	  0.09371	 -0.02549	  0.64091	709.85999	 20.90	
 18.695	153.537	  0.53530	 -0.02596	  0.53693	  0.37600	  0.07092	 -0.02282	  0.63220	709.84998	 20.90	
 18.704	148.255	  0.53683	 -0.01477	  0.52117	  0.40657	  0.05142	 -0.02161	  0.63440	709.90997	 20.90	
 18.698	142.952	  0.54381	 -0.00218	  0.50491	  0.44102	  0.03251	 -0.01796	  0.64092	710.01001	 20.90	
 18.699	137.625	  0.54406	  0.01462	  0.48168	  0.46839	  0.01527	 -0.01611	  0.64005	709.94000	 20.90	
 18.705	132.343	  0.54270	  0.03201	  0.45528	  0.49112	  0.00184	 -0.01528	  0.63593	709.89001	 20.90	
 18.713	127.067	  0.54732	  0.05126	  0.43139	  0.51739	 -0.01230	 -0.01409	  0.63872	709.91998	 20.90	
 18.700	121.794	  0.54942	  0.07209	  0.40354	  0.53895	 -0.02340	 -0.01210	  0.64039	709.92999	 20.90	
 18.698	116.504	  0.54954	  0.09585	  0.37321	  0.55651	 -0.03292	 -0.00861	  0.63986	709.96997	 20.90	
 18.707	111.165	  0.54997	  0.12089	  0.34203	  0.57113	 -0.03969	 -0.00696	  0.64007	709.96002	 20.90	
 18.690	105.863	  0.55574	  0.14950	  0.31490	  0.58606	 -0.04426	 -0.00240	  0.64485	709.96997	 20.90	
 18.696	100.583	  0.55190	  0.17591	  0.28066	  0.58997	 -0.04808	 -0.00088	  0.63872	709.91998	 20.90	
 18.700	 95.309	  0.55646	  0.20551	  0.25062	  0.59911	 -0.05297	 -0.00357	  0.64543	709.98999	 20.90	
 18.700	 90.000	  0.54950	  0.23349	  0.21835	  0.59164	 -0.05025	 -0.00319	  0.63540	710.02002	 20.90	
 18.700	 84.691	  0.55690	  0.26699	  0.19118	  0.59714	 -0.05008	 -0.00208	  0.64433	709.84998	 20.90	
 18.696	 79.417	  0.55686	  0.29811	  0.16259	  0.59016	 -0.04616	 -0.00035	  0.64446	709.91998	 20.90	
 18.690	 74.137	  0.55366	  0.32862	  0.13457	  0.57975	 -0.04177	 -0.00138	  0.64283	709.84998	 20.90	
 18.707	 68.835	  0.54472	  0.35464	  0.10732	  0.55779	 -0.03423	 -0.00241	  0.63208	709.85999	 20.90	
 18.698	 63.496	  0.54656	  0.38541	  0.08333	  0.54316	 -0.02633	 -0.00019	  0.63341	709.84003	 20.90	
 18.700	 58.206	  0.54988	  0.41738	  0.06109	  0.52824	 -0.01679	 -0.00342	  0.63970	709.90997	 20.90	
 18.713	 52.933	  0.54823	  0.44440	  0.04110	  0.50606	 -0.00454	 -0.00507	  0.63849	709.84003	 20.90	
 18.705	 47.657	  0.54329	  0.46646	  0.02127	  0.47791	  0.00875	 -0.00441	  0.63337	710.03003	 20.90	
 18.699	 42.375	  0.54281	  0.49154	  0.00559	  0.45192	  0.02622	 -0.00628	  0.63489	709.96002	 20.90	
 18.698	 37.048	  0.54564	  0.51601	 -0.00858	  0.42398	  0.04527	 -0.00796	  0.63766	709.82001	 20.90	
 18.704	 31.745	  0.54445	  0.53500	 -0.02315	  0.39529	  0.06333	 -0.00716	  0.63965	709.89001	 20.90	
 18.695	 26.463	  0.54051	  0.54846	 -0.03327	  0.36172	  0.08515	 -0.01120	  0.63594	709.94000	 20.90	
 18.706	 21.182	  0.53988	  0.56120	 -0.04279	  0.32889	  0.10900	 -0.01294	  0.63639	710.00000	 20.90	
 18.691	 15.915	  0.54166	  0.57503	 -0.05242	  0.29839	  0.13417	 -0.01628	  0.64120	710.03003	 20.90	
 18.703	 10.559	  0.53868	  0.57839	 -0.05718	  0.26414	  0.16034	 -0.01704	  0.63822	709.92999	 20.90	
 18.709	  5.325	  0.53357	  0.57752	 -0.05979	  0.22972	  0.18844	 -0.01836	  0.63464	709.95001	 20.90	
 18.700	  0.000	  0.53439	  0.57958	 -0.06171	  0.19939	  0.21782	 -0.01982	  0.63689	710.03998	 20.90	
 18.709	 -5.325	  0.53398	  0.57744	 -0.06185	  0.16802	  0.24847	 -0.02410	  0.63856	710.00000	 20.90	
 18.703	-10.559	  0.53166	  0.56973	 -0.05988	  0.13832	  0.27820	 -0.02568	  0.63873	710.07001	 20.90	
 18.691	-15.915	  0.52972	  0.55788	 -0.05526	  0.10947	  0.31036	 -0.03035	  0.63622	709.96997	 20.90	
 18.706	-21.182	  0.52992	  0.54690	 -0.04977	  0.08313	  0.34051	 -0.03028	  0.63938	710.03003	 20.90	
 18.695	-26.463	  0.52921	  0.53112	 -0.04279	  0.05895	  0.36995	 -0.03378	  0.63958	710.02002	 20.90	
 18.704	-31.745	  0.52240	  0.50455	 -0.02957	  0.03624	  0.39598	 -0.03514	  0.63205	709.95001	 20.90	
 18.698	-37.048	  0.52832	  0.49110	 -0.02005	  0.01458	  0.42999	 -0.04213	  0.64288	710.02002	 20.90	
 18.699	-42.375	  0.52211	  0.46179	 -0.00359	 -0.00286	  0.45207	 -0.03952	  0.63577	709.96997	 20.90	
 18.705	-47.657	  0.52401	  0.43704	  0.01108	 -0.02089	  0.47836	 -0.04283	  0.63827	710.12000	 20.90	
 18.713	-52.933	  0.51988	  0.40794	  0.03014	 -0.03494	  0.49879	 -0.04431	  0.63654	709.97998	 20.90	
 18.700	-58.206	  0.52123	  0.37928	  0.04966	 -0.04853	  0.51915	 -0.04326	  0.63739	710.06000	 20.90	
 18.698	-63.496	  0.52472	  0.35153	  0.07232	 -0.05873	  0.53993	 -0.04527	  0.64362	709.96997	 20.90	
 18.707	-68.835	  0.51818	  0.31642	  0.09758	 -0.06610	  0.54727	 -0.04603	  0.63542	710.03003	 20.90	
 18.690	-74.137	  0.51972	  0.28643	  0.12467	 -0.07164	  0.55950	 -0.04644	  0.63839	709.95001	 20.90	
 18.696	-79.417	  0.51717	  0.25287	  0.15259	 -0.07549	  0.56347	 -0.04988	  0.63591	709.98999	 20.90	
 18.700	-84.691	  0.51566	  0.22265	  0.18154	 -0.07712	  0.56708	 -0.04967	  0.63583	710.06000	 20.90	
 18.700	-90.000	  0.51112	  0.19052	  0.20891	 -0.07711	  0.56353	 -0.04617	  0.63120	710.03998	 20.90	
 18.700	-95.309	  0.51412	  0.16186	  0.24239	 -0.07737	  0.56420	 -0.04871	  0.63521	710.08002	 20.90	
 18.696	-100.583	  0.51523	  0.13376	  0.27443	 -0.07456	  0.55842	 -0.04728	  0.63651	709.96997	 20.90	
 18.690	-105.863	  0.51665	  0.10876	  0.30809	 -0.06810	  0.55095	 -0.04672	  0.64030	709.98999	 20.90	
 18.707	-111.165	  0.51150	  0.08207	  0.33425	 -0.06173	  0.53577	 -0.04899	  0.63278	709.94000	 20.90	
 18.698	-116.504	  0.51328	  0.06066	  0.36539	 -0.05156	  0.52135	 -0.04694	  0.63523	709.97998	 20.90	
 18.700	-121.794	  0.51813	  0.03995	  0.39945	 -0.04144	  0.50776	 -0.04648	  0.64128	710.00000	 20.90	
 18.713	-127.067	  0.51774	  0.02043	  0.42741	 -0.02747	  0.48608	 -0.04615	  0.63956	709.96997	 20.90	
 18.705	-132.343	  0.51626	  0.00468	  0.45155	 -0.01073	  0.46061	 -0.04752	  0.63608	710.10999	 20.90	
 18.699	-137.625	  0.51563	 -0.01069	  0.47674	  0.00724	  0.43321	 -0.04575	  0.63360	709.96997	 20.90	
 18.698	-142.952	  0.52100	 -0.02558	  0.50442	  0.02615	  0.40980	 -0.04738	  0.64018	709.98999	 20.90	
 18.704	-148.255	  0.52336	 -0.03525	  0.52534	  0.04809	  0.38250	 -0.04526	  0.64010	710.03998	 20.90	
 18.695	-153.537	  0.51913	 -0.04376	  0.53850	  0.07236	  0.35023	 -0.03937	  0.63403	709.96002	 20.90	
 18.706	-158.818	  0.52510	 -0.04994	  0.55614	  0.09783	  0.32264	 -0.03551	  0.63711	710.00000	 20.90	
 18.691	-164.085	  0.52865	 -0.05690	  0.57061	  0.12474	  0.29425	 -0.03600	  0.64210	709.87000	 20.90	
 18.703	-169.441	  0.52769	 -0.06052	  0.57659	  0.15342	  0.25991	 -0.03660	  0.63984	709.97998	 20.90	
 18.709	-174.675	  0.53232	 -0.06212	  0.58453	  0.18489	  0.23132	 -0.03737	  0.64300	709.95001	 20.90	
 18.700	180.000	  0.53401	 -0.05996	  0.58562	  0.21762	  0.20227	 -0.03866	  0.64180	709.94000	 20.90	
 20.400	180.000	  0.51277	 -0.09604	  0.60180	  0.20043	  0.18327	 -0.04216	  0.64401	709.95001	 20.90	
 20.401	-175.153	  0.51000	 -0.09623	  0.59881	  0.16977	  0.21227	 -0.04557	  0.64194	709.91998	 20.90	
 20.407	-170.264	  0.50209	 -0.09433	  0.58758	  0.13715	  0.23988	 -0.04429	  0.63613	709.96002	 20.90	
 20.410	-165.423	  0.50164	 -0.09082	  0.58112	  0.10783	  0.27241	 -0.04719	  0.63668	709.90002	 20.90	
 20.392	-160.496	  0.50006	 -0.08531	  0.56993	  0.08163	  0.30195	 -0.05061	  0.63478	710.03003	 20.90	
 20.401	-155.705	  0.50078	 -0.08066	  0.55993	  0.05746	  0.33104	 -0.04840	  0.63967	710.02002	 20.90	
 20.405	-150.835	  0.49830	 -0.07395	  0.54216	  0.03051	  0.36222	 -0.05455	  0.63768	709.98999	 20.90	
 20.397	-145.903	  0.49690	 -0.06340	  0.52243	  0.00935	  0.39064	 -0.05403	  0.63724	709.88000	 20.90	
 20.392	-141.062	  0.50032	 -0.05086	  0.50463	 -0.01043	  0.42178	 -0.05553	  0.64167	709.90997	 20.90	
 20.396	-136.227	  0.49733	 -0.03989	  0.47964	 -0.03111	  0.44839	 -0.05330	  0.64123	709.89001	 20.90	
 20.408	-131.372	  0.49345	 -0.02453	  0.45148	 -0.04748	  0.47102	 -0.05484	  0.63836	709.91998	 20.90	
 20.410	-126.511	  0.49182	 -0.00598	  0.42235	 -0.06060	  0.49279	 -0.05279	  0.63536	709.87000	 20.90	
 20.400	-121.604	  0.49455	  0.01230	  0.39521	 -0.07469	  0.51590	 -0.05328	  0.63933	709.84998	 20.90	
 20.403	-116.741	  0.49484	  0.03262	  0.36590	 -0.08492	  0.53503	 -0.05533	  0.64057	709.89001	 20.90	
 20.413	-111.900	  0.48992	  0.05490	  0.33092	 -0.09336	  0.54595	 -0.05159	  0.63359	709.90002	 20.90	
 20.398	-107.004	  0.48968	  0.08060	  0.29974	 -0.10034	  0.55893	 -0.05217	  0.63436	709.94000	 20.90	
 20.394	-102.132	  0.48744	  0.10604	  0.26731	 -0.10436	  0.56576	 -0.05167	  0.63228	709.98999	 20.90	
 20.403	-97.332	  0.49344	  0.13284	  0.23942	 -0.10995	  0.57823	 -0.05019	  0.63811	709.96997	 20.90	
 20.392	-92.440	  0.49442	  0.16116	  0.20848	 -0.11355	  0.58351	 -0.05162	  0.63990	710.03003	 20.90	
 20.392	-87.560	  0.49223	  0.18990	  0.17668	 -0.11275	  0.58181	 -0.05161	  0.63619	709.97998	 20.90	
 20.403	-82.668	  0.49335	  0.22048	  0.14695	 -0.11326	  0.58234	 -0.05174	  0.63952	710.01001	 20.90	
 20.394	-77.868	  0.49657	  0.25234	  0.12017	 -0.11149	  0.58104	 -0.05448	  0.64212	710.01001	 20.90	
 20.398	-72.996	  0.50116	  0.28582	  0.09461	 -0.10685	  0.57726	 -0.05318	  0.64588	709.98999	 20.90	
 20.413	-68.100	  0.49448	  0.31365	  0.06903	 -0.09830	  0.55844	 -0.05427	  0.63630	710.04999	 20.90	
 20.403	-63.259	  0.49493	  0.34409	  0.04466	 -0.09052	  0.54399	 -0.05165	  0.63626	710.00000	 20.90	
 20.400	-58.396	  0.49802	  0.37674	  0.02260	 -0.08164	  0.53081	 -0.05331	  0.63972	710.01001	 20.90	
 20.410	-53.489	  0.49818	  0.40560	  0.00242	 -0.06956	  0.50977	 -0.05119	  0.63776	709.98999	 20.90	
 20.408	-48.628	  0.50022	  0.43404	 -0.01496	 -0.05524	  0.48856	 -0.05059	  0.63734	710.06000	 20.90	
 20.396	-43.773	  0.50248	  0.46227	 -0.03089	 -0.03936	  0.46547	 -0.05120	  0.63860	710.03998	 20.90	
 20.392	-38.938	  0.50306	  0.48593	 -0.04638	 -0.02308	  0.43907	 -0.04311	  0.63904	710.03998	 20.90	
 20.397	-34.097	  0.50204	  0.50736	 -0.05858	 -0.00351	  0.41099	 -0.04466	  0.63522	710.06000	 20.90	
 20.405	-29.165	  0.50019	  0.52584	 -0.06809	  0.01826	  0.37891	 -0.04242	  0.63208	710.02002	 20.90	
 20.401	-24.295	  0.50776	  0.54988	 -0.07941	  0.03965	  0.35534	 -0.04441	  0.63964	710.04999	 20.90	
 20.392	-19.504	  0.50565	  0.56190	 -0.08462	  0.06568	  0.32300	 -0.03918	  0.63585	710.00000	 20.90	
 20.410	-14.577	  0.51079	  0.57824	 -0.09089	  0.09314	  0.29403	 -0.03728	  0.64157	709.91998	 20.90	
 20.407	 -9.736	  0.51178	  0.58677	 -0.09439	  0.12002	  0.26393	 -0.03471	  0.63816	709.96997	 20.90	
 20.401	 -4.847	  0.51127	  0.59088	 -0.09578	  0.14955	  0.23093	 -0.02948	  0.63764	710.04999	 20.90	
 20.400	  0.000	  0.51358	  0.59570	 -0.09590	  0.18010	  0.20371	 -0.02903	  0.63843	710.13000	 20.90	
 20.401	  4.847	  0.51649	  0.59745	 -0.09494	  0.21282	  0.17389	 -0.02693	  0.64019	709.97998	 20.90	
 20.407	  9.736	  0.51178	  0.58823	 -0.08938	  0.24235	  0.14431	 -0.02830	  0.63223	709.91998	 20.90	
 20.410	 14.577	  0.51702	  0.58802	 -0.08687	  0.27665	  0.11769	 -0.02771	  0.63770	709.98999	 20.90	
 20.392	 19.504	  0.51826	  0.57926	 -0.08051	  0.30967	  0.09231	 -0.02571	  0.63720	710.01001	 20.90	
 20.401	 24.295	  0.51932	  0.56802	 -0.07188	  0.34299	  0.06982	 -0.02230	  0.63739	710.01001	 20.90	
 20.405	 29.165	  0.52225	  0.55358	 -0.06178	  0.37555	  0.04768	 -0.02037	  0.63778	709.96997	 20.90	
 20.397	 34.097	  0.52337	  0.53555	 -0.04848	  0.40723	  0.02581	 -0.01982	  0.63776	709.88000	 20.90	
 20.392	 38.938	  0.52203	  0.51412	 -0.03651	  0.43548	  0.00767	 -0.01890	  0.63622	709.89001	 20.90	
 20.396	 43.773	  0.52753	  0.49593	 -0.02192	  0.46610	 -0.00836	 -0.01743	  0.64092	709.91998	 20.90	
 20.408	 48.628	  0.52780	  0.47193	 -0.00537	  0.49359	 -0.02426	 -0.01474	  0.64101	709.88000	 20.90	
 20.410	 53.489	  0.52607	  0.44409	  0.01122	  0.51516	 -0.03893	 -0.01342	  0.63854	709.95001	 20.90	
 20.400	 58.396	  0.53115	  0.41875	  0.03172	  0.54301	 -0.05276	 -0.01310	  0.64412	709.85999	 20.90	
 20.403	 63.259	  0.52338	  0.38370	  0.05423	  0.55288	 -0.05834	 -0.01076	  0.63277	709.96002	 20.90	
 20.413	 68.100	  0.53257	  0.35798	  0.07932	  0.57802	 -0.06834	 -0.00947	  0.64186	709.96002	 20.90	
 20.398	 72.996	  0.52979	  0.32579	  0.10216	  0.58760	 -0.07562	 -0.00939	  0.63867	709.92999	 20.90	
 20.394	 77.868	  0.52739	  0.29435	  0.12972	  0.59407	 -0.07686	 -0.01079	  0.63540	710.00000	 20.90	
 20.403	 82.668	  0.52742	  0.26294	  0.15754	  0.60160	 -0.08200	 -0.01219	  0.63596	709.90997	 20.90	
 20.392	 87.560	  0.53123	  0.23127	  0.18765	  0.60899	 -0.08614	 -0.01396	  0.63910	709.90997	 20.90	
 20.392	 92.440	  0.52957	  0.20305	  0.21554	  0.60782	 -0.08417	 -0.01237	  0.63894	709.84003	 20.90	
 20.403	 97.332	  0.52680	  0.17111	  0.24558	  0.60299	 -0.08368	 -0.01199	  0.63519	709.75000	 20.90	
 20.394	102.132	  0.52638	  0.14428	  0.27686	  0.59722	 -0.07974	 -0.01237	  0.63561	709.78998	 20.90	
 20.398	107.004	  0.52773	  0.11782	  0.30793	  0.59023	 -0.07585	 -0.01292	  0.63651	709.94000	 20.90	
 20.413	111.900	  0.52945	  0.09106	  0.34053	  0.58293	 -0.07292	 -0.01658	  0.64034	709.92999	 20.90	
 20.403	116.741	  0.52918	  0.06641	  0.37197	  0.56832	 -0.06597	 -0.01719	  0.64180	709.82001	 20.90	
 20.400	121.604	  0.52295	  0.04507	  0.39763	  0.54473	 -0.05550	 -0.02187	  0.63399	709.91998	 20.90	
 20.410	126.511	  0.52131	  0.02250	  0.42594	  0.52428	 -0.04601	 -0.02216	  0.63513	709.81000	 20.90	
 20.408	131.372	  0.52410	  0.00429	  0.45596	  0.50477	 -0.03401	 -0.02387	  0.63721	709.84998	 20.90	
 20.396	136.227	  0.52628	 -0.01365	  0.48447	  0.48233	 -0.01948	 -0.02523	  0.64247	709.95001	 20.90	
 20.392	141.062	  0.51869	 -0.02911	  0.50257	  0.45029	 -0.00439	 -0.02987	  0.63440	709.81000	 20.90	
 20.397	145.903	  0.51682	 -0.04203	  0.52404	  0.42064	  0.01493	 -0.03082	  0.63636	709.79999	 20.90	
 20.405	150.835	  0.51847	 -0.05537	  0.54482	  0.39207	  0.03344	 -0.03045	  0.63851	709.89001	 20.90	
 20.401	155.705	  0.51376	 -0.06595	  0.55802	  0.35875	  0.05425	 -0.03340	  0.63394	709.94000	 20.90	
 20.392	160.496	  0.51405	 -0.07355	  0.57211	  0.32835	  0.07740	 -0.03411	  0.63594	709.85999	 20.90	
 20.410	165.423	  0.51227	 -0.08075	  0.58239	  0.29376	  0.10200	 -0.03542	  0.63685	709.82001	 20.90	
 20.407	170.264	  0.51233	 -0.08785	  0.59229	  0.26261	  0.12781	 -0.03796	  0.63864	709.82001	 20.90	
 20.401	175.153	  0.51185	 -0.09284	  0.59904	  0.22989	  0.15591	 -0.04248	  0.64046	709.98999	 20.90	
  0.141	 45.000	  0.63792	  0.30510	  0.29924	  0.29706	  0.29866	  0.04850	  0.63851	709.79999	 20.90	
  4.001	128.691	  0.63404	  0.25631	  0.34174	  0.35459	  0.23797	  0.04882	  0.63511	709.79999	 21.00	
  4.002	 76.995	  0.63964	  0.31780	  0.28093	  0.37081	  0.22880	  0.05059	  0.63962	709.85999	 20.90	
  4.002	 25.892	  0.63864	  0.36762	  0.23624	  0.32537	  0.26578	  0.04921	  0.63931	709.78998	 20.90	
  4.002	-25.892	  0.63359	  0.36274	  0.23539	  0.25854	  0.32715	  0.04219	  0.63786	709.92999	 21.00	
  4.002	-76.995	  0.63748	  0.31153	  0.28269	  0.22478	  0.36941	  0.03709	  0.64287	709.83002	 20.90	
  4.001	-128.691	  0.63402	  0.25353	  0.34375	  0.23716	  0.35117	  0.03500	  0.63806	709.84003	 20.90	
  4.000	180.000	  0.63803	  0.23060	  0.37493	  0.29505	  0.29213	  0.04055	  0.64136	709.90002	 21.00	
  8.000	180.000	  0.61994	  0.14840	  0.44146	  0.28197	  0.27548	  0.02217	  0.63532	709.78003	 20.90	
  7.991	-152.370	  0.61530	  0.15954	  0.42060	  0.21236	  0.34339	  0.01759	  0.63305	709.87000	 21.00	
  7.997	-124.550	  0.61900	  0.20046	  0.37219	  0.16431	  0.40387	  0.01493	  0.63932	709.78003	 21.00	
  8.006	-96.837	  0.61443	  0.25765	  0.30014	  0.13992	  0.43092	  0.01279	  0.63508	709.83002	 20.90	
  7.988	-69.228	  0.61535	  0.32752	  0.23078	  0.14529	  0.42320	  0.01591	  0.63395	709.90997	 21.00	
  7.997	-41.563	  0.61857	  0.39251	  0.17808	  0.17905	  0.38206	  0.02015	  0.63516	709.72998	 21.00	
  8.008	-13.821	  0.62018	  0.43265	  0.15015	  0.23831	  0.31759	  0.03047	  0.63599	709.71997	 21.00	
  8.008	 13.821	  0.62382	  0.43769	  0.15131	  0.31261	  0.24999	  0.03706	  0.63427	709.78003	 21.00	
  7.997	 41.563	  0.62822	  0.40657	  0.18146	  0.38512	  0.19198	  0.04376	  0.63834	709.83002	 20.90	
  7.988	 69.228	  0.62732	  0.34430	  0.23368	  0.43253	  0.15615	  0.04656	  0.63559	709.81000	 21.00	
  8.006	 96.837	  0.62538	  0.27390	  0.29991	  0.44305	  0.14732	  0.04302	  0.63357	709.83002	 21.00	
  7.997	124.550	  0.63085	  0.21163	  0.37370	  0.41966	  0.16795	  0.03835	  0.64068	709.79999	 21.00	
  7.991	152.370	  0.62468	  0.16599	  0.42398	  0.35702	  0.21053	  0.03366	  0.63688	709.75000	 21.00	
 12.009	161.059	  0.59828	  0.07979	  0.48871	  0.33972	  0.18515	  0.01185	  0.63625	709.82001	 21.00	
 12.013	142.081	  0.60358	  0.11129	  0.45193	  0.41364	  0.13117	  0.01497	  0.63698	709.79999	 21.00	
 12.006	123.113	  0.60865	  0.16058	  0.39399	  0.47075	  0.09351	  0.02192	  0.64015	709.78003	 21.00	
 12.007	104.200	  0.60541	  0.22072	  0.31924	  0.49999	  0.07301	  0.02824	  0.63405	709.81000	 21.00	
 11.989	 85.301	  0.61020	  0.29369	  0.24794	  0.50885	  0.07007	  0.03121	  0.63914	709.87000	 21.00	
 12.013	 66.294	  0.60628	  0.36586	  0.17916	  0.48240	  0.08515	  0.03235	  0.63474	709.82001	 21.00	
 12.012	 47.388	  0.60546	  0.43020	  0.12527	  0.43575	  0.11723	  0.02894	  0.63573	709.79999	 21.00	
 11.990	 28.440	  0.60765	  0.48038	  0.08877	  0.36855	  0.16851	  0.02576	  0.63943	709.79999	 21.00	
 11.991	  9.464	  0.60264	  0.50140	  0.06878	  0.29127	  0.23038	  0.01814	  0.63774	709.84003	 21.00	
 11.991	 -9.464	  0.59982	  0.49710	  0.06823	  0.21629	  0.30165	  0.01228	  0.63801	709.84003	 20.90	
 11.990	-28.440	  0.59257	  0.46102	  0.08587	  0.14882	  0.37018	  0.00495	  0.63318	709.87000	 21.00	
 12.012	-47.388	  0.59477	  0.41122	  0.12353	  0.09942	  0.43492	 -0.00346	  0.63972	709.89001	 21.00	
 12.013	-66.294	  0.59140	  0.34152	  0.17677	  0.06694	  0.47609	 -0.00673	  0.63704	709.84003	 21.00	
 11.989	-85.301	  0.58607	  0.26594	  0.24329	  0.05429	  0.49105	 -0.01068	  0.63405	709.77002	 21.00	
 12.007	-104.200	  0.58768	  0.19705	  0.31851	  0.06054	  0.48358	 -0.01011	  0.63506	709.81000	 21.00	
 12.006	-123.113	  0.59131	  0.14056	  0.39073	  0.08653	  0.45033	 -0.00928	  0.63875	709.79999	 21.00	
 12.013	-142.081	  0.58993	  0.09569	  0.45082	  0.12914	  0.39211	 -0.00539	  0.63750	709.82001	 20.90	
 12.009	-161.059	  0.59559	  0.07066	  0.49417	  0.18988	  0.32545	 -0.00026	  0.64084	709.78998	 20.90	
 16.000	180.000	  0.56046	 -0.01191	  0.55592	  0.23579	  0.22370	 -0.01608	  0.63847	709.81000	 20.90	
 15.990	-165.604	  0.55930	 -0.00803	  0.54711	  0.16459	  0.29539	 -0.02346	  0.64114	709.84998	 20.90	
 16.002	-151.165	  0.55479	  0.00781	  0.51356	  0.10130	  0.36528	 -0.02752	  0.64006	709.84003	 20.90	
 16.002	-136.836	  0.55329	  0.03708	  0.46481	  0.04932	  0.43252	 -0.03436	  0.63958	709.78998	 21.00	
 15.995	-122.439	  0.54663	  0.07985	  0.39793	  0.01089	  0.48204	 -0.03329	  0.63377	709.78003	 21.00	
 15.993	-107.966	  0.55118	  0.13451	  0.32869	 -0.01510	  0.52432	 -0.03679	  0.63961	709.89001	 21.00	
 16.005	-93.629	  0.54583	  0.19844	  0.25007	 -0.02732	  0.53903	 -0.03675	  0.63375	709.87000	 20.90	
 15.992	-79.234	  0.55288	  0.27309	  0.18219	 -0.02380	  0.53928	 -0.03485	  0.63753	709.90002	 20.90	
 16.009	-64.774	  0.55702	  0.34904	  0.11967	 -0.00846	  0.51958	 -0.03403	  0.64167	709.95001	 20.90	
 15.997	-50.364	  0.55150	  0.41491	  0.06523	  0.02118	  0.47141	 -0.02827	  0.63308	709.91998	 21.00	
 15.997	-36.045	  0.55633	  0.47558	  0.02514	  0.06128	  0.41445	 -0.02503	  0.63508	709.82001	 20.90	
 16.000	-21.597	  0.55957	  0.52016	  0.00202	  0.11912	  0.34752	 -0.01427	  0.63516	709.81000	 21.00	
 16.003	 -7.169	  0.56709	  0.54991	 -0.01013	  0.18727	  0.27694	 -0.00857	  0.64047	709.90002	 20.90	
 16.003	  7.169	  0.56644	  0.55179	 -0.01130	  0.26294	  0.19902	 -0.00719	  0.63829	709.89001	 20.90	
 16.000	 21.597	  0.56593	  0.53281	  0.00367	  0.33909	  0.13534	 -0.00205	  0.63454	709.78998	 20.90	
 15.997	 36.045	  0.57374	  0.50091	  0.03020	  0.41550	  0.08279	  0.00259	  0.63886	709.84003	 20.90	
 15.997	 50.364	  0.57564	  0.44649	  0.07081	  0.47994	  0.04142	  0.00774	  0.63948	709.95001	 20.90	
 16.009	 64.774	  0.57779	  0.37842	  0.12223	  0.52937	  0.01242	  0.01040	  0.64118	709.83002	 20.90	
 15.992	 79.234	  0.58167	  0.30947	  0.18916	  0.56047	 -0.00005	  0.00955	  0.64355	709.94000	 20.90	
 16.005	 93.629	  0.57421	  0.23271	  0.25605	  0.55940	 -0.00315	  0.00706	  0.63444	709.84998	 20.90	
 15.993	107.966	  0.57539	  0.16594	  0.33011	  0.54751	  0.00326	  0.00907	  0.63856	709.84998	 20.90	
 15.995	122.439	  0.57372	  0.10615	  0.40137	  0.51215	  0.02276	  0.00168	  0.63821	709.78003	 20.90	
 16.002	136.836	  0.56858	  0.05912	  0.46195	  0.45557	  0.05535	 -0.00202	  0.63581	709.85999	 20.90	
 16.002	151.165	  0.56502	  0.02370	  0.51047	  0.38826	  0.10101	 -0.00913	  0.63406	709.87000	 20.90	
 15.990	165.604	  0.56569	  0.00174	  0.54391	  0.31427	  0.15825	 -0.01357	  0.63815	709.88000	 20.90	
 20.003	168.362	  0.52322	 -0.07916	  0.59235	  0.28159	  0.12243	 -0.03932	  0.64636	709.83002	 20.90	
 20.008	156.764	  0.52031	 -0.06147	  0.55955	  0.35421	  0.06377	 -0.02875	  0.63705	709.85999	 20.90	
 20.000	145.147	  0.52601	 -0.03257	  0.52086	  0.42810	  0.01732	 -0.02775	  0.63957	709.91998	 20.90	
 19.995	133.545	  0.52724	  0.00287	  0.46496	  0.49238	 -0.02144	 -0.02199	  0.63810	709.94000	 20.90	
 20.009	121.926	  0.52903	  0.05103	  0.39957	  0.54258	 -0.04811	 -0.02043	  0.63620	709.90002	 20.90	
 20.005	110.327	  0.53039	  0.10579	  0.32830	  0.57868	 -0.06684	 -0.01318	  0.63554	709.82001	 20.90	
 19.989	 98.733	  0.53438	  0.16969	  0.25791	  0.60173	 -0.07633	 -0.01036	  0.63867	709.84003	 20.90	
 19.999	 87.075	  0.53864	  0.24025	  0.18810	  0.60852	 -0.07985	 -0.01482	  0.64405	709.88000	 20.90	
 19.992	 75.457	  0.53440	  0.31187	  0.12208	  0.58857	 -0.07039	 -0.00919	  0.63973	709.95001	 20.90	
 20.009	 63.844	  0.53050	  0.38200	  0.06380	  0.55477	 -0.05387	 -0.00934	  0.63554	709.83002	 20.90	
 19.989	 52.269	  0.52902	  0.44813	  0.01520	  0.50718	 -0.02798	 -0.01563	  0.63718	709.90997	 20.90	
 19.999	 40.602	  0.52844	  0.50654	 -0.02662	  0.44660	  0.00634	 -0.01560	  0.63905	709.77002	 20.90	
 20.004	 29.051	  0.52666	  0.55121	 -0.05496	  0.37528	  0.05295	 -0.01766	  0.63840	709.83002	 20.90	
 20.005	 17.433	  0.52294	  0.57984	 -0.07557	  0.29912	  0.10768	 -0.01919	  0.63801	709.91998	 20.90	
 20.006	  5.780	  0.51761	  0.58799	 -0.08411	  0.22138	  0.17072	 -0.02511	  0.63220	709.85999	 20.90	
 20.006	 -5.780	  0.51326	  0.58284	 -0.08546	  0.14890	  0.23869	 -0.02924	  0.63300	709.84003	 20.90	
 20.005	-17.433	  0.51873	  0.57055	 -0.08016	  0.08288	  0.31504	 -0.03834	  0.64382	709.84998	 20.90	
 20.004	-29.051	  0.51141	  0.52975	 -0.06187	  0.02395	  0.38436	 -0.04268	  0.63891	709.81000	 20.90	
 19.999	-40.602	  0.50456	  0.47483	 -0.03226	 -0.02074	  0.44642	 -0.04670	  0.63475	709.84003	 20.90	
 19.989	-52.269	  0.50497	  0.41431	  0.00749	 -0.05550	  0.50376	 -0.04490	  0.63685	709.82001	 20.90	
 20.009	-63.844	  0.49750	  0.34133	  0.05494	 -0.08161	  0.54034	 -0.04919	  0.63170	709.91998	 20.90	
 19.992	-75.457	  0.49970	  0.26980	  0.11386	 -0.09688	  0.56951	 -0.05062	  0.63557	709.97998	 20.90	
 19.999	-87.075	  0.50331	  0.19958	  0.18206	 -0.10395	  0.58371	 -0.05467	  0.64035	709.94000	 20.90	
 19.989	-98.733	  0.50017	  0.13141	  0.25364	 -0.09949	  0.57551	 -0.04767	  0.63831	709.85999	 20.90	
 20.005	-110.327	  0.50036	  0.07137	  0.32747	 -0.08669	  0.55283	 -0.04852	  0.63916	709.97998	 20.90	
 20.009	-121.926	  0.50126	  0.01931	  0.40037	 -0.06425	  0.51414	 -0.04758	  0.64022	709.84998	 20.90	
 19.995	-133.545	  0.50202	 -0.02194	  0.46490	 -0.03136	  0.46145	 -0.04982	  0.63897	709.98999	 20.90	
 20.000	-145.147	  0.50605	 -0.05306	  0.52083	  0.01304	  0.39930	 -0.04582	  0.64002	709.91998	 20.90	
 20.008	-156.764	  0.50284	 -0.07319	  0.55609	  0.06641	  0.32695	 -0.04266	  0.63500	709.82001	 20.90	
 20.003	-168.362	  0.51062	 -0.08527	  0.58672	  0.13014	  0.25758	 -0.04043	  0.63930	709.87000	 20.90	
 20.000	180.000	  0.51039	 -0.08466	  0.58912	  0.20055	  0.18668	 -0.03661	  0.63453	709.85999	 20.90	
