FileType=PCF
NHL=14
Date=03/18/19	15:24:52
Facility=APL
Serial=16071-6
Customer=NASA
NP=6
Mach=0.080000
Calibration=1:1
CalPts=490
TstPts=95
PortNumbering=AP Standard
Units=Torr C m/s kg/m^3 deg mm 
Theta[deg]	Phi[deg]	P1[Torr]	P2[Torr]	P3[Torr]	P4[Torr]	P5[Torr]	P6[Torr]	Pt[Torr]	Ps[Abs,Torr]	Ts[C]	
  0.000	  0.000	  3.14934	  1.42653	  1.41683	  1.37338	  1.40754	  0.07484	  3.15061	709.90002	 21.10	
  1.691	128.401	  3.14905	  1.32486	  1.48581	  1.47125	  1.27934	  0.06788	  3.14905	710.03003	 21.10	
  1.692	 77.194	  3.14817	  1.44353	  1.37093	  1.49112	  1.26867	  0.07370	  3.14795	709.97998	 21.10	
  1.699	 26.182	  3.14943	  1.54567	  1.28042	  1.40572	  1.34887	  0.07503	  3.14837	710.04999	 21.10	
  1.699	-26.182	  3.14879	  1.53472	  1.28874	  1.30126	  1.45920	  0.07257	  3.14993	710.03998	 21.10	
  1.692	-77.194	  3.14647	  1.44276	  1.36404	  1.22749	  1.52525	  0.06548	  3.14801	709.97998	 21.10	
  1.691	-128.401	  3.14464	  1.32468	  1.48495	  1.24705	  1.50058	  0.06191	  3.14613	709.91998	 21.10	
  1.700	180.000	  3.14799	  1.27359	  1.54877	  1.35327	  1.38786	  0.06194	  3.14984	709.95001	 21.10	
  3.400	180.000	  3.14081	  1.09570	  1.71232	  1.34081	  1.36035	  0.04841	  3.14922	709.96997	 21.10	
  3.388	-152.325	  3.14078	  1.12656	  1.67474	  1.19641	  1.50907	  0.04482	  3.15086	709.94000	 21.10	
  3.397	-124.529	  3.13873	  1.21235	  1.56767	  1.08906	  1.63248	  0.04397	  3.14937	709.91998	 21.10	
  3.399	-96.763	  3.13905	  1.33907	  1.42490	  1.04462	  1.69081	  0.04536	  3.15027	709.94000	 21.10	
  3.394	-69.283	  3.14040	  1.48479	  1.28263	  1.06352	  1.67421	  0.05270	  3.14861	709.96997	 21.10	
  3.400	-41.398	  3.14296	  1.61512	  1.17032	  1.13774	  1.58740	  0.05865	  3.15004	710.00000	 21.10	
  3.401	-14.021	  3.14485	  1.69563	  1.10803	  1.26040	  1.45489	  0.06540	  3.14913	709.97998	 21.10	
  3.401	 14.021	  3.14761	  1.70156	  1.10474	  1.40661	  1.31018	  0.07021	  3.14945	709.97998	 21.10	
  3.400	 41.398	  3.14948	  1.63333	  1.16464	  1.54775	  1.18678	  0.07143	  3.15133	710.03003	 21.20	
  3.394	 69.283	  3.15120	  1.50596	  1.27565	  1.64434	  1.10745	  0.06865	  3.15207	709.95001	 21.10	
  3.399	 96.763	  3.15142	  1.36043	  1.41798	  1.67142	  1.08413	  0.06535	  3.15488	709.91998	 21.20	
  3.397	124.529	  3.14600	  1.22979	  1.55883	  1.61583	  1.12237	  0.06104	  3.15026	709.97998	 21.20	
  3.388	152.325	  3.14400	  1.13422	  1.66837	  1.49481	  1.21923	  0.05318	  3.15049	710.02002	 21.20	
  5.099	161.165	  3.12940	  0.94278	  1.84315	  1.48620	  1.18181	  0.03365	  3.15327	710.03003	 21.20	
  5.109	142.013	  3.13249	  1.01557	  1.75742	  1.64001	  1.05185	  0.04086	  3.15107	709.94000	 21.20	
  5.095	123.033	  3.13439	  1.12846	  1.62858	  1.75275	  0.96533	  0.04645	  3.15032	709.92999	 21.20	
  5.105	104.191	  3.13789	  1.26259	  1.47807	  1.82105	  0.91427	  0.05361	  3.15143	710.01001	 21.20	
  5.093	 85.207	  3.13547	  1.41610	  1.31964	  1.82822	  0.91088	  0.05757	  3.14789	709.96997	 21.20	
  5.104	 66.290	  3.13647	  1.56952	  1.17217	  1.78135	  0.94668	  0.06012	  3.14780	709.98999	 21.20	
  5.094	 47.331	  3.13630	  1.70888	  1.04901	  1.68287	  1.02232	  0.06199	  3.14765	709.88000	 21.20	
  5.089	 28.397	  3.13746	  1.80912	  0.96814	  1.54308	  1.14413	  0.06337	  3.14882	709.84003	 21.20	
  5.096	  9.576	  3.13649	  1.86000	  0.92555	  1.38707	  1.28400	  0.05914	  3.14844	709.98999	 21.20	
  5.096	 -9.576	  3.13844	  1.85561	  0.92999	  1.22920	  1.44436	  0.05466	  3.15161	710.00000	 21.20	
  5.089	-28.397	  3.13385	  1.79153	  0.97543	  1.08717	  1.59315	  0.04792	  3.15124	710.02002	 21.20	
  5.094	-47.331	  3.12821	  1.68143	  1.06152	  0.97151	  1.72466	  0.03956	  3.14837	709.91998	 21.20	
  5.104	-66.290	  3.12525	  1.54046	  1.18498	  0.89699	  1.81591	  0.03325	  3.14791	709.96002	 21.20	
  5.093	-85.207	  3.12458	  1.38353	  1.33511	  0.86340	  1.85725	  0.02712	  3.15102	709.92999	 21.20	
  5.105	-104.191	  3.12087	  1.23213	  1.49078	  0.87507	  1.83669	  0.02420	  3.14934	709.96997	 21.20	
  5.095	-123.033	  3.12185	  1.09891	  1.64149	  0.93195	  1.75944	  0.02126	  3.15004	710.08002	 21.20	
  5.109	-142.013	  3.12055	  0.99802	  1.76560	  1.02966	  1.64270	  0.02295	  3.14937	710.04999	 21.20	
  5.099	-161.165	  3.12535	  0.93726	  1.84845	  1.16835	  1.49322	  0.02619	  3.15194	709.89001	 21.20	
  5.100	180.000	  3.12655	  0.91837	  1.87342	  1.32096	  1.33617	  0.02819	  3.15214	709.90997	 21.20	
  6.800	180.000	  3.10366	  0.73478	  2.02840	  1.29776	  1.30140	  0.00490	  3.15751	709.90997	 21.20	
  6.796	-166.229	  3.09625	  0.74293	  2.01139	  1.13986	  1.45374	  0.00203	  3.15204	710.06000	 21.20	
  6.808	-152.311	  3.09305	  0.78580	  1.95168	  0.99227	  1.61431	 -0.00060	  3.15120	709.92999	 21.20	
  6.795	-138.383	  3.09141	  0.86472	  1.85200	  0.87306	  1.75421	 -0.00255	  3.14969	710.01001	 21.20	
  6.792	-124.591	  3.09379	  0.96802	  1.72661	  0.78328	  1.86737	 -0.00147	  3.15158	709.95001	 21.20	
  6.787	-110.754	  3.09337	  1.09300	  1.57845	  0.71879	  1.95125	 -0.00275	  3.14990	709.90002	 21.20	
  6.800	-96.985	  3.10044	  1.23911	  1.42482	  0.68709	  2.00298	 -0.00086	  3.15432	709.89001	 21.20	
  6.800	-83.015	  3.10094	  1.39186	  1.26754	  0.68387	  2.00662	  0.00235	  3.15205	710.00000	 21.20	
  6.787	-69.246	  3.10153	  1.54416	  1.12221	  0.71241	  1.97148	  0.00834	  3.15139	709.90002	 21.20	
  6.792	-55.409	  3.10252	  1.69413	  0.98864	  0.76919	  1.89617	  0.01420	  3.14995	709.96997	 21.20	
  6.795	-41.617	  3.10171	  1.82255	  0.87967	  0.86166	  1.78141	  0.02041	  3.14696	710.03003	 21.20	
  6.808	-27.689	  3.10997	  1.92870	  0.80124	  0.97876	  1.64962	  0.02676	  3.15233	710.01001	 21.20	
  6.796	-13.771	  3.11246	  1.99327	  0.75508	  1.11910	  1.49503	  0.03460	  3.15192	709.92999	 21.20	
  6.800	  0.000	  3.11139	  2.02010	  0.73563	  1.26931	  1.33872	  0.03829	  3.14995	709.82001	 21.20	
  6.796	 13.771	  3.11740	  2.00690	  0.74923	  1.43389	  1.18367	  0.04279	  3.15330	709.97998	 21.20	
  6.808	 27.689	  3.11458	  1.94832	  0.79310	  1.59178	  1.03982	  0.04730	  3.14976	709.94000	 21.20	
  6.795	 41.617	  3.11664	  1.85317	  0.86959	  1.73339	  0.92107	  0.04431	  3.14861	709.95001	 21.20	
  6.792	 55.409	  3.12041	  1.73272	  0.97531	  1.85367	  0.82961	  0.04385	  3.15107	709.98999	 21.20	
  6.787	 69.246	  3.11873	  1.58584	  1.10294	  1.93947	  0.76155	  0.04238	  3.15153	709.85999	 21.20	
  6.800	 83.015	  3.11880	  1.43261	  1.24675	  1.98843	  0.72429	  0.03756	  3.15212	709.92999	 21.20	
  6.800	 96.985	  3.11803	  1.27480	  1.40367	  1.99231	  0.71984	  0.03261	  3.15247	710.01001	 21.20	
  6.787	110.754	  3.11485	  1.12780	  1.56067	  1.95101	  0.74815	  0.02989	  3.15268	709.96997	 21.20	
  6.792	124.591	  3.10958	  0.99624	  1.70979	  1.87075	  0.80521	  0.02568	  3.15108	709.89001	 21.20	
  6.795	138.383	  3.10849	  0.88691	  1.83860	  1.75873	  0.89135	  0.01944	  3.15290	709.90002	 21.20	
  6.808	152.311	  3.10599	  0.80445	  1.94110	  1.62003	  1.00543	  0.01483	  3.15323	709.90002	 21.20	
  6.796	166.229	  3.10365	  0.75459	  2.00492	  1.46033	  1.14770	  0.01076	  3.15279	709.91998	 21.20	
  8.491	168.704	  3.06085	  0.56333	  2.15409	  1.42999	  1.09716	 -0.01611	  3.15121	709.94000	 21.20	
  8.502	157.493	  3.06462	  0.60855	  2.09873	  1.59403	  0.95395	 -0.01073	  3.15010	709.90997	 21.20	
  8.494	146.194	  3.06891	  0.67620	  2.01135	  1.74689	  0.82612	 -0.00802	  3.14966	709.90002	 21.20	
  8.495	135.039	  3.07110	  0.77045	  1.89461	  1.88317	  0.72047	 -0.00506	  3.14937	709.92999	 21.20	
  8.487	123.723	  3.07507	  0.88311	  1.75745	  1.99668	  0.63521	  0.00085	  3.14880	709.96997	 21.20	
  8.492	112.575	  3.08100	  1.01481	  1.60947	  2.08136	  0.57829	  0.00698	  3.15252	709.94000	 21.20	
  8.510	101.220	  3.08181	  1.16266	  1.44437	  2.13322	  0.53752	  0.00685	  3.15187	709.91998	 21.20	
  8.500	 90.000	  3.08566	  1.32140	  1.28397	  2.14615	  0.53366	  0.01010	  3.15190	709.85999	 21.20	
  8.510	 78.780	  3.08549	  1.47929	  1.13043	  2.12545	  0.54984	  0.01597	  3.15208	709.98999	 21.20	
  8.492	 67.425	  3.08715	  1.64215	  0.98429	  2.06685	  0.59480	  0.02116	  3.15245	709.97998	 21.20	
  8.487	 56.277	  3.08294	  1.78679	  0.85522	  1.97588	  0.65921	  0.02230	  3.14841	709.96002	 21.20	
  8.495	 44.961	  3.08576	  1.92054	  0.74762	  1.85721	  0.75296	  0.02290	  3.15093	709.90997	 21.20	
  8.494	 33.806	  3.08337	  2.02828	  0.65981	  1.71609	  0.86591	  0.02510	  3.14958	709.95001	 21.20	
  8.502	 22.507	  3.08435	  2.11063	  0.59578	  1.56333	  0.99600	  0.02553	  3.15481	709.91998	 21.20	
  8.491	 11.296	  3.07958	  2.15485	  0.55994	  1.39447	  1.14608	  0.02059	  3.15031	709.96002	 21.20	
  8.500	  0.000	  3.07868	  2.16836	  0.54779	  1.22898	  1.30578	  0.01465	  3.15138	710.01001	 21.20	
  8.491	-11.296	  3.07842	  2.14505	  0.56443	  1.07380	  1.46604	  0.01027	  3.15344	709.98999	 21.20	
  8.502	-22.507	  3.07422	  2.08687	  0.60358	  0.92495	  1.62610	  0.00351	  3.15234	709.96997	 21.20	
  8.494	-33.806	  3.06960	  1.99437	  0.66972	  0.79128	  1.77825	 -0.00540	  3.15134	710.03998	 21.20	
  8.495	-44.961	  3.06501	  1.87922	  0.76018	  0.68553	  1.90666	 -0.01118	  3.14900	709.95001	 21.20	
  8.487	-56.277	  3.06492	  1.74248	  0.87224	  0.59731	  2.01885	 -0.01315	  3.15237	709.84003	 21.20	
  8.492	-67.425	  3.06351	  1.59142	  1.00228	  0.53516	  2.09879	 -0.01944	  3.15412	709.97998	 21.20	
  8.510	-78.780	  3.05447	  1.42622	  1.15067	  0.49562	  2.14573	 -0.02595	  3.14791	709.85999	 21.20	
  8.500	-90.000	  3.05249	  1.26873	  1.30851	  0.48680	  2.15699	 -0.02966	  3.14891	709.90002	 21.20	
  8.510	-101.220	  3.05269	  1.11484	  1.47078	  0.50174	  2.13456	 -0.03190	  3.15161	709.96002	 21.20	
  8.492	-112.575	  3.05160	  0.96985	  1.63425	  0.54516	  2.07636	 -0.03179	  3.15208	710.03003	 21.20	
  8.487	-123.723	  3.05355	  0.84835	  1.78415	  0.61479	  1.98793	 -0.02979	  3.15293	709.92999	 21.20	
  8.495	-135.039	  3.05163	  0.73840	  1.91679	  0.70390	  1.86910	 -0.03049	  3.15113	709.95001	 21.20	
  8.494	-146.194	  3.05137	  0.65370	  2.02591	  0.81464	  1.73396	 -0.02710	  3.15021	709.96002	 21.20	
  8.502	-157.493	  3.05263	  0.59105	  2.11097	  0.94849	  1.58001	 -0.02410	  3.15048	709.98999	 21.20	
  8.491	-168.704	  3.05523	  0.55640	  2.16048	  1.10097	  1.41699	 -0.02274	  3.15060	709.94000	 21.20	
  8.500	180.000	  3.05910	  0.54575	  2.17562	  1.26055	  1.25630	 -0.02159	  3.15171	709.96002	 21.20	
 10.200	180.000	  3.00741	  0.36320	  2.31306	  1.21847	  1.20778	 -0.05069	  3.14985	710.01001	 21.20	
 10.191	-170.497	  3.00461	  0.37044	  2.30090	  1.05735	  1.36827	 -0.05421	  3.15221	709.96997	 21.20	
 10.210	-161.034	  3.00078	  0.39853	  2.25738	  0.90113	  1.53300	 -0.05240	  3.14927	709.94000	 21.20	
 10.194	-151.526	  2.99882	  0.44919	  2.18693	  0.75974	  1.69714	 -0.05347	  3.15132	709.88000	 21.20	
 10.190	-142.105	  2.99783	  0.51976	  2.08970	  0.63704	  1.84281	 -0.05615	  3.15035	709.94000	 21.20	
 10.215	-132.646	  2.99438	  0.60568	  1.97033	  0.52674	  1.97795	 -0.05907	  3.14818	709.90997	 21.20	
 10.203	-123.092	  2.99463	  0.71754	  1.82913	  0.43776	  2.09643	 -0.05863	  3.14890	709.89001	 21.30	
 10.192	-113.678	  2.99619	  0.84402	  1.67698	  0.37226	  2.18768	 -0.05781	  3.15081	709.98999	 21.20	
 10.208	-104.249	  2.99731	  0.98621	  1.51591	  0.32667	  2.25566	 -0.05683	  3.15144	709.79999	 21.20	
 10.210	-94.801	  2.99906	  1.13764	  1.35010	  0.30141	  2.29210	 -0.05875	  3.14995	709.89001	 21.20	
 10.210	-85.199	  3.00343	  1.30043	  1.18567	  0.29853	  2.29864	 -0.05698	  3.15324	709.96002	 21.30	
 10.208	-75.751	  3.00247	  1.46182	  1.02569	  0.31498	  2.27157	 -0.05272	  3.14861	709.75000	 21.30	
 10.192	-66.322	  3.00938	  1.62622	  0.88055	  0.35631	  2.21804	 -0.04881	  3.15311	709.87000	 21.20	
 10.203	-56.908	  3.01067	  1.77914	  0.74884	  0.41781	  2.13582	 -0.04570	  3.15031	709.90997	 21.20	
 10.215	-47.354	  3.01527	  1.92284	  0.63484	  0.50173	  2.02856	 -0.04503	  3.15099	709.89001	 21.30	
 10.190	-37.895	  3.02298	  2.05266	  0.54001	  0.60976	  1.89701	 -0.03733	  3.15419	709.81000	 21.30	
 10.194	-28.474	  3.02134	  2.15366	  0.46139	  0.72939	  1.74797	 -0.02921	  3.15051	709.77002	 21.20	
 10.210	-18.966	  3.02422	  2.23333	  0.40552	  0.86669	  1.58819	 -0.02352	  3.15038	709.77002	 21.30	
 10.191	 -9.503	  3.03112	  2.28694	  0.37375	  1.02219	  1.42647	 -0.01716	  3.15416	709.89001	 21.30	
 10.200	  0.000	  3.03214	  2.30800	  0.36240	  1.17999	  1.26618	 -0.01197	  3.15280	709.78998	 21.30	
 10.191	  9.503	  3.03412	  2.29730	  0.37281	  1.34952	  1.10336	 -0.00673	  3.15221	709.83002	 21.30	
 10.210	 18.966	  3.03273	  2.25655	  0.40060	  1.51806	  0.94717	 -0.00030	  3.14894	709.78998	 21.30	
 10.194	 28.474	  3.03887	  2.18863	  0.45426	  1.68200	  0.81003	 -0.00031	  3.15218	709.81000	 21.30	
 10.190	 37.895	  3.03876	  2.09280	  0.52600	  1.83406	  0.68606	 -0.00198	  3.14972	709.87000	 21.30	
 10.215	 47.354	  3.03730	  1.97412	  0.61892	  1.97176	  0.57800	 -0.00352	  3.14854	709.89001	 21.30	
 10.203	 56.908	  3.03733	  1.83444	  0.73181	  2.08888	  0.48955	 -0.00574	  3.14869	709.84998	 21.30	
 10.192	 66.322	  3.04168	  1.68709	  0.86123	  2.18042	  0.42771	 -0.00807	  3.15272	709.97998	 21.30	
 10.208	 75.751	  3.04084	  1.52702	  1.00226	  2.24320	  0.38175	 -0.01143	  3.15045	709.85999	 21.30	
 10.210	 85.199	  3.03916	  1.36144	  1.15763	  2.28078	  0.35444	 -0.01490	  3.15041	709.90997	 21.30	
 10.210	 94.801	  3.03578	  1.19824	  1.31889	  2.28303	  0.35038	 -0.01792	  3.14838	709.88000	 21.30	
 10.208	104.249	  3.03448	  1.04120	  1.48460	  2.25440	  0.36989	 -0.01972	  3.14770	709.91998	 21.30	
 10.192	113.678	  3.03683	  0.89696	  1.64653	  2.20092	  0.40678	 -0.02338	  3.15294	709.95001	 21.30	
 10.203	123.092	  3.02727	  0.76493	  1.79701	  2.11428	  0.46221	 -0.02924	  3.14846	709.87000	 21.30	
 10.215	132.646	  3.02411	  0.64723	  1.94270	  2.00388	  0.54195	 -0.03250	  3.15148	709.78998	 21.30	
 10.190	142.105	  3.02184	  0.54944	  2.06850	  1.86838	  0.64487	 -0.03314	  3.15080	709.83002	 21.30	
 10.194	151.526	  3.02051	  0.47226	  2.17136	  1.71842	  0.76511	 -0.03720	  3.15151	709.81000	 21.30	
 10.210	161.034	  3.01287	  0.41426	  2.24549	  1.55886	  0.89571	 -0.03943	  3.14996	709.78003	 21.30	
 10.191	170.497	  3.01104	  0.37991	  2.29433	  1.39069	  1.04703	 -0.04472	  3.14977	709.98999	 21.30	
 11.899	171.783	  2.95061	  0.19743	  2.42502	  1.34119	  0.99162	 -0.07247	  3.15032	709.87000	 21.30	
 11.890	163.610	  2.95368	  0.22762	  2.38159	  1.51265	  0.83841	 -0.06893	  3.15080	709.89001	 21.30	
 11.889	155.445	  2.95963	  0.27804	  2.31360	  1.67809	  0.70136	 -0.06614	  3.15041	709.89001	 21.30	
 11.909	147.299	  2.96469	  0.34247	  2.22658	  1.83715	  0.57690	 -0.06592	  3.15338	709.71997	 21.30	
 11.902	139.148	  2.96505	  0.42377	  2.11078	  1.98069	  0.46508	 -0.06464	  3.15043	709.77002	 21.30	
 11.894	130.867	  2.96881	  0.52707	  1.97707	  2.11004	  0.37177	 -0.06184	  3.14978	709.79999	 21.30	
 11.897	122.732	  2.97357	  0.64321	  1.83338	  2.22024	  0.29474	 -0.05848	  3.15137	709.78003	 21.30	
 11.903	114.597	  2.97502	  0.77466	  1.67783	  2.30619	  0.24146	 -0.05173	  3.14969	709.71002	 21.30	
 11.893	106.346	  2.97855	  0.91792	  1.51295	  2.36963	  0.19934	 -0.05253	  3.14986	709.73999	 21.30	
 11.892	 98.155	  2.98477	  1.07368	  1.34916	  2.40893	  0.17752	 -0.05008	  3.15199	709.79999	 21.30	
 11.900	 90.000	  2.98618	  1.23358	  1.18438	  2.42058	  0.16894	 -0.04915	  3.15256	709.88000	 21.30	
 11.892	 81.845	  2.98566	  1.39658	  1.02850	  2.40304	  0.18226	 -0.04438	  3.15074	709.78003	 21.30	
 11.893	 73.654	  2.98604	  1.56362	  0.87190	  2.35919	  0.21049	 -0.04225	  3.15193	709.84998	 21.30	
 11.903	 65.403	  2.98754	  1.72682	  0.73154	  2.29035	  0.25716	 -0.04071	  3.15445	709.83002	 21.30	
 11.897	 57.268	  2.98698	  1.87765	  0.60634	  2.19639	  0.32371	 -0.03768	  3.15434	709.75000	 21.30	
 11.894	 49.133	  2.98536	  2.01761	  0.49551	  2.08014	  0.40508	 -0.03507	  3.15264	709.85999	 21.30	
 11.902	 40.852	  2.98266	  2.14668	  0.39297	  1.94407	  0.50373	 -0.03297	  3.15214	709.73999	 21.30	
 11.909	 32.701	  2.97823	  2.24803	  0.31648	  1.79293	  0.61880	 -0.03025	  3.14838	709.84998	 21.30	
 11.889	 24.555	  2.97756	  2.33086	  0.25860	  1.62923	  0.75544	 -0.02726	  3.14916	709.81000	 21.30	
 11.890	 16.390	  2.97471	  2.38931	  0.21511	  1.46536	  0.89576	 -0.03073	  3.14845	709.83002	 21.30	
 11.899	  8.217	  2.97110	  2.42096	  0.19133	  1.29542	  1.04924	 -0.03756	  3.14614	709.88000	 21.30	
 11.900	  0.000	  2.97097	  2.43171	  0.18143	  1.12307	  1.21748	 -0.04108	  3.14885	709.87000	 21.30	
 11.899	 -8.217	  2.96906	  2.41284	  0.19386	  0.96075	  1.38447	 -0.04549	  3.14947	709.73999	 21.30	
 11.890	-16.390	  2.96618	  2.36530	  0.22269	  0.80702	  1.54701	 -0.05058	  3.14960	709.71002	 21.30	
 11.889	-24.555	  2.96253	  2.29484	  0.26774	  0.66327	  1.71126	 -0.05658	  3.14963	709.79999	 21.30	
 11.909	-32.701	  2.95889	  2.20380	  0.32910	  0.53601	  1.86377	 -0.06223	  3.14883	709.83002	 21.30	
 11.902	-40.852	  2.95679	  2.09066	  0.41096	  0.42248	  2.00732	 -0.06786	  3.15142	709.78003	 21.30	
 11.894	-49.133	  2.94858	  1.95329	  0.50848	  0.32157	  2.13346	 -0.07036	  3.14696	709.75000	 21.30	
 11.897	-57.268	  2.94719	  1.80665	  0.62862	  0.24278	  2.24372	 -0.07364	  3.15060	709.84003	 21.30	
 11.903	-65.403	  2.94343	  1.65347	  0.75443	  0.18313	  2.32470	 -0.07400	  3.14974	709.85999	 21.30	
 11.893	-73.654	  2.94327	  1.48934	  0.90149	  0.14370	  2.38367	 -0.07318	  3.15122	709.79999	 21.30	
 11.892	-81.845	  2.94013	  1.32317	  1.05850	  0.12213	  2.41780	 -0.07583	  3.15227	709.78003	 21.30	
 11.900	-90.000	  2.93899	  1.16084	  1.22050	  0.11477	  2.42855	 -0.07640	  3.15373	709.84998	 21.30	
 11.892	-98.155	  2.93612	  1.00597	  1.38362	  0.12839	  2.40642	 -0.07769	  3.15264	709.79999	 21.30	
 11.893	-106.346	  2.93454	  0.85518	  1.55177	  0.15786	  2.36232	 -0.07712	  3.15376	709.82001	 21.30	
 11.903	-114.597	  2.93462	  0.71750	  1.71501	  0.20295	  2.29517	 -0.07524	  3.15395	709.89001	 21.30	
 11.897	-122.732	  2.93099	  0.59189	  1.86830	  0.26852	  2.19970	 -0.07457	  3.15046	709.85999	 21.30	
 11.894	-130.867	  2.93775	  0.48268	  2.01417	  0.35239	  2.08850	 -0.07853	  3.15641	709.87000	 21.30	
 11.902	-139.148	  2.93386	  0.38658	  2.14107	  0.45395	  1.95096	 -0.07615	  3.15195	709.73999	 21.30	
 11.909	-147.299	  2.93336	  0.30986	  2.24517	  0.57061	  1.80146	 -0.07890	  3.15051	709.90002	 21.30	
 11.889	-155.445	  2.93697	  0.25151	  2.33069	  0.70277	  1.64404	 -0.07661	  3.15168	709.79999	 21.30	
 11.890	-163.610	  2.93986	  0.21555	  2.39266	  0.85275	  1.47919	 -0.07585	  3.15072	709.81000	 21.30	
 11.899	-171.783	  2.94493	  0.18830	  2.43241	  1.00850	  1.31347	 -0.07616	  3.15302	709.78003	 21.30	
 11.900	180.000	  2.94623	  0.18004	  2.44382	  1.16839	  1.15088	 -0.07665	  3.15240	709.78003	 21.30	
 13.600	180.000	  2.87575	  0.00407	  2.56500	  1.11367	  1.08735	 -0.09891	  3.15465	709.83002	 21.30	
 13.608	-172.853	  2.87026	  0.00753	  2.55418	  0.95228	  1.24690	 -0.09861	  3.15287	709.84003	 21.30	
 13.611	-165.583	  2.86972	  0.02809	  2.52513	  0.79415	  1.41826	 -0.09686	  3.15498	709.85999	 21.30	
 13.601	-158.353	  2.86551	  0.06435	  2.46621	  0.64424	  1.58701	 -0.09493	  3.15314	709.85999	 21.30	
 13.609	-151.210	  2.86375	  0.11205	  2.39173	  0.51138	  1.74582	 -0.09389	  3.15421	709.79999	 21.30	
 13.611	-143.999	  2.85764	  0.17527	  2.29129	  0.38449	  1.89906	 -0.09357	  3.14995	709.84003	 21.30	
 13.601	-136.825	  2.85371	  0.25346	  2.17344	  0.27510	  2.03933	 -0.09248	  3.14845	709.87000	 21.30	
 13.596	-129.640	  2.85393	  0.34676	  2.04353	  0.17756	  2.17204	 -0.09356	  3.15160	709.90002	 21.30	
 13.611	-122.431	  2.85421	  0.45771	  1.89789	  0.10139	  2.28468	 -0.09093	  3.15054	709.82001	 21.30	
 13.604	-115.211	  2.85443	  0.58273	  1.74079	  0.03929	  2.37989	 -0.08812	  3.15000	709.84998	 21.30	
 13.595	-108.042	  2.85763	  0.71751	  1.57898	 -0.01105	  2.45680	 -0.08971	  3.15110	709.84998	 21.30	
 13.607	-100.793	  2.85667	  0.86256	  1.40980	 -0.04598	  2.51061	 -0.08818	  3.15099	709.84998	 21.30	
 13.601	-93.617	  2.85864	  1.01698	  1.24381	 -0.06341	  2.53977	 -0.09039	  3.15094	709.81000	 21.30	
 13.601	-86.383	  2.85863	  1.17648	  1.07878	 -0.07069	  2.54693	 -0.08961	  3.14895	709.79999	 21.30	
 13.607	-79.207	  2.85988	  1.34125	  0.91904	 -0.05617	  2.52718	 -0.08920	  3.14697	709.79999	 21.30	
 13.595	-71.958	  2.86552	  1.51065	  0.76508	 -0.02904	  2.48655	 -0.09011	  3.15016	709.76001	 21.30	
 13.604	-64.789	  2.87097	  1.67271	  0.62723	  0.01407	  2.42343	 -0.08898	  3.15033	709.83002	 21.30	
 13.611	-57.569	  2.87175	  1.83001	  0.49715	  0.07300	  2.33640	 -0.08997	  3.14754	709.89001	 21.30	
 13.596	-50.360	  2.88053	  1.98307	  0.38330	  0.14675	  2.23451	 -0.09299	  3.15340	709.73999	 21.30	
 13.601	-43.175	  2.88309	  2.11929	  0.28228	  0.23730	  2.11118	 -0.09264	  3.15282	709.77002	 21.30	
 13.611	-36.001	  2.88497	  2.23948	  0.19742	  0.34383	  1.96984	 -0.09043	  3.14934	709.83002	 21.30	
 13.609	-28.790	  2.89092	  2.34637	  0.12506	  0.46469	  1.81741	 -0.08563	  3.15116	709.94000	 21.30	
 13.601	-21.647	  2.89303	  2.42924	  0.07061	  0.59509	  1.65906	 -0.08086	  3.15127	709.89001	 21.30	
 13.611	-14.417	  2.89474	  2.49389	  0.02922	  0.73973	  1.49329	 -0.07875	  3.15002	709.77002	 21.30	
 13.608	 -7.147	  2.89813	  2.53518	  0.00535	  0.89874	  1.32251	 -0.07575	  3.15009	709.75000	 21.30	
 13.600	  0.000	  2.90069	  2.55418	 -0.00180	  1.05912	  1.16019	 -0.07191	  3.15207	709.81000	 21.30	
 13.608	  7.147	  2.90348	  2.54810	  0.00605	  1.22815	  0.99959	 -0.06929	  3.15198	709.84998	 21.30	
 13.611	 14.417	  2.90311	  2.51877	  0.02518	  1.40083	  0.83788	 -0.06387	  3.15002	709.84003	 21.30	
 13.601	 21.647	  2.90979	  2.46701	  0.06327	  1.57029	  0.69388	 -0.05965	  3.15248	709.79999	 21.30	
 13.609	 28.790	  2.91067	  2.39233	  0.11647	  1.73522	  0.55984	 -0.06012	  3.15133	709.78003	 21.30	
 13.611	 36.001	  2.91119	  2.29506	  0.18405	  1.89447	  0.43659	 -0.06354	  3.14838	709.81000	 21.30	
 13.601	 43.175	  2.91419	  2.18250	  0.26800	  2.04055	  0.33060	 -0.06686	  3.14973	709.81000	 21.30	
 13.596	 50.360	  2.91797	  2.05406	  0.36575	  2.17314	  0.23844	 -0.06984	  3.15185	709.78998	 21.30	
 13.611	 57.569	  2.91514	  1.90687	  0.47363	  2.28891	  0.15317	 -0.07462	  3.15051	709.78003	 21.30	
 13.604	 64.789	  2.91660	  1.75356	  0.60110	  2.38501	  0.09269	 -0.07502	  3.14941	709.90997	 21.30	
 13.595	 71.958	  2.91846	  1.59290	  0.73837	  2.45869	  0.04523	 -0.07691	  3.15138	709.85999	 21.30	
 13.607	 79.207	  2.91315	  1.42432	  0.88446	  2.50957	  0.00919	 -0.07818	  3.14779	709.92999	 21.30	
 13.601	 86.383	  2.91597	  1.26163	  1.04388	  2.53787	 -0.00349	 -0.07992	  3.15029	709.90997	 21.30	
 13.601	 93.617	  2.91251	  1.09538	  1.20129	  2.53886	 -0.01103	 -0.08377	  3.14792	709.88000	 21.30	
 13.607	100.793	  2.91442	  0.93832	  1.37070	  2.52337	  0.00069	 -0.08230	  3.15298	709.84003	 21.30	
 13.595	108.042	  2.91364	  0.78787	  1.53607	  2.47801	  0.02758	 -0.08299	  3.15254	709.82001	 21.30	
 13.604	115.211	  2.90684	  0.64729	  1.69846	  2.40902	  0.06958	 -0.08486	  3.15000	709.75000	 21.30	
 13.611	122.431	  2.90340	  0.51595	  1.85628	  2.31928	  0.12380	 -0.08968	  3.15078	709.94000	 21.30	
 13.596	129.640	  2.90126	  0.40249	  2.00680	  2.20691	  0.20127	 -0.09416	  3.14945	709.85999	 21.30	
 13.601	136.825	  2.89790	  0.30131	  2.14068	  2.08350	  0.28523	 -0.09613	  3.15188	709.88000	 21.30	
 13.611	143.999	  2.89354	  0.21305	  2.26156	  1.94259	  0.38570	 -0.09676	  3.15147	709.77002	 21.30	
 13.609	151.210	  2.88789	  0.14162	  2.36370	  1.78390	  0.50422	 -0.09431	  3.15084	709.81000	 21.30	
 13.601	158.353	  2.88304	  0.08244	  2.44687	  1.62141	  0.63434	 -0.09630	  3.15066	709.89001	 21.30	
 13.611	165.583	  2.88203	  0.03981	  2.51126	  1.45574	  0.77414	 -0.09656	  3.15328	709.84998	 21.30	
 13.608	172.853	  2.87416	  0.01423	  2.54550	  1.28036	  0.92616	 -0.09513	  3.14927	709.78003	 21.30	
 15.298	173.587	  2.79518	 -0.15563	  2.65541	  1.21828	  0.86012	 -0.11648	  3.15119	709.87000	 21.30	
 15.291	167.167	  2.79843	 -0.13291	  2.62041	  1.38845	  0.70926	 -0.11695	  3.15107	709.88000	 21.30	
 15.307	160.676	  2.80205	 -0.09922	  2.56603	  1.55823	  0.56618	 -0.11815	  3.15050	709.77002	 21.30	
 15.300	154.261	  2.81062	 -0.04902	  2.49418	  1.72794	  0.43491	 -0.12186	  3.15607	709.78003	 21.30	
 15.288	147.854	  2.81285	  0.01405	  2.39877	  1.88608	  0.31453	 -0.12519	  3.15307	709.82001	 21.30	
 15.293	141.428	  2.81674	  0.09015	  2.28600	  2.03497	  0.20872	 -0.12708	  3.15184	709.83002	 21.30	
 15.299	134.985	  2.82128	  0.17771	  2.16234	  2.17399	  0.11447	 -0.12442	  3.15266	709.88000	 21.30	
 15.305	128.583	  2.82725	  0.27974	  2.02431	  2.30204	  0.03154	 -0.12518	  3.15557	709.84998	 21.30	
 15.309	122.142	  2.83034	  0.39253	  1.87394	  2.41137	 -0.03806	 -0.12207	  3.15401	710.57001	 21.30	
 15.304	115.711	  2.83111	  0.51901	  1.71116	  2.49958	 -0.09416	 -0.11859	  3.15210	709.81000	 21.30	
 15.297	109.291	  2.83424	  0.65550	  1.54963	  2.56716	 -0.13234	 -0.11584	  3.15101	709.91998	 21.30	
 15.293	102.897	  2.84022	  0.80120	  1.38835	  2.62010	 -0.16104	 -0.11796	  3.15505	709.77002	 21.30	
 15.293	 96.458	  2.83877	  0.95502	  1.21861	  2.64772	 -0.17873	 -0.11950	  3.15137	709.79999	 21.30	
 15.300	 90.000	  2.84240	  1.11838	  1.05642	  2.65594	 -0.18043	 -0.12039	  3.15457	709.87000	 21.30	
 15.293	 83.542	  2.83753	  1.28103	  0.89665	  2.63622	 -0.17047	 -0.11801	  3.14729	709.84998	 21.30	
 15.293	 77.103	  2.84217	  1.45033	  0.74577	  2.60407	 -0.14853	 -0.11472	  3.15258	710.06000	 21.30	
 15.297	 70.709	  2.84043	  1.61193	  0.60144	  2.54881	 -0.11797	 -0.11284	  3.15140	709.79999	 21.30	
 15.304	 64.289	  2.84101	  1.77468	  0.46846	  2.47330	 -0.06956	 -0.11120	  3.15415	709.91998	 21.30	
 15.309	 57.858	  2.83824	  1.93007	  0.34343	  2.37726	 -0.01248	 -0.10996	  3.15230	709.78998	 21.30	
 15.305	 51.417	  2.83847	  2.07613	  0.23466	  2.26023	  0.06607	 -0.10724	  3.15211	709.88000	 21.30	
 15.299	 45.015	  2.83829	  2.21016	  0.14030	  2.13061	  0.15572	 -0.10349	  3.15139	709.76001	 21.30	
 15.293	 38.572	  2.83762	  2.33069	  0.05453	  1.98651	  0.25750	 -0.10100	  3.15342	709.90002	 21.30	
 15.288	 32.146	  2.83446	  2.43432	 -0.01685	  1.83286	  0.36952	 -0.09413	  3.15347	709.81000	 21.30	
 15.300	 25.739	  2.82959	  2.52112	 -0.07825	  1.66736	  0.49404	 -0.09090	  3.15003	709.95001	 21.30	
 15.307	 19.324	  2.82827	  2.58863	 -0.12086	  1.49890	  0.63429	 -0.09211	  3.15174	709.91998	 21.30	
 15.291	 12.833	  2.82527	  2.63131	 -0.14984	  1.33026	  0.78067	 -0.09570	  3.15131	709.92999	 21.30	
 15.298	  6.413	  2.82084	  2.65597	 -0.16871	  1.15682	  0.93638	 -0.09784	  3.15123	709.83002	 21.30	
 15.300	  0.000	  2.81924	  2.66183	 -0.17473	  0.98979	  1.09930	 -0.09970	  3.14958	709.94000	 21.30	
 15.298	 -6.413	  2.81533	  2.64321	 -0.16465	  0.82951	  1.26281	 -0.10206	  3.14891	709.83002	 21.30	
 15.291	-12.833	  2.81427	  2.60616	 -0.14675	  0.67360	  1.42948	 -0.10083	  3.14879	709.88000	 21.30	
 15.307	-19.324	  2.81119	  2.55094	 -0.11479	  0.52365	  1.59982	 -0.10218	  3.15080	709.84003	 21.30	
 15.300	-25.739	  2.80837	  2.47348	 -0.06826	  0.39061	  1.75942	 -0.10272	  3.15092	709.72998	 21.30	
 15.288	-32.146	  2.80366	  2.37561	 -0.00650	  0.26737	  1.91583	 -0.10341	  3.14842	709.84003	 21.30	
 15.293	-38.572	  2.80320	  2.26422	  0.06770	  0.15642	  2.06766	 -0.10688	  3.15243	709.78003	 21.30	
 15.299	-45.015	  2.79838	  2.13649	  0.15466	  0.05900	  2.20146	 -0.10576	  3.15205	709.83002	 21.30	
 15.305	-51.417	  2.79246	  1.99532	  0.25507	 -0.02503	  2.32111	 -0.10503	  3.14905	709.79999	 21.30	
 15.309	-57.858	  2.78846	  1.84360	  0.36870	 -0.09703	  2.42709	 -0.10173	  3.15006	709.82001	 21.30	
 15.304	-64.289	  2.78703	  1.68512	  0.49658	 -0.15276	  2.51522	 -0.10241	  3.15237	709.87000	 21.30	
 15.297	-70.709	  2.78468	  1.52249	  0.63388	 -0.19563	  2.58401	 -0.09854	  3.15326	709.84998	 21.30	
 15.293	-77.103	  2.77708	  1.35559	  0.77853	 -0.22579	  2.62761	 -0.09616	  3.15012	709.89001	 21.30	
 15.293	-83.542	  2.77637	  1.19052	  0.93621	 -0.24097	  2.65413	 -0.09627	  3.15093	709.90002	 21.30	
 15.300	-90.000	  2.77289	  1.02802	  1.10048	 -0.24138	  2.65595	 -0.09647	  3.14879	709.88000	 21.30	
 15.293	-96.458	  2.77197	  0.87018	  1.26495	 -0.23408	  2.64159	 -0.09329	  3.15247	709.87000	 21.30	
 15.293	-102.897	  2.76737	  0.71705	  1.43319	 -0.21238	  2.60154	 -0.09512	  3.15036	709.92999	 21.30	
 15.297	-109.291	  2.77000	  0.57690	  1.59937	 -0.17715	  2.54640	 -0.09357	  3.15283	709.96997	 21.30	
 15.304	-115.711	  2.76985	  0.45003	  1.76220	 -0.12663	  2.46859	 -0.09682	  3.15369	709.84003	 21.30	
 15.309	-122.142	  2.76844	  0.32961	  1.91850	 -0.06560	  2.37114	 -0.09752	  3.15238	709.84003	 21.30	
 15.305	-128.583	  2.76844	  0.22347	  2.06550	  0.01482	  2.25465	 -0.09553	  3.15013	709.91998	 21.30	
 15.299	-134.985	  2.77242	  0.12706	  2.20213	  0.09892	  2.13083	 -0.10048	  3.15465	709.96997	 21.30	
 15.293	-141.428	  2.77298	  0.04714	  2.32355	  0.20338	  1.98983	 -0.10225	  3.15317	710.32001	 21.30	
 15.288	-147.854	  2.77275	 -0.02116	  2.42649	  0.31915	  1.83513	 -0.10507	  3.14830	709.84998	 21.30	
 15.300	-154.261	  2.77721	 -0.07679	  2.51632	  0.44531	  1.67675	 -0.10657	  3.15248	709.79999	 21.30	
 15.307	-160.676	  2.78095	 -0.11765	  2.58617	  0.58116	  1.51694	 -0.11057	  3.15265	709.89001	 21.30	
 15.291	-167.167	  2.78386	 -0.14578	  2.63260	  0.73152	  1.34652	 -0.11329	  3.15146	709.96002	 21.30	
 15.298	-173.587	  2.78425	 -0.16334	  2.65934	  0.89035	  1.17573	 -0.11497	  3.14920	709.95001	 21.30	
 15.300	180.000	  2.78915	 -0.16720	  2.67024	  1.04974	  1.01779	 -0.11651	  3.15161	709.97998	 21.30	
 17.000	180.000	  2.69542	 -0.32749	  2.76544	  0.98242	  0.94680	 -0.12971	  3.14840	709.82001	 21.30	
 16.990	-174.179	  2.69152	 -0.32170	  2.75754	  0.82717	  1.10568	 -0.12692	  3.14894	709.91998	 21.30	
 17.009	-168.383	  2.68830	 -0.30959	  2.73373	  0.67070	  1.27022	 -0.12238	  3.14841	709.88000	 21.30	
 17.000	-162.596	  2.68425	 -0.28582	  2.69099	  0.52555	  1.43468	 -0.11919	  3.14865	709.85999	 21.30	
 16.990	-156.759	  2.68238	 -0.24761	  2.62909	  0.39100	  1.59897	 -0.11659	  3.14732	709.88000	 21.30	
 16.995	-150.919	  2.67714	 -0.20496	  2.54896	  0.25532	  1.76170	 -0.11321	  3.14842	709.92999	 21.30	
 16.988	-145.161	  2.67680	 -0.14702	  2.45647	  0.13866	  1.91703	 -0.10791	  3.15165	709.91998	 21.30	
 17.014	-139.343	  2.67471	 -0.07717	  2.34364	  0.03324	  2.06506	 -0.10582	  3.15039	709.83002	 21.30	
 17.007	-133.546	  2.67061	  0.00548	  2.21544	 -0.06003	  2.20137	 -0.10416	  3.14823	709.83002	 21.30	
 17.001	-127.699	  2.66951	  0.09846	  2.07620	 -0.14720	  2.32809	 -0.10328	  3.14883	709.87000	 21.30	
 17.006	-121.937	  2.67031	  0.20270	  1.93178	 -0.21586	  2.44228	 -0.09649	  3.15204	709.87000	 21.30	
 17.002	-116.134	  2.66872	  0.31960	  1.77572	 -0.27483	  2.53535	 -0.09874	  3.14703	709.84003	 21.30	
 17.001	-110.310	  2.67211	  0.44621	  1.61320	 -0.32251	  2.61609	 -0.09751	  3.15034	709.79999	 21.30	
 16.988	-104.517	  2.67224	  0.58252	  1.44807	 -0.35824	  2.67627	 -0.09505	  3.14927	709.84003	 21.30	
 17.008	-98.662	  2.67290	  0.72485	  1.27991	 -0.38947	  2.72215	 -0.09529	  3.14837	709.87000	 21.30	
 16.996	-92.909	  2.68147	  0.87999	  1.11712	 -0.40199	  2.75341	 -0.09422	  3.15541	709.88000	 21.40	
 16.996	-87.091	  2.67996	  1.03481	  0.95097	 -0.40907	  2.75513	 -0.09900	  3.15115	709.90002	 21.40	
 17.012	-81.253	  2.68459	  1.20149	  0.79096	 -0.40068	  2.74102	 -0.10501	  3.15206	709.98999	 21.40	
 16.988	-75.483	  2.68551	  1.36113	  0.64307	 -0.38240	  2.71016	 -0.09937	  3.14961	709.78003	 21.40	
 17.001	-69.690	  2.69013	  1.52757	  0.50267	 -0.35131	  2.66219	 -0.10153	  3.15049	709.77002	 21.30	
 17.002	-63.866	  2.69332	  1.69056	  0.36514	 -0.31313	  2.59240	 -0.10445	  3.15191	709.76001	 21.30	
 17.006	-58.063	  2.69680	  1.85085	  0.23972	 -0.26131	  2.50839	 -0.10817	  3.15310	709.79999	 21.40	
 17.001	-52.301	  2.69913	  2.00119	  0.13029	 -0.19333	  2.40254	 -0.11240	  3.15096	709.84003	 21.40	
 17.007	-46.454	  2.70267	  2.14371	  0.02966	 -0.11336	  2.28131	 -0.11300	  3.15008	709.81000	 21.40	
 17.014	-40.657	  2.70679	  2.27754	 -0.05986	 -0.02500	  2.14723	 -0.11644	  3.15175	709.83002	 21.40	
 16.988	-34.839	  2.71174	  2.39563	 -0.13285	  0.07747	  2.00786	 -0.11887	  3.15237	709.71997	 21.40	
 16.995	-29.081	  2.71493	  2.49843	 -0.19654	  0.19261	  1.85584	 -0.11951	  3.15255	709.98999	 21.40	
 16.990	-23.241	  2.71982	  2.58846	 -0.24813	  0.32210	  1.69164	 -0.12060	  3.15246	709.89001	 21.40	
 17.000	-17.404	  2.72200	  2.65869	 -0.28903	  0.45419	  1.52990	 -0.12132	  3.15215	709.78998	 21.40	
 17.009	-11.617	  2.72356	  2.71033	 -0.31617	  0.60002	  1.36348	 -0.11996	  3.15077	709.84003	 21.40	
 16.990	 -5.821	  2.72687	  2.74329	 -0.33332	  0.75712	  1.19513	 -0.12368	  3.15026	709.78003	 21.40	
 17.000	  0.000	  2.72825	  2.75994	 -0.33946	  0.91502	  1.03366	 -0.12459	  3.14980	709.84998	 21.40	
 16.990	  5.821	  2.73023	  2.75525	 -0.33346	  1.08290	  0.87097	 -0.12760	  3.14975	709.82001	 21.40	
 17.009	 11.617	  2.72970	  2.73189	 -0.31860	  1.25096	  0.71531	 -0.12701	  3.14691	709.78003	 21.40	
 17.000	 17.404	  2.73477	  2.69227	 -0.29140	  1.41976	  0.57305	 -0.12782	  3.14903	709.81000	 21.40	
 16.990	 23.241	  2.73940	  2.63357	 -0.24967	  1.59155	  0.43623	 -0.12798	  3.15164	709.79999	 21.40	
 16.995	 29.081	  2.74049	  2.55459	 -0.20045	  1.75778	  0.30657	 -0.12914	  3.14968	709.82001	 21.40	
 16.988	 34.839	  2.74442	  2.46187	 -0.14000	  1.91296	  0.19292	 -0.13315	  3.14968	710.51001	 21.40	
 17.014	 40.657	  2.74653	  2.35261	 -0.06766	  2.06772	  0.08476	 -0.14083	  3.15105	710.13000	 21.30	
 17.007	 46.454	  2.74612	  2.22674	  0.01653	  2.20787	 -0.01036	 -0.14623	  3.14971	710.47998	 21.40	
 17.001	 52.301	  2.74881	  2.08947	  0.11622	  2.33584	 -0.09031	 -0.14814	  3.15026	710.46002	 21.40	
 17.006	 58.063	  2.74885	  1.94361	  0.22075	  2.44805	 -0.16222	 -0.14962	  3.15022	710.45001	 21.40	
 17.002	 63.866	  2.75158	  1.78978	  0.33824	  2.54845	 -0.22192	 -0.15006	  3.15259	709.78003	 21.40	
 17.001	 69.690	  2.75082	  1.62592	  0.46541	  2.62600	 -0.27151	 -0.15183	  3.15060	709.76001	 21.40	
 16.988	 75.483	  2.75115	  1.46330	  0.60394	  2.68529	 -0.30352	 -0.15370	  3.14979	709.77002	 21.40	
 17.012	 81.253	  2.74756	  1.29589	  0.74668	  2.72903	 -0.33374	 -0.15775	  3.14805	709.67999	 21.40	
 16.996	 87.091	  2.75115	  1.13263	  0.90281	  2.75335	 -0.34618	 -0.15905	  3.15143	709.76001	 21.40	
 16.996	 92.909	  2.74987	  0.97263	  1.06269	  2.75576	 -0.34545	 -0.15917	  3.15183	709.85999	 21.40	
 17.008	 98.662	  2.74786	  0.81865	  1.22443	  2.73841	 -0.33646	 -0.15522	  3.15062	709.72998	 21.40	
 16.988	104.517	  2.74688	  0.66618	  1.38934	  2.70401	 -0.31874	 -0.15305	  3.15119	709.79999	 21.30	
 17.001	110.310	  2.74328	  0.52548	  1.55490	  2.64861	 -0.28720	 -0.15205	  3.15025	709.78003	 21.40	
 17.002	116.134	  2.74283	  0.38977	  1.71813	  2.57763	 -0.24861	 -0.15464	  3.15232	709.77002	 21.40	
 17.006	121.937	  2.73709	  0.26837	  1.87617	  2.48552	 -0.19415	 -0.15488	  3.14963	709.78003	 21.40	
 17.001	127.699	  2.73228	  0.16245	  2.02355	  2.37909	 -0.12939	 -0.15684	  3.14870	710.46002	 21.40	
 17.007	133.546	  2.73116	  0.06237	  2.16803	  2.25803	 -0.05159	 -0.15740	  3.15115	710.03998	 21.40	
 17.014	139.343	  2.72575	 -0.03099	  2.30176	  2.12080	  0.03505	 -0.15383	  3.15143	710.14001	 21.40	
 16.988	145.161	  2.72329	 -0.10233	  2.41578	  1.97428	  0.13913	 -0.15258	  3.15136	710.42999	 21.40	
 16.995	150.919	  2.71827	 -0.16855	  2.51640	  1.82136	  0.24554	 -0.14950	  3.15149	710.60999	 21.40	
 16.990	156.759	  2.71514	 -0.22314	  2.60502	  1.65835	  0.36809	 -0.14770	  3.15228	710.63000	 21.40	
 17.000	162.596	  2.71140	 -0.26660	  2.67414	  1.48798	  0.50255	 -0.13997	  3.15172	710.41998	 21.40	
 17.009	168.383	  2.70569	 -0.29715	  2.72171	  1.32230	  0.64023	 -0.13716	  3.15054	710.54999	 21.40	
 16.990	174.179	  2.70396	 -0.31496	  2.75544	  1.15376	  0.79327	 -0.13266	  3.15304	710.52002	 21.40	
 18.709	174.675	  2.59944	 -0.48136	  2.84406	  1.07822	  0.71387	 -0.14411	  3.15181	710.60999	 21.40	
 18.703	169.441	  2.60405	 -0.46613	  2.81667	  1.24403	  0.56676	 -0.15001	  3.15384	709.84003	 21.40	
 18.691	164.085	  2.60744	 -0.43235	  2.76828	  1.41292	  0.42806	 -0.15724	  3.15215	709.87000	 21.40	
 18.706	158.818	  2.61180	 -0.39804	  2.70585	  1.58046	  0.29414	 -0.16115	  3.15287	710.03003	 21.40	
 18.695	153.537	  2.61712	 -0.34739	  2.62645	  1.74506	  0.17503	 -0.16904	  3.15252	710.27002	 21.40	
 18.704	148.255	  2.62063	 -0.29174	  2.53263	  1.90018	  0.06294	 -0.17192	  3.15084	709.90997	 21.40	
 18.698	142.952	  2.62581	 -0.22343	  2.42502	  2.05538	 -0.03630	 -0.17830	  3.15235	710.46997	 21.40	
 18.699	137.625	  2.62653	 -0.15001	  2.30121	  2.19768	 -0.13560	 -0.18071	  3.14953	710.52002	 21.40	
 18.705	132.343	  2.63209	 -0.05986	  2.16880	  2.33116	 -0.21635	 -0.18364	  3.15097	710.47998	 21.40	
 18.713	127.067	  2.63906	  0.03985	  2.02780	  2.45148	 -0.28389	 -0.18806	  3.15356	710.03003	 21.40	
 18.700	121.794	  2.64081	  0.14831	  1.87594	  2.55372	 -0.34359	 -0.18809	  3.15088	709.92999	 21.40	
 18.698	116.504	  2.64503	  0.26547	  1.72087	  2.64476	 -0.39312	 -0.18663	  3.15162	710.47998	 21.40	
 18.707	111.165	  2.64732	  0.39518	  1.55840	  2.72092	 -0.43407	 -0.18729	  3.15032	710.21002	 21.40	
 18.690	105.863	  2.65296	  0.53236	  1.39555	  2.78112	 -0.46662	 -0.18918	  3.15435	710.00000	 21.40	
 18.696	100.583	  2.65212	  0.67400	  1.23186	  2.82056	 -0.48849	 -0.19063	  3.15278	709.78998	 21.40	
 18.700	 95.309	  2.65347	  0.82709	  1.06874	  2.84117	 -0.49925	 -0.19641	  3.15088	709.78998	 21.40	
 18.700	 90.000	  2.65299	  0.98313	  0.90738	  2.84684	 -0.50421	 -0.19620	  3.14950	709.79999	 21.40	
 18.700	 84.691	  2.65530	  1.14324	  0.75285	  2.83908	 -0.49875	 -0.19789	  3.15465	709.83002	 21.40	
 18.696	 79.417	  2.65546	  1.30664	  0.60256	  2.80962	 -0.48534	 -0.19550	  3.15424	709.76001	 21.40	
 18.690	 74.137	  2.65488	  1.47172	  0.46285	  2.76112	 -0.45450	 -0.19374	  3.15249	709.78003	 21.40	
 18.707	 68.835	  2.65352	  1.63372	  0.33251	  2.69750	 -0.41776	 -0.19296	  3.15322	709.82001	 21.40	
 18.698	 63.496	  2.65557	  1.79592	  0.20983	  2.61640	 -0.37122	 -0.18879	  3.15518	709.77002	 21.40	
 18.700	 58.206	  2.65341	  1.95064	  0.09384	  2.51409	 -0.31146	 -0.18960	  3.15136	709.81000	 21.40	
 18.713	 52.933	  2.65224	  2.09779	 -0.01059	  2.40308	 -0.24575	 -0.18504	  3.15186	709.84003	 21.40	
 18.705	 47.657	  2.65199	  2.23588	 -0.10400	  2.27858	 -0.16982	 -0.18503	  3.15290	710.19000	 21.40	
 18.699	 42.375	  2.64863	  2.36279	 -0.18829	  2.13952	 -0.08247	 -0.17915	  3.14961	710.46997	 21.40	
 18.698	 37.048	  2.64701	  2.47882	 -0.26262	  1.99092	  0.01861	 -0.17579	  3.15146	709.78998	 21.30	
 18.704	 31.745	  2.64518	  2.58143	 -0.32363	  1.83612	  0.12866	 -0.17067	  3.15187	709.96997	 21.40	
 18.695	 26.463	  2.64351	  2.66680	 -0.37581	  1.67711	  0.24559	 -0.16474	  3.15215	710.46997	 21.40	
 18.706	 21.182	  2.63966	  2.73611	 -0.41839	  1.51011	  0.37437	 -0.15886	  3.14972	710.19000	 21.40	
 18.691	 15.915	  2.63611	  2.79038	 -0.45550	  1.34052	  0.51070	 -0.15995	  3.15028	710.13000	 21.40	
 18.703	 10.559	  2.63249	  2.82659	 -0.47972	  1.17060	  0.65616	 -0.15495	  3.15123	709.90997	 21.40	
 18.709	  5.325	  2.63203	  2.84819	 -0.49348	  1.00533	  0.80858	 -0.15173	  3.15192	710.39001	 21.40	
 18.700	  0.000	  2.62834	  2.84938	 -0.49695	  0.84069	  0.96736	 -0.14782	  3.15137	710.32001	 21.40	
 18.709	 -5.325	  2.62788	  2.83647	 -0.49316	  0.68324	  1.12913	 -0.14423	  3.15444	709.91998	 21.40	
 18.703	-10.559	  2.62373	  2.80407	 -0.47898	  0.53020	  1.29253	 -0.14211	  3.15194	709.82001	 21.40	
 18.691	-15.915	  2.62060	  2.75456	 -0.45608	  0.38018	  1.45849	 -0.13291	  3.15302	709.79999	 21.40	
 18.706	-21.182	  2.61606	  2.68855	 -0.41890	  0.24875	  1.62138	 -0.13356	  3.14963	709.77002	 21.40	
 18.695	-26.463	  2.61456	  2.60843	 -0.37472	  0.12315	  1.78286	 -0.12821	  3.15105	709.81000	 21.40	
 18.704	-31.745	  2.61071	  2.51305	 -0.32167	  0.00586	  1.93820	 -0.12400	  3.15150	710.13000	 21.40	
 18.698	-37.048	  2.60781	  2.40462	 -0.25340	 -0.09446	  2.08618	 -0.12093	  3.15238	709.73999	 21.40	
 18.699	-42.375	  2.60462	  2.28052	 -0.17883	 -0.19512	  2.22918	 -0.11904	  3.15355	709.78998	 21.40	
 18.705	-47.657	  2.60099	  2.14558	 -0.08735	 -0.27648	  2.35987	 -0.11500	  3.15373	710.64001	 21.40	
 18.713	-52.933	  2.59497	  1.99953	  0.01127	 -0.34978	  2.47583	 -0.11679	  3.15213	710.41998	 21.40	
 18.700	-58.206	  2.59290	  1.84954	  0.11916	 -0.40901	  2.57627	 -0.11270	  3.15242	709.88000	 21.40	
 18.698	-63.496	  2.58883	  1.69038	  0.24063	 -0.45745	  2.66196	 -0.11031	  3.15084	709.90002	 21.40	
 18.707	-68.835	  2.58327	  1.52476	  0.37043	 -0.50117	  2.73140	 -0.10376	  3.14760	710.66998	 21.30	
 18.690	-74.137	  2.58116	  1.36206	  0.50511	 -0.53432	  2.78920	 -0.10017	  3.15142	710.64001	 21.40	
 18.696	-79.417	  2.57581	  1.19844	  0.65225	 -0.55358	  2.82361	 -0.10293	  3.14909	709.94000	 21.40	
 18.700	-84.691	  2.57398	  1.03617	  0.80505	 -0.56563	  2.84237	 -0.10070	  3.14807	710.57001	 21.40	
 18.700	-90.000	  2.57135	  0.87883	  0.96285	 -0.56739	  2.84637	 -0.10164	  3.15022	710.57001	 21.40	
 18.700	-95.309	  2.56870	  0.72513	  1.12645	 -0.55744	  2.82658	 -0.09978	  3.14740	710.56000	 21.40	
 18.696	-100.583	  2.56905	  0.57870	  1.29314	 -0.53949	  2.79583	 -0.09972	  3.15035	710.47998	 21.40	
 18.690	-105.863	  2.56901	  0.44082	  1.45727	 -0.51059	  2.74797	 -0.09609	  3.15142	710.50000	 21.40	
 18.707	-111.165	  2.56473	  0.30797	  1.61617	 -0.47648	  2.68277	 -0.09737	  3.14987	710.48999	 21.40	
 18.698	-116.504	  2.56516	  0.18452	  1.78373	 -0.42596	  2.59975	 -0.10000	  3.15124	710.48999	 21.40	
 18.700	-121.794	  2.56588	  0.07522	  1.93677	 -0.37049	  2.50591	 -0.10090	  3.15120	710.53003	 21.40	
 18.713	-127.067	  2.56560	 -0.02727	  2.08221	 -0.30722	  2.39879	 -0.10241	  3.15188	710.52002	 21.40	
 18.705	-132.343	  2.56824	 -0.12170	  2.22567	 -0.22943	  2.27360	 -0.10563	  3.15368	710.53998	 21.40	
 18.699	-137.625	  2.57032	 -0.20264	  2.35421	 -0.13963	  2.13991	 -0.10814	  3.15331	710.47998	 21.40	
 18.698	-142.952	  2.57280	 -0.27268	  2.47077	 -0.03806	  1.99273	 -0.11161	  3.15325	710.53998	 21.40	
 18.704	-148.255	  2.57527	 -0.33253	  2.57212	  0.07048	  1.84266	 -0.11279	  3.15137	710.52002	 21.40	
 18.695	-153.537	  2.58050	 -0.38305	  2.66250	  0.18955	  1.68399	 -0.11603	  3.15455	709.73999	 21.40	
 18.706	-158.818	  2.58286	 -0.42533	  2.73534	  0.32096	  1.51801	 -0.12046	  3.15544	710.56000	 21.40	
 18.691	-164.085	  2.58510	 -0.45115	  2.78658	  0.45870	  1.35878	 -0.12977	  3.15225	710.03998	 21.40	
 18.703	-169.441	  2.58696	 -0.47314	  2.82564	  0.60459	  1.19197	 -0.13144	  3.15219	709.66998	 21.40	
 18.709	-174.675	  2.59058	 -0.49099	  2.85024	  0.75632	  1.02572	 -0.13731	  3.15275	710.48999	 21.40	
 18.700	180.000	  2.59934	 -0.48846	  2.85656	  0.91659	  0.87201	 -0.14182	  3.15534	709.65997	 21.40	
 20.400	180.000	  2.48310	 -0.66267	  2.93313	  0.83005	  0.78398	 -0.13780	  3.15282	709.71002	 21.40	
 20.401	-175.153	  2.48007	 -0.66327	  2.93013	  0.67572	  0.93579	 -0.13332	  3.15515	709.70001	 21.40	
 20.407	-170.264	  2.47275	 -0.65419	  2.90915	  0.52023	  1.09795	 -0.12742	  3.15395	710.46002	 21.40	
 20.410	-165.423	  2.46451	 -0.63683	  2.86837	  0.37400	  1.25796	 -0.12451	  3.14745	709.66998	 21.40	
 20.392	-160.496	  2.46642	 -0.60876	  2.82212	  0.23866	  1.42346	 -0.12495	  3.15298	709.70001	 21.40	
 20.401	-155.705	  2.46151	 -0.57347	  2.75583	  0.10967	  1.58484	 -0.12201	  3.15166	709.65997	 21.40	
 20.405	-150.835	  2.45788	 -0.52909	  2.67470	 -0.01523	  1.74819	 -0.11904	  3.15246	709.79999	 21.40	
 20.397	-145.903	  2.45685	 -0.47148	  2.57866	 -0.12430	  1.90599	 -0.11266	  3.15208	710.19000	 21.40	
 20.392	-141.062	  2.45113	 -0.41352	  2.46890	 -0.23002	  2.05303	 -0.10792	  3.15077	709.73999	 21.40	
 20.396	-136.227	  2.45209	 -0.33955	  2.35130	 -0.32186	  2.19947	 -0.10575	  3.15513	709.77002	 21.40	
 20.408	-131.372	  2.44859	 -0.26198	  2.22005	 -0.40586	  2.32770	 -0.10260	  3.15241	709.72998	 21.40	
 20.410	-126.511	  2.45053	 -0.16782	  2.07962	 -0.47616	  2.45001	 -0.09997	  3.15254	709.64001	 21.40	
 20.400	-121.604	  2.44987	 -0.06565	  1.92690	 -0.53824	  2.55856	 -0.10057	  3.15162	709.89001	 21.40	
 20.403	-116.741	  2.44851	  0.04206	  1.77337	 -0.59616	  2.65763	 -0.09889	  3.15372	709.87000	 21.40	
 20.413	-111.900	  2.44676	  0.15958	  1.61288	 -0.64301	  2.74004	 -0.09379	  3.15285	710.14001	 21.40	
 20.398	-107.004	  2.44790	  0.28920	  1.44890	 -0.67943	  2.80716	 -0.09766	  3.15148	710.41998	 21.40	
 20.394	-102.132	  2.44781	  0.42137	  1.28312	 -0.70849	  2.85987	 -0.09688	  3.15099	710.25000	 21.40	
 20.403	-97.332	  2.45170	  0.56428	  1.12287	 -0.72844	  2.89846	 -0.10048	  3.15282	710.06000	 21.40	
 20.392	-92.440	  2.45461	  0.71736	  0.95807	 -0.73742	  2.91935	 -0.09832	  3.15373	709.83002	 21.40	
 20.392	-87.560	  2.45733	  0.87088	  0.80079	 -0.73886	  2.92476	 -0.10057	  3.15305	710.54999	 21.40	
 20.403	-82.668	  2.45787	  1.02815	  0.64384	 -0.73688	  2.91669	 -0.10564	  3.15234	710.33002	 21.40	
 20.394	-77.868	  2.46430	  1.19062	  0.50003	 -0.71944	  2.89350	 -0.10270	  3.15494	709.85999	 21.40	
 20.398	-72.996	  2.46772	  1.35088	  0.35841	 -0.69963	  2.85440	 -0.10618	  3.15414	709.89001	 21.40	
 20.413	-68.100	  2.47101	  1.51596	  0.22287	 -0.66676	  2.79572	 -0.10688	  3.15334	710.65997	 21.40	
 20.403	-63.259	  2.47002	  1.67515	  0.09803	 -0.62517	  2.72079	 -0.10844	  3.14957	709.85999	 21.40	
 20.400	-58.396	  2.47600	  1.83365	 -0.01748	 -0.57538	  2.63295	 -0.11049	  3.15054	710.44000	 21.40	
 20.410	-53.489	  2.47979	  1.98725	 -0.12419	 -0.51604	  2.53076	 -0.11755	  3.15150	709.76001	 21.40	
 20.408	-48.628	  2.48148	  2.13235	 -0.22611	 -0.45262	  2.41826	 -0.11429	  3.15163	710.03998	 21.40	
 20.396	-43.773	  2.48660	  2.26979	 -0.31121	 -0.37403	  2.29432	 -0.11993	  3.15290	709.82001	 21.40	
 20.392	-38.938	  2.49119	  2.39586	 -0.38696	 -0.28399	  2.15646	 -0.12412	  3.15105	710.31000	 21.40	
 20.397	-34.097	  2.49497	  2.51079	 -0.45067	 -0.18649	  2.01167	 -0.12635	  3.15080	709.81000	 21.40	
 20.405	-29.165	  2.49661	  2.61603	 -0.51443	 -0.08060	  1.85776	 -0.13434	  3.15102	710.47998	 21.40	
 20.401	-24.295	  2.50068	  2.70677	 -0.56407	  0.03498	  1.69794	 -0.13438	  3.15202	710.40002	 21.40	
 20.392	-19.504	  2.50839	  2.78105	 -0.59897	  0.16533	  1.53683	 -0.13995	  3.15327	710.12000	 21.40	
 20.410	-14.577	  2.50819	  2.84147	 -0.63287	  0.29826	  1.37117	 -0.14596	  3.15354	709.79999	 21.40	
 20.407	 -9.736	  2.50991	  2.88368	 -0.65377	  0.44156	  1.20795	 -0.14932	  3.15215	710.17999	 21.40	
 20.401	 -4.847	  2.51310	  2.91267	 -0.66799	  0.59330	  1.04172	 -0.15519	  3.15304	710.13000	 21.40	
 20.400	  0.000	  2.51671	  2.92824	 -0.67338	  0.74552	  0.88407	 -0.15825	  3.15415	709.77002	 21.40	
 20.401	  4.847	  2.51823	  2.92621	 -0.66820	  0.90896	  0.72679	 -0.16194	  3.15353	709.71997	 21.40	
 20.407	  9.736	  2.51944	  2.90779	 -0.65548	  1.07494	  0.57493	 -0.16864	  3.15188	709.76001	 21.40	
 20.410	 14.577	  2.52405	  2.87690	 -0.63415	  1.24173	  0.43252	 -0.17495	  3.15265	709.81000	 21.40	
 20.392	 19.504	  2.52577	  2.82745	 -0.60610	  1.41258	  0.29051	 -0.18214	  3.15227	709.94000	 21.40	
 20.401	 24.295	  2.53130	  2.76684	 -0.56862	  1.57922	  0.16388	 -0.18847	  3.15557	709.84998	 21.40	
 20.405	 29.165	  2.53406	  2.68754	 -0.52059	  1.74246	  0.04671	 -0.19416	  3.15483	709.72998	 21.40	
 20.397	 34.097	  2.53665	  2.59111	 -0.46251	  1.90582	 -0.06719	 -0.20217	  3.15335	710.51001	 21.30	
 20.392	 38.938	  2.53927	  2.48527	 -0.39998	  2.05636	 -0.16931	 -0.20542	  3.15482	710.56000	 21.30	
 20.396	 43.773	  2.54198	  2.36759	 -0.32899	  2.20062	 -0.26151	 -0.20949	  3.15593	710.41998	 21.40	
 20.408	 48.628	  2.54111	  2.23600	 -0.24613	  2.33551	 -0.34450	 -0.21338	  3.15345	710.53003	 21.40	
 20.410	 53.489	  2.54219	  2.09344	 -0.15255	  2.45998	 -0.41826	 -0.21918	  3.15267	710.53003	 21.40	
 20.400	 58.396	  2.54391	  1.94466	 -0.04859	  2.57265	 -0.48245	 -0.21768	  3.15344	710.51001	 21.40	
 20.403	 63.259	  2.54463	  1.79040	  0.06090	  2.67205	 -0.53835	 -0.22122	  3.15631	710.59998	 21.40	
 20.413	 68.100	  2.54036	  1.62931	  0.17975	  2.74930	 -0.58145	 -0.21850	  3.14714	710.42999	 21.40	
 20.398	 72.996	  2.54663	  1.46844	  0.31113	  2.82077	 -0.61721	 -0.22078	  3.15318	710.44000	 21.30	
 20.394	 77.868	  2.54834	  1.30632	  0.44846	  2.87309	 -0.64370	 -0.22502	  3.15489	709.78998	 21.40	
 20.403	 82.668	  2.54799	  1.14419	  0.59219	  2.90627	 -0.66128	 -0.22415	  3.15408	710.54999	 21.40	
 20.392	 87.560	  2.54769	  0.98186	  0.74655	  2.92432	 -0.67037	 -0.22250	  3.15315	710.44000	 21.40	
 20.392	 92.440	  2.54271	  0.82176	  0.89690	  2.92413	 -0.67695	 -0.22325	  3.14976	709.78998	 21.40	
 20.403	 97.332	  2.54520	  0.66824	  1.06104	  2.91684	 -0.67254	 -0.22202	  3.15459	709.81000	 21.40	
 20.394	102.132	  2.54422	  0.52307	  1.22317	  2.88682	 -0.65354	 -0.21821	  3.15206	710.52002	 21.40	
 20.398	107.004	  2.53778	  0.38438	  1.38192	  2.83954	 -0.63065	 -0.21546	  3.15026	709.71002	 21.30	
 20.413	111.900	  2.53634	  0.24647	  1.54620	  2.78195	 -0.60487	 -0.21320	  3.15289	710.48999	 21.40	
 20.403	116.741	  2.53179	  0.12391	  1.70584	  2.70660	 -0.56491	 -0.21398	  3.15266	710.46002	 21.40	
 20.400	121.604	  2.52832	  0.00911	  1.86098	  2.61426	 -0.51548	 -0.21135	  3.15110	710.40997	 21.40	
 20.410	126.511	  2.52954	 -0.09723	  2.01785	  2.51221	 -0.45561	 -0.20786	  3.15538	709.95001	 21.40	
 20.408	131.372	  2.52046	 -0.19591	  2.15935	  2.38851	 -0.38684	 -0.20122	  3.14833	709.78003	 21.40	
 20.396	136.227	  2.51839	 -0.28296	  2.29489	  2.26101	 -0.31363	 -0.19924	  3.15118	710.54999	 21.40	
 20.392	141.062	  2.51458	 -0.36224	  2.41919	  2.12290	 -0.22864	 -0.19307	  3.15227	710.51001	 21.40	
 20.397	145.903	  2.50943	 -0.42952	  2.53110	  1.97230	 -0.13188	 -0.18675	  3.15014	710.50000	 21.40	
 20.405	150.835	  2.50526	 -0.49115	  2.63570	  1.81330	 -0.02479	 -0.18054	  3.15067	710.50000	 21.40	
 20.401	155.705	  2.50043	 -0.54261	  2.72180	  1.65496	  0.08569	 -0.17437	  3.15197	710.47998	 21.40	
 20.392	160.496	  2.49715	 -0.58110	  2.79363	  1.49195	  0.20961	 -0.16785	  3.15191	710.40002	 21.40	
 20.410	165.423	  2.48999	 -0.61746	  2.85173	  1.31849	  0.34154	 -0.15983	  3.15051	710.34998	 21.40	
 20.407	170.264	  2.48861	 -0.63867	  2.89354	  1.15885	  0.48095	 -0.15215	  3.15143	710.54999	 21.40	
 20.401	175.153	  2.48442	 -0.65569	  2.91944	  0.99180	  0.62838	 -0.14806	  3.15259	710.39001	 21.40	
  0.141	 45.000	  3.15299	  1.43618	  1.40978	  1.38333	  1.39932	  0.07568	  3.15178	710.41998	 21.40	
  4.001	128.691	  3.14505	  1.16947	  1.61226	  1.64564	  1.08079	  0.05230	  3.15194	710.39001	 21.40	
  4.002	 76.995	  3.15033	  1.47290	  1.29293	  1.71757	  1.03243	  0.06312	  3.15449	709.84003	 21.40	
  4.002	 25.892	  3.14792	  1.73089	  1.06407	  1.49121	  1.21715	  0.06630	  3.15203	709.76001	 21.40	
  4.002	-25.892	  3.14475	  1.71832	  1.07034	  1.16917	  1.53686	  0.05716	  3.15141	710.46997	 21.40	
  4.002	-76.995	  3.14209	  1.45011	  1.30248	  0.99077	  1.74783	  0.04297	  3.15400	710.47998	 21.40	
  4.001	-128.691	  3.13773	  1.15238	  1.62303	  1.05474	  1.65773	  0.03678	  3.15142	710.42999	 21.40	
  4.000	180.000	  3.13873	  1.03306	  1.77150	  1.33586	  1.35155	  0.04044	  3.15034	710.46997	 21.40	
  8.000	180.000	  3.07547	  0.60071	  2.13695	  1.27336	  1.27149	 -0.01321	  3.15517	710.53998	 21.40	
  7.991	-152.370	  3.06661	  0.66928	  2.03977	  0.91986	  1.64119	 -0.01747	  3.15109	710.56000	 21.40	
  7.997	-124.550	  3.06898	  0.87597	  1.77670	  0.66626	  1.95107	 -0.02159	  3.15419	710.46002	 21.40	
  8.006	-96.837	  3.06847	  1.19542	  1.41485	  0.55140	  2.10950	 -0.02166	  3.15254	710.50000	 21.40	
  7.988	-69.228	  3.07314	  1.55830	  1.05475	  0.58168	  2.06937	 -0.00988	  3.14948	710.48999	 21.40	
  7.997	-41.563	  3.08376	  1.89229	  0.77569	  0.75756	  1.84968	 -0.00117	  3.15327	710.48999	 21.40	
  8.008	-13.821	  3.09032	  2.09728	  0.62408	  1.06389	  1.50309	  0.01769	  3.15337	710.44000	 21.40	
  8.008	 13.821	  3.09257	  2.10933	  0.61751	  1.43454	  1.13389	  0.02741	  3.15330	710.47998	 21.40	
  7.997	 41.563	  3.09444	  1.92579	  0.76145	  1.79165	  0.82637	  0.02919	  3.14886	710.39001	 21.40	
  7.988	 69.228	  3.09874	  1.60826	  1.03510	  2.04053	  0.63735	  0.02649	  3.15464	710.46002	 21.40	
  8.006	 96.837	  3.09288	  1.23810	  1.38771	  2.09923	  0.58610	  0.01400	  3.15312	710.40002	 21.40	
  7.997	124.550	  3.08610	  0.90995	  1.75071	  1.95540	  0.68999	  0.00773	  3.15018	710.52002	 21.40	
  7.991	152.370	  3.07779	  0.68443	  2.02589	  1.65318	  0.92494	 -0.00314	  3.15039	710.45001	 21.40	
 12.009	161.059	  2.94852	  0.22568	  2.37063	  1.56337	  0.78587	 -0.07045	  3.14941	710.51001	 21.40	
 12.013	142.081	  2.95571	  0.37946	  2.15770	  1.93175	  0.49183	 -0.06678	  3.14905	710.44000	 21.40	
 12.006	123.113	  2.96789	  0.62708	  1.84246	  2.21818	  0.29085	 -0.06017	  3.14978	710.40997	 21.40	
 12.007	104.200	  2.97342	  0.94675	  1.46861	  2.38893	  0.17621	 -0.05585	  3.14910	710.46002	 21.40	
 11.989	 85.301	  2.97518	  1.31801	  1.08606	  2.41568	  0.16087	 -0.05109	  3.14735	709.78998	 21.40	
 12.013	 66.294	  2.97676	  1.70471	  0.73736	  2.30086	  0.24040	 -0.04343	  3.14799	709.65997	 21.40	
 12.012	 47.388	  2.97847	  2.04830	  0.46177	  2.05841	  0.41389	 -0.03914	  3.15139	709.65002	 21.40	
 11.990	 28.440	  2.97307	  2.29794	  0.27220	  1.71101	  0.68004	 -0.03280	  3.14917	710.15997	 21.40	
 11.991	  9.464	  2.97189	  2.42925	  0.18076	  1.32070	  1.02468	 -0.03923	  3.15212	710.41998	 21.40	
 11.991	 -9.464	  2.96555	  2.41337	  0.18551	  0.93496	  1.40467	 -0.04857	  3.14926	710.39001	 21.40	
 11.990	-28.440	  2.95747	  2.25864	  0.28334	  0.59323	  1.78565	 -0.06107	  3.14866	710.28998	 21.40	
 12.012	-47.388	  2.95181	  1.98986	  0.47832	  0.33379	  2.11504	 -0.07179	  3.15218	710.35999	 21.40	
 12.013	-66.294	  2.94313	  1.63570	  0.76712	  0.17020	  2.34082	 -0.07374	  3.15087	710.39001	 21.40	
 11.989	-85.301	  2.93883	  1.25013	  1.12626	  0.10795	  2.43376	 -0.07798	  3.15284	710.44000	 21.40	
 12.007	-104.200	  2.93264	  0.88835	  1.50865	  0.13874	  2.38637	 -0.07583	  3.15278	710.40002	 21.40	
 12.006	-123.113	  2.92606	  0.57692	  1.87800	  0.26113	  2.20080	 -0.07792	  3.14981	710.29999	 21.40	
 12.013	-142.081	  2.93007	  0.34748	  2.18873	  0.48895	  1.90235	 -0.07596	  3.15179	710.37000	 21.40	
 12.009	-161.059	  2.93721	  0.21132	  2.38654	  0.79607	  1.53558	 -0.07756	  3.15412	710.46997	 21.40	
 16.000	180.000	  2.75828	 -0.23382	  2.71345	  1.02453	  0.99160	 -0.12356	  3.15532	710.59998	 21.40	
 15.990	-165.604	  2.74722	 -0.20590	  2.66361	  0.65785	  1.37318	 -0.11725	  3.15366	710.41998	 21.40	
 16.002	-151.165	  2.74016	 -0.11285	  2.51072	  0.33621	  1.75785	 -0.10762	  3.15283	710.41998	 21.40	
 16.002	-136.836	  2.73792	  0.04406	  2.26324	  0.07239	  2.10895	 -0.10401	  3.15461	710.46997	 21.40	
 15.995	-122.439	  2.73419	  0.27064	  1.93699	 -0.12440	  2.39803	 -0.09676	  3.15400	710.41998	 21.40	
 15.993	-107.966	  2.73451	  0.56236	  1.56040	 -0.24961	  2.60063	 -0.09362	  3.15383	710.53998	 21.40	
 16.005	-93.629	  2.73813	  0.90666	  1.17107	 -0.30508	  2.69401	 -0.09285	  3.15051	710.46002	 21.40	
 15.992	-79.234	  2.74499	  1.28580	  0.79616	 -0.29617	  2.67960	 -0.09797	  3.15167	710.46002	 21.40	
 16.009	-64.774	  2.75018	  1.67288	  0.45692	 -0.22296	  2.55800	 -0.09923	  3.15290	710.51001	 21.40	
 15.997	-50.364	  2.76058	  2.03507	  0.18084	 -0.07347	  2.33004	 -0.10771	  3.15213	710.35999	 21.40	
 15.997	-36.045	  2.76678	  2.33743	 -0.02973	  0.13982	  2.02186	 -0.11040	  3.15051	710.37000	 21.40	
 16.000	-21.597	  2.77512	  2.56223	 -0.16821	  0.42755	  1.65455	 -0.10911	  3.15160	710.44000	 21.40	
 16.003	 -7.169	  2.78454	  2.68673	 -0.23621	  0.77515	  1.26356	 -0.11011	  3.15518	710.46997	 21.40	
 16.003	  7.169	  2.78843	  2.69928	 -0.23769	  1.15834	  0.88433	 -0.11065	  3.15329	710.47998	 21.40	
 16.000	 21.597	  2.79125	  2.60193	 -0.17413	  1.55281	  0.53632	 -0.10737	  3.15016	710.46997	 21.40	
 15.997	 36.045	  2.80049	  2.40524	 -0.04226	  1.93545	  0.24435	 -0.11533	  3.15494	710.46002	 21.40	
 15.997	 50.364	  2.80201	  2.11533	  0.15712	  2.26362	  0.01675	 -0.12600	  3.15215	710.38000	 21.40	
 16.009	 64.774	  2.80396	  1.76050	  0.42663	  2.51431	 -0.14153	 -0.13024	  3.15394	709.59998	 21.40	
 15.992	 79.234	  2.80219	  1.37671	  0.74864	  2.65911	 -0.23026	 -0.13485	  3.14969	709.67999	 21.40	
 16.005	 93.629	  2.80093	  0.99430	  1.11599	  2.69470	 -0.25209	 -0.13823	  3.15017	709.66998	 21.40	
 15.993	107.966	  2.79960	  0.64187	  1.50291	  2.62158	 -0.20885	 -0.13388	  3.15273	709.81000	 21.40	
 15.995	122.439	  2.79049	  0.33240	  1.88164	  2.43532	 -0.10001	 -0.13810	  3.15173	709.70001	 21.40	
 16.002	136.836	  2.78403	  0.09161	  2.21706	  2.15704	  0.08050	 -0.14059	  3.15373	709.78998	 21.40	
 16.002	151.165	  2.77188	 -0.08762	  2.47818	  1.80959	  0.31864	 -0.13598	  3.15128	709.76001	 21.40	
 15.990	165.604	  2.76395	 -0.19200	  2.64735	  1.42128	  0.63151	 -0.12900	  3.15263	709.71997	 21.40	
 20.003	168.362	  2.51564	 -0.58775	  2.86001	  1.23407	  0.45402	 -0.15540	  3.14868	709.75000	 21.40	
 20.008	156.764	  2.52356	 -0.51154	  2.72153	  1.62391	  0.14318	 -0.17252	  3.14721	709.71997	 21.40	
 20.000	145.147	  2.53635	 -0.37547	  2.50257	  1.99772	 -0.10896	 -0.18351	  3.14889	709.73999	 21.40	
 19.995	133.545	  2.54447	 -0.19927	  2.21455	  2.32261	 -0.31686	 -0.19618	  3.14881	709.82001	 21.40	
 20.009	121.926	  2.55575	  0.03798	  1.87473	  2.59480	 -0.47017	 -0.20827	  3.15001	709.78998	 21.40	
 20.005	110.327	  2.56263	  0.32137	  1.50315	  2.78505	 -0.57024	 -0.20900	  3.15033	709.78998	 21.40	
 19.989	 98.733	  2.57037	  0.65012	  1.12407	  2.88931	 -0.62369	 -0.21379	  3.15319	710.01001	 21.40	
 19.999	 87.075	  2.57238	  1.01614	  0.75234	  2.90156	 -0.62783	 -0.22025	  3.15117	709.91998	 21.40	
 19.992	 75.457	  2.56914	  1.39438	  0.40659	  2.82877	 -0.59324	 -0.21938	  3.15024	710.53998	 21.40	
 20.009	 63.844	  2.56692	  1.77196	  0.10610	  2.66833	 -0.50596	 -0.21541	  3.15297	710.58002	 21.40	
 19.989	 52.269	  2.56639	  2.12485	 -0.13997	  2.41893	 -0.36232	 -0.20938	  3.15065	710.56000	 21.40	
 19.999	 40.602	  2.56097	  2.43275	 -0.33859	  2.10220	 -0.16726	 -0.20320	  3.14957	710.59003	 21.40	
 20.004	 29.051	  2.55661	  2.67271	 -0.48117	  1.74069	  0.08176	 -0.19051	  3.15006	710.52002	 21.40	
 20.005	 17.433	  2.54997	  2.83177	 -0.57815	  1.35383	  0.37526	 -0.17493	  3.15084	709.85999	 21.40	
 20.006	  5.780	  2.54411	  2.90494	 -0.62367	  0.96123	  0.71803	 -0.15752	  3.15123	710.56000	 21.40	
 20.006	 -5.780	  2.53727	  2.88923	 -0.62205	  0.59056	  1.08862	 -0.15075	  3.14797	710.59003	 21.40	
 20.005	-17.433	  2.53261	  2.79117	 -0.57665	  0.24894	  1.47586	 -0.13568	  3.15225	710.46997	 21.40	
 20.004	-29.051	  2.52732	  2.60726	 -0.47078	 -0.04004	  1.85730	 -0.13101	  3.15011	709.84998	 21.40	
 19.999	-40.602	  2.51768	  2.34678	 -0.32073	 -0.27713	  2.20063	 -0.12091	  3.14963	710.53003	 21.40	
 19.989	-52.269	  2.51443	  2.02734	 -0.11298	 -0.46124	  2.49948	 -0.11500	  3.15650	710.45001	 21.40	
 20.009	-63.844	  2.50046	  1.66533	  0.14470	 -0.59041	  2.71847	 -0.10536	  3.15169	710.47998	 21.40	
 19.992	-75.457	  2.49160	  1.28175	  0.45621	 -0.66907	  2.85775	 -0.10188	  3.15124	710.51001	 21.40	
 19.999	-87.075	  2.48690	  0.90751	  0.80868	 -0.69644	  2.90858	 -0.09976	  3.15205	710.52002	 21.40	
 19.989	-98.733	  2.48080	  0.55095	  1.18604	 -0.67714	  2.87143	 -0.09862	  3.15115	710.50000	 21.40	
 20.005	-110.327	  2.47614	  0.23490	  1.56916	 -0.60960	  2.74731	 -0.09810	  3.14963	710.47998	 21.40	
 20.009	-121.926	  2.47893	 -0.03913	  1.94073	 -0.49502	  2.54267	 -0.09671	  3.15239	709.90002	 21.40	
 19.995	-133.545	  2.47762	 -0.25938	  2.27370	 -0.32944	  2.26308	 -0.10355	  3.15049	710.58002	 21.40	
 20.000	-145.147	  2.48746	 -0.42448	  2.55542	 -0.10488	  1.93169	 -0.11089	  3.15448	710.21002	 21.40	
 20.008	-156.764	  2.49163	 -0.54269	  2.75946	  0.16651	  1.56112	 -0.11750	  3.15343	709.89001	 21.40	
 20.003	-168.362	  2.49882	 -0.60256	  2.87669	  0.49060	  1.17995	 -0.12834	  3.15068	710.56000	 21.40	
 20.000	180.000	  2.50901	 -0.61869	  2.91217	  0.85016	  0.80506	 -0.13936	  3.15088	710.54999	 21.40	
