FileType=PCF
NHL=14
Date=03/19/19	09:40:03
Facility=APL
Serial=16071-6
Customer=NASA
NP=6
Mach=0.150000
Calibration=1:1
CalPts=490
TstPts=95
PortNumbering=AP Standard
Units=Torr C m/s kg/m^3 deg mm 
Theta[deg]	Phi[deg]	P1[Torr]	P2[Torr]	P3[Torr]	P4[Torr]	P5[Torr]	P6[Torr]	Pt[Torr]	Ps[Abs,Torr]	Ts[C]	
  0.000	  0.000	 11.11942	  4.85348	  4.89445	  4.69654	  4.79614	  0.28131	 11.14098	715.46997	 19.00	
  1.691	128.401	 11.11525	  4.50556	  5.23464	  5.16300	  4.32878	  0.27493	 11.14710	715.56000	 19.00	
  1.692	 77.194	 11.11245	  4.98032	  4.74024	  5.26749	  4.22477	  0.29088	 11.14019	715.38000	 19.00	
  1.699	 26.182	 11.11929	  5.37500	  4.35902	  4.93884	  4.53887	  0.29485	 11.14444	715.35999	 19.00	
  1.699	-26.182	 11.11774	  5.36343	  4.36584	  4.41417	  5.05263	  0.28434	 11.14159	715.38000	 19.00	
  1.692	-77.194	 11.11531	  4.95663	  4.76313	  4.12738	  5.35055	  0.26392	 11.14373	715.39001	 19.00	
  1.691	-128.401	 11.10731	  4.48412	  5.25304	  4.25123	  5.22282	  0.25170	 11.13739	715.41998	 18.90	
  1.700	180.000	 11.11477	  4.28886	  5.47154	  4.70058	  4.77160	  0.25462	 11.14608	715.50000	 18.90	
  3.400	180.000	 11.08643	  3.69936	  6.04561	  4.65918	  4.70836	  0.20762	 11.14454	715.45001	 18.90	
  3.388	-152.325	 11.07828	  3.80850	  5.91366	  4.14472	  5.23649	  0.20491	 11.13923	715.46002	 18.90	
  3.397	-124.529	 11.08544	  4.15321	  5.51408	  3.74219	  5.68999	  0.19681	 11.14617	715.53003	 18.90	
  3.399	-96.763	 11.08944	  4.62849	  5.00098	  3.54922	  5.89852	  0.21057	 11.14403	715.53998	 18.80	
  3.394	-69.283	 11.09824	  5.18654	  4.44915	  3.60283	  5.84458	  0.22649	 11.14168	715.40997	 18.80	
  3.400	-41.398	 11.09718	  5.66408	  4.00448	  3.88335	  5.54331	  0.25270	 11.13786	715.37000	 18.80	
  3.401	-14.021	 11.11175	  5.95793	  3.76128	  4.35168	  5.05319	  0.27396	 11.14832	715.40002	 18.80	
  3.401	 14.021	 11.10458	  5.96887	  3.75172	  4.90899	  4.49780	  0.28617	 11.13702	715.34998	 18.80	
  3.400	 41.398	 11.11270	  5.71672	  3.97804	  5.40459	  4.02571	  0.29067	 11.14364	715.33002	 18.80	
  3.394	 69.283	 11.10707	  5.23504	  4.42576	  5.75772	  3.73370	  0.26322	 11.14341	715.40997	 18.80	
  3.399	 96.763	 11.10243	  4.69025	  4.95070	  5.87569	  3.63476	  0.26714	 11.14259	715.34003	 18.70	
  3.397	124.529	 11.09481	  4.19827	  5.46604	  5.65574	  3.79936	  0.22772	 11.14201	715.39001	 18.70	
  3.388	152.325	 11.08514	  3.84191	  5.88262	  5.20184	  4.19045	  0.21648	 11.13598	715.42999	 18.70	
  5.099	161.165	 11.02734	  3.17833	  6.47266	  5.17234	  4.04571	  0.13734	 11.13994	715.45001	 18.70	
  5.109	142.013	 11.03628	  3.43878	  6.16337	  5.72350	  3.56614	  0.15024	 11.14124	715.39001	 18.70	
  5.095	123.033	 11.04281	  3.84273	  5.69433	  6.13782	  3.23609	  0.16957	 11.13969	715.40002	 18.70	
  5.105	104.191	 11.04795	  4.35141	  5.13604	  6.38570	  3.04960	  0.19319	 11.13636	715.34003	 18.70	
  5.093	 85.207	 11.06154	  4.90506	  4.58424	  6.41610	  3.03862	  0.21474	 11.14016	715.51001	 18.50	
  5.104	 66.290	 11.05940	  5.46736	  4.04019	  6.24084	  3.17511	  0.21818	 11.13486	715.33002	 18.50	
  5.094	 47.331	 11.05912	  5.97375	  3.59735	  5.89072	  3.46655	  0.24228	 11.13347	715.41998	 18.50	
  5.089	 28.397	 11.06058	  6.34081	  3.29281	  5.41060	  3.89913	  0.25809	 11.13556	715.46002	 18.50	
  5.096	  9.576	 11.06001	  6.51091	  3.15025	  4.84681	  4.41749	  0.22723	 11.13606	715.44000	 18.40	
  5.096	 -9.576	 11.06385	  6.51484	  3.14584	  4.26987	  4.99747	  0.24070	 11.14279	715.47998	 18.50	
  5.089	-28.397	 11.04931	  6.27504	  3.32358	  3.75557	  5.52895	  0.19802	 11.13187	715.40997	 18.50	
  5.094	-47.331	 11.03912	  5.88783	  3.64760	  3.32743	  6.01738	  0.18641	 11.12463	715.34003	 18.40	
  5.104	-66.290	 11.03738	  5.38620	  4.09221	  3.04076	  6.34505	  0.16281	 11.13305	715.50000	 18.40	
  5.093	-85.207	 11.02560	  4.80490	  4.64117	  2.91996	  6.47577	  0.13449	 11.12962	715.42999	 18.40	
  5.105	-104.191	 11.02531	  4.24608	  5.22527	  2.96027	  6.41374	  0.12609	 11.13979	715.39001	 18.40	
  5.095	-123.033	 11.01207	  3.76165	  5.75307	  3.16768	  6.14567	  0.12098	 11.13433	715.45001	 18.40	
  5.109	-142.013	 11.01371	  3.37786	  6.21151	  3.53396	  5.70821	  0.11137	 11.13545	715.40997	 18.40	
  5.099	-161.165	 11.00699	  3.14629	  6.49165	  4.02245	  5.15830	  0.11554	 11.13231	715.41998	 18.40	
  5.100	180.000	 11.02069	  3.08145	  6.58599	  4.58627	  4.59441	  0.11978	 11.13891	715.46997	 18.40	
  6.800	180.000	 10.91653	  2.42716	  7.13411	  4.48992	  4.46205	  0.03316	 11.13625	715.44000	 18.40	
  6.796	-166.229	 10.90914	  2.47712	  7.07043	  3.94391	  5.01481	  0.03109	 11.13371	715.52002	 18.40	
  6.808	-152.311	 10.90401	  2.64086	  6.85649	  3.41399	  5.58877	  0.02614	 11.12983	715.41998	 18.40	
  6.795	-138.383	 10.91101	  2.91546	  6.51511	  2.97514	  6.10884	  0.01826	 11.13919	715.40997	 18.40	
  6.792	-124.591	 10.91473	  3.28583	  6.07055	  2.63603	  6.52553	  0.02095	 11.13948	715.45001	 18.40	
  6.787	-110.754	 10.91808	  3.74711	  5.54353	  2.41146	  6.82452	  0.02586	 11.13739	715.53998	 18.40	
  6.800	-96.985	 10.92212	  4.25750	  4.98676	  2.28677	  6.99637	  0.03205	 11.13830	715.47998	 18.40	
  6.800	-83.015	 10.93254	  4.82416	  4.41916	  2.29080	  7.01450	  0.04262	 11.13651	715.44000	 18.40	
  6.787	-69.246	 10.94458	  5.37832	  3.89453	  2.40701	  6.88293	  0.06213	 11.13319	715.45001	 18.40	
  6.792	-55.409	 10.95026	  5.91385	  3.41651	  2.62185	  6.61675	  0.08226	 11.13351	715.46002	 18.40	
  6.795	-41.617	 10.95765	  6.37437	  3.02712	  2.94729	  6.22337	  0.09958	 11.13530	715.41998	 18.40	
  6.808	-27.689	 10.96572	  6.74107	  2.73659	  3.37214	  5.72757	  0.12198	 11.13356	715.51001	 18.40	
  6.796	-13.771	 10.96861	  6.97500	  2.55348	  3.87850	  5.16803	  0.14529	 11.13045	715.42999	 18.40	
  6.800	  0.000	 10.97896	  7.06847	  2.48438	  4.42163	  4.61009	  0.15572	 11.13389	715.47998	 18.40	
  6.796	 13.771	 10.97380	  7.00424	  2.53075	  4.99511	  4.05179	  0.16598	 11.12934	715.35999	 18.40	
  6.808	 27.689	 10.97688	  6.80482	  2.68684	  5.57052	  3.53199	  0.17016	 11.13318	715.51001	 18.40	
  6.795	 41.617	 10.97452	  6.45992	  2.96276	  6.07033	  3.10139	  0.15951	 11.12664	715.40997	 18.30	
  6.792	 55.409	 10.97987	  6.02336	  3.33644	  6.49135	  2.76279	  0.15329	 11.13108	715.59003	 18.30	
  6.787	 69.246	 10.97748	  5.49912	  3.79981	  6.79548	  2.52510	  0.14979	 11.13070	715.56000	 18.30	
  6.800	 83.015	 10.96878	  4.94181	  4.31339	  6.95751	  2.38851	  0.12966	 11.12904	715.54999	 18.40	
  6.800	 96.985	 10.95628	  4.37620	  4.87638	  6.96867	  2.36810	  0.11490	 11.11924	715.48999	 18.30	
  6.787	110.754	 10.95143	  3.84459	  5.44165	  6.82658	  2.46843	  0.10800	 11.12352	715.53003	 18.30	
  6.792	124.591	 10.93593	  3.36686	  5.97216	  6.53912	  2.67640	  0.08606	 11.11906	715.44000	 18.30	
  6.795	138.383	 10.93354	  2.98155	  6.43401	  6.13919	  2.99314	  0.06853	 11.12492	715.51001	 18.30	
  6.808	152.311	 10.91760	  2.68060	  6.80042	  5.64747	  3.39778	  0.06025	 11.12405	715.56000	 18.30	
  6.796	166.229	 10.91271	  2.49785	  7.03559	  5.07765	  3.90190	  0.04316	 11.12328	715.51001	 18.30	
  8.491	168.704	 10.77132	  1.82015	  7.56578	  4.97116	  3.72677	 -0.05301	 11.12284	715.52002	 18.30	
  8.502	157.493	 10.77440	  1.96336	  7.36887	  5.55464	  3.19887	 -0.03944	 11.11807	715.59003	 18.30	
  8.494	146.194	 10.78650	  2.21700	  7.04893	  6.09782	  2.75281	 -0.03011	 11.11937	715.58002	 18.30	
  8.495	135.039	 10.79743	  2.54232	  6.64104	  6.58210	  2.37138	 -0.02326	 11.12110	715.53998	 18.30	
  8.487	123.723	 10.81190	  2.95768	  6.14726	  6.98590	  2.06400	 -0.00914	 11.12295	715.64001	 18.30	
  8.492	112.575	 10.81888	  3.42534	  5.60829	  7.28125	  1.84720	  0.00885	 11.12064	715.56000	 18.30	
  8.510	101.220	 10.82462	  3.96140	  5.02315	  7.47140	  1.71305	  0.00964	 11.11896	715.57001	 18.30	
  8.500	 90.000	 10.82946	  4.52975	  4.44353	  7.51603	  1.68812	  0.01953	 11.11228	715.51001	 18.30	
  8.510	 78.780	 10.83354	  5.10291	  3.88570	  7.44525	  1.74369	  0.03647	 11.11433	715.59003	 18.30	
  8.492	 67.425	 10.84976	  5.68872	  3.36035	  7.24392	  1.90733	  0.05615	 11.12618	715.63000	 18.30	
  8.487	 56.277	 10.84633	  6.21329	  2.89896	  6.92316	  2.15268	  0.06145	 11.11857	715.66998	 18.30	
  8.495	 44.961	 10.85107	  6.68953	  2.50938	  6.50533	  2.48700	  0.06895	 11.12223	715.59003	 18.30	
  8.494	 33.806	 10.85078	  7.07670	  2.20302	  6.00844	  2.89395	  0.08272	 11.12134	715.57001	 18.30	
  8.502	 22.507	 10.83901	  7.36457	  1.97629	  5.45718	  3.36231	  0.09006	 11.11459	715.67999	 18.30	
  8.491	 11.296	 10.83985	  7.53236	  1.85142	  4.86729	  3.90378	  0.07934	 11.11648	715.60999	 18.30	
  8.500	  0.000	 10.84153	  7.58583	  1.81387	  4.27142	  4.48135	  0.06350	 11.11807	715.59998	 18.30	
  8.491	-11.296	 10.83690	  7.50562	  1.87318	  3.70993	  5.06057	  0.05594	 11.11803	715.54999	 18.30	
  8.502	-22.507	 10.82901	  7.30482	  2.01798	  3.17729	  5.63971	  0.03748	 11.11778	715.53998	 18.30	
  8.494	-33.806	 10.81794	  6.97973	  2.26407	  2.70236	  6.18440	  0.01223	 11.11502	715.53998	 18.30	
  8.495	-44.961	 10.80675	  6.56410	  2.59258	  2.31682	  6.65146	 -0.01338	 11.11416	715.52002	 18.30	
  8.487	-56.277	 10.80372	  6.07328	  3.00018	  2.00860	  7.04266	 -0.02409	 11.12144	715.67999	 18.30	
  8.492	-67.425	 10.78464	  5.53242	  3.46558	  1.77545	  7.32946	 -0.04144	 11.11623	715.58002	 18.30	
  8.510	-78.780	 10.77735	  4.95234	  4.00163	  1.63105	  7.50760	 -0.06705	 11.12045	715.65997	 18.30	
  8.500	-90.000	 10.76351	  4.37636	  4.56586	  1.59160	  7.54271	 -0.07476	 11.11721	715.47998	 18.30	
  8.510	-101.220	 10.75274	  3.81906	  5.14691	  1.64176	  7.46001	 -0.08106	 11.11566	715.56000	 18.30	
  8.492	-112.575	 10.74352	  3.29323	  5.72150	  1.79420	  7.24070	 -0.07944	 11.10944	715.51001	 18.30	
  8.487	-123.723	 10.74153	  2.84448	  6.25717	  2.03301	  6.92493	 -0.08258	 11.11451	715.56000	 18.30	
  8.495	-135.039	 10.74437	  2.45791	  6.73324	  2.36092	  6.50355	 -0.08200	 11.11884	715.47998	 18.30	
  8.494	-146.194	 10.74278	  2.15247	  7.12310	  2.76047	  6.01725	 -0.07601	 11.11961	715.53003	 18.30	
  8.502	-157.493	 10.74850	  1.92649	  7.41994	  3.25075	  5.45831	 -0.06871	 11.12148	715.56000	 18.30	
  8.491	-168.704	 10.74849	  1.80009	  7.59028	  3.78874	  4.87036	 -0.06683	 11.11344	715.51001	 18.30	
  8.500	180.000	 10.75288	  1.75463	  7.64143	  4.35972	  4.29478	 -0.06466	 11.11672	715.52002	 18.30	
 10.200	180.000	 10.57227	  1.11499	  8.12479	  4.21266	  4.11749	 -0.16628	 11.11624	715.47998	 18.30	
 10.191	-170.497	 10.56646	  1.14696	  8.08209	  3.63872	  4.69611	 -0.17017	 11.11353	715.60999	 18.30	
 10.210	-161.034	 10.56056	  1.24296	  7.94190	  3.07955	  5.29449	 -0.16823	 11.11496	715.51001	 18.30	
 10.194	-151.526	 10.55187	  1.42364	  7.68570	  2.56871	  5.87192	 -0.17288	 11.11363	715.48999	 18.30	
 10.190	-142.105	 10.55434	  1.68053	  7.34877	  2.12995	  6.40642	 -0.17909	 11.11885	715.51001	 18.30	
 10.215	-132.646	 10.55025	  1.99782	  6.92427	  1.73853	  6.89404	 -0.18927	 11.11644	715.46997	 18.30	
 10.203	-123.092	 10.54587	  2.39895	  6.41834	  1.41879	  7.31815	 -0.18505	 11.11372	715.46002	 18.30	
 10.192	-113.678	 10.55614	  2.84719	  5.88578	  1.18596	  7.64822	 -0.17915	 11.12127	715.62000	 18.30	
 10.208	-104.249	 10.56217	  3.35431	  5.31005	  1.01617	  7.88803	 -0.18247	 11.11583	715.53003	 18.30	
 10.210	-94.801	 10.57125	  3.90280	  4.71842	  0.93058	  8.02048	 -0.18484	 11.11930	715.50000	 18.30	
 10.210	-85.199	 10.57943	  4.48806	  4.12408	  0.92176	  8.04239	 -0.17787	 11.11521	715.47998	 18.30	
 10.208	-75.751	 10.59653	  5.07494	  3.56496	  0.99302	  7.96318	 -0.16487	 11.11936	715.46002	 18.30	
 10.192	-66.322	 10.60644	  5.65464	  3.04072	  1.14425	  7.76465	 -0.14994	 11.11678	715.53998	 18.30	
 10.203	-56.908	 10.61420	  6.20687	  2.57018	  1.36814	  7.46450	 -0.13908	 11.11290	715.44000	 18.30	
 10.215	-47.354	 10.62981	  6.72157	  2.15341	  1.67063	  7.07391	 -0.13297	 11.11568	715.46002	 18.30	
 10.190	-37.895	 10.64254	  7.17268	  1.80369	  2.04811	  6.60655	 -0.11035	 11.11423	715.60999	 18.30	
 10.194	-28.474	 10.64865	  7.53831	  1.52229	  2.47062	  6.08729	 -0.08229	 11.11179	715.64001	 18.30	
 10.210	-18.966	 10.65580	  7.82261	  1.31654	  2.97221	  5.51207	 -0.06303	 11.11099	715.57001	 18.30	
 10.191	 -9.503	 10.66485	  7.99563	  1.19955	  3.52236	  4.91932	 -0.04843	 11.11470	715.47998	 18.30	
 10.200	  0.000	 10.66833	  8.07075	  1.15005	  4.09029	  4.33601	 -0.03417	 11.11434	715.46002	 18.30	
 10.191	  9.503	 10.67443	  8.03554	  1.18082	  4.69833	  3.74990	 -0.01976	 11.11719	715.51001	 18.30	
 10.210	 18.966	 10.67201	  7.89041	  1.28177	  5.30189	  3.19490	 -0.00567	 11.11407	715.44000	 18.30	
 10.194	 28.474	 10.67394	  7.63537	  1.46935	  5.87513	  2.69983	 -0.00498	 11.10860	715.52002	 18.30	
 10.190	 37.895	 10.68437	  7.30406	  1.73007	  6.42122	  2.25431	 -0.02188	 11.11828	715.44000	 18.30	
 10.215	 47.354	 10.68802	  6.87669	  2.05753	  6.92343	  1.85683	 -0.04063	 11.11961	715.45001	 18.30	
 10.203	 56.908	 10.68041	  6.37788	  2.45581	  7.33109	  1.53736	 -0.05264	 11.11296	715.51001	 18.40	
 10.192	 66.322	 10.68719	  5.84530	  2.92078	  7.64980	  1.30821	 -0.05102	 11.12271	715.57001	 18.40	
 10.208	 75.751	 10.68283	  5.27217	  3.43172	  7.87872	  1.14164	 -0.06208	 11.12179	715.59003	 18.40	
 10.210	 85.199	 10.67201	  4.67931	  3.98498	  7.99572	  1.05112	 -0.07997	 11.11377	715.47998	 18.40	
 10.210	 94.801	 10.67181	  4.09366	  4.57087	  8.00828	  1.04342	 -0.09341	 11.12360	715.53998	 18.40	
 10.208	104.249	 10.65856	  3.53120	  5.15627	  7.90793	  1.10264	 -0.09579	 11.11671	715.66998	 18.40	
 10.192	113.678	 10.65822	  3.00879	  5.74028	  7.70915	  1.24279	 -0.09779	 11.12508	715.35999	 18.40	
 10.203	123.092	 10.63101	  2.53118	  6.27716	  7.40312	  1.44131	 -0.11295	 11.11056	715.46002	 18.40	
 10.215	132.646	 10.62395	  2.10277	  6.79903	  7.01078	  1.72531	 -0.13620	 11.11940	715.44000	 18.40	
 10.190	142.105	 10.61453	  1.76080	  7.24441	  6.52897	  2.09468	 -0.13621	 11.11795	715.59003	 18.40	
 10.194	151.526	 10.60722	  1.48300	  7.61312	  5.99850	  2.51847	 -0.13713	 11.12227	715.58002	 18.40	
 10.210	161.034	 10.58318	  1.27740	  7.88241	  5.42518	  2.99326	 -0.14159	 11.11003	715.50000	 18.40	
 10.191	170.497	 10.58416	  1.15974	  8.05683	  4.82793	  3.53445	 -0.15675	 11.11538	715.45001	 18.40	
 11.899	171.783	 10.36437	  0.52059	  8.51346	  4.64832	  3.33009	 -0.25679	 11.11575	715.52002	 18.40	
 11.890	163.610	 10.37884	  0.62750	  8.36369	  5.25615	  2.78848	 -0.24234	 11.11985	715.59998	 18.40	
 11.889	155.445	 10.38950	  0.79248	  8.11871	  5.83682	  2.29990	 -0.24187	 11.12024	715.46002	 18.40	
 11.909	147.299	 10.39755	  1.02008	  7.79540	  6.40355	  1.83935	 -0.24550	 11.11665	715.53998	 18.40	
 11.902	139.148	 10.41032	  1.31213	  7.39685	  6.92749	  1.44470	 -0.24350	 11.11960	715.47998	 18.40	
 11.894	130.867	 10.42010	  1.67531	  6.92156	  7.38781	  1.11452	 -0.23512	 11.11684	715.47998	 18.40	
 11.897	122.732	 10.43240	  2.09669	  6.40265	  7.77454	  0.85774	 -0.22043	 11.11766	715.35999	 18.40	
 11.903	114.597	 10.44222	  2.56308	  5.84191	  8.08503	  0.64109	 -0.20675	 11.11703	715.48999	 18.40	
 11.893	106.346	 10.45618	  3.08552	  5.25972	  8.31336	  0.50231	 -0.20970	 11.11711	715.53003	 18.40	
 11.892	 98.155	 10.46045	  3.64170	  4.65668	  8.44304	  0.41974	 -0.21247	 11.11156	715.48999	 18.40	
 11.900	 90.000	 10.46360	  4.21254	  4.07123	  8.48089	  0.39342	 -0.20865	 11.10906	715.47998	 18.40	
 11.892	 81.845	 10.46949	  4.79866	  3.50963	  8.42292	  0.43919	 -0.19297	 11.11182	715.45001	 18.40	
 11.893	 73.654	 10.47942	  5.40159	  2.96246	  8.27162	  0.54713	 -0.17616	 11.11651	715.59003	 18.40	
 11.903	 65.403	 10.48434	  5.97905	  2.45928	  8.02668	  0.71774	 -0.16698	 11.11832	715.47998	 18.40	
 11.897	 57.268	 10.48013	  6.52173	  2.00643	  7.69059	  0.95719	 -0.16187	 11.11050	715.46002	 18.40	
 11.894	 49.133	 10.48304	  7.02640	  1.60648	  7.28942	  1.24831	 -0.15399	 11.11781	715.44000	 18.40	
 11.902	 40.852	 10.47700	  7.48317	  1.25670	  6.80797	  1.60170	 -0.13901	 11.11383	715.50000	 18.40	
 11.909	 32.701	 10.47402	  7.86027	  0.97663	  6.27516	  2.02912	 -0.11274	 11.11439	715.48999	 18.40	
 11.889	 24.555	 10.47335	  8.15362	  0.77371	  5.70044	  2.50474	 -0.09843	 11.11372	715.46002	 18.40	
 11.890	 16.390	 10.47241	  8.36799	  0.62124	  5.11882	  3.01314	 -0.11109	 11.11674	715.37000	 18.40	
 11.899	  8.217	 10.46999	  8.50022	  0.53150	  4.50764	  3.57072	 -0.12519	 11.11909	715.46997	 18.40	
 11.900	  0.000	 10.46524	  8.52810	  0.50729	  3.90180	  4.16082	 -0.14354	 11.11649	715.47998	 18.40	
 11.899	 -8.217	 10.45721	  8.45824	  0.54792	  3.32806	  4.74720	 -0.14986	 11.11154	715.51001	 18.50	
 11.890	-16.390	 10.45299	  8.30167	  0.65236	  2.77237	  5.34538	 -0.16428	 11.11176	715.53003	 18.50	
 11.889	-24.555	 10.44583	  8.05398	  0.82200	  2.25851	  5.93849	 -0.18081	 11.11152	715.45001	 18.50	
 11.909	-32.701	 10.43708	  7.73087	  1.04367	  1.80104	  6.48060	 -0.20751	 11.11376	715.51001	 18.50	
 11.902	-40.852	 10.42612	  7.32449	  1.34421	  1.39327	  6.99767	 -0.23094	 11.11286	715.42999	 18.50	
 11.894	-49.133	 10.41670	  6.84608	  1.71747	  1.04188	  7.46195	 -0.24209	 11.11828	715.45001	 18.50	
 11.897	-57.268	 10.39523	  6.31768	  2.13224	  0.75747	  7.84354	 -0.23906	 11.11046	715.34003	 18.50	
 11.903	-65.403	 10.38451	  5.76695	  2.59305	  0.54421	  8.14036	 -0.23923	 11.11331	715.40997	 18.50	
 11.893	-73.654	 10.37940	  5.18095	  3.11557	  0.40172	  8.35025	 -0.24861	 11.11640	715.46997	 18.50	
 11.892	-81.845	 10.36833	  4.58247	  3.67815	  0.31589	  8.46523	 -0.25830	 11.11228	715.51001	 18.50	
 11.900	-90.000	 10.34928	  3.99669	  4.24836	  0.28556	  8.48729	 -0.25868	 11.10365	715.46002	 18.50	
 11.892	-98.155	 10.34549	  3.43222	  4.83564	  0.32685	  8.42139	 -0.25754	 11.11399	715.53003	 18.50	
 11.893	-106.346	 10.33836	  2.89047	  5.43614	  0.43351	  8.25867	 -0.25657	 11.11713	715.50000	 18.50	
 11.903	-114.597	 10.32730	  2.38810	  6.01583	  0.59567	  8.00320	 -0.25383	 11.11523	715.41998	 18.50	
 11.897	-122.732	 10.32291	  1.94120	  6.56268	  0.82353	  7.67107	 -0.26417	 11.11653	715.44000	 18.50	
 11.894	-130.867	 10.31251	  1.54934	  7.06174	  1.11964	  7.24826	 -0.26804	 11.10886	715.40997	 18.50	
 11.902	-139.148	 10.31931	  1.20958	  7.52414	  1.49274	  6.76509	 -0.26511	 11.11309	715.52002	 18.50	
 11.909	-147.299	 10.32193	  0.93747	  7.90346	  1.90781	  6.24087	 -0.26259	 11.11430	715.45001	 18.50	
 11.889	-155.445	 10.32512	  0.73593	  8.19255	  2.37419	  5.68127	 -0.25804	 11.11102	715.40997	 18.50	
 11.890	-163.610	 10.34151	  0.59236	  8.41540	  2.90059	  5.09184	 -0.25851	 11.11588	715.41998	 18.50	
 11.899	-171.783	 10.34472	  0.50658	  8.54169	  3.46218	  4.49139	 -0.26754	 11.11361	715.46997	 18.50	
 11.900	180.000	 10.35237	  0.48034	  8.57532	  4.03929	  3.90777	 -0.26616	 11.11328	715.41998	 18.50	
 13.600	180.000	 10.09138	 -0.15010	  8.99988	  3.83254	  3.67521	 -0.35190	 11.11266	715.51001	 18.50	
 13.608	-172.853	 10.07950	 -0.12800	  8.97237	  3.26016	  4.25301	 -0.34981	 11.10712	715.50000	 18.50	
 13.611	-165.583	 10.06999	 -0.06351	  8.86091	  2.68740	  4.86262	 -0.33951	 11.10969	715.53998	 18.50	
 13.601	-158.353	 10.07004	  0.06101	  8.66962	  2.15207	  5.47553	 -0.32278	 11.11280	715.33002	 18.50	
 13.609	-151.210	 10.05769	  0.23872	  8.40295	  1.68183	  6.03826	 -0.32137	 11.10896	715.40997	 18.50	
 13.611	-143.999	 10.05156	  0.47270	  8.05668	  1.23982	  6.59539	 -0.31846	 11.10980	715.48999	 18.50	
 13.601	-136.825	 10.04801	  0.75195	  7.64670	  0.84653	  7.10970	 -0.31492	 11.10848	715.40997	 18.50	
 13.596	-129.640	 10.05417	  1.08861	  7.18736	  0.51482	  7.57891	 -0.30676	 11.11364	715.50000	 18.50	
 13.611	-122.431	 10.05412	  1.47921	  6.66793	  0.23742	  7.98691	 -0.29858	 11.10951	715.52002	 18.50	
 13.604	-115.211	 10.05319	  1.91841	  6.11285	  0.00768	  8.32933	 -0.29277	 11.10850	715.46997	 18.50	
 13.595	-108.042	 10.06303	  2.39748	  5.53654	 -0.16222	  8.60104	 -0.28818	 11.10970	715.54999	 18.50	
 13.607	-100.793	 10.06505	  2.92131	  4.93661	 -0.28527	  8.79013	 -0.29520	 11.10867	715.47998	 18.50	
 13.601	-93.617	 10.07725	  3.47948	  4.33795	 -0.34822	  8.90236	 -0.30187	 11.10842	715.48999	 18.50	
 13.601	-86.383	 10.09163	  4.06237	  3.75367	 -0.35441	  8.92741	 -0.30606	 11.11318	715.47998	 18.50	
 13.607	-79.207	 10.09484	  4.64807	  3.18317	 -0.31289	  8.86823	 -0.30362	 11.10711	715.40002	 18.50	
 13.595	-71.958	 10.10946	  5.25252	  2.64017	 -0.20428	  8.71412	 -0.30717	 11.10296	715.53998	 18.50	
 13.604	-64.789	 10.13101	  5.84157	  2.13755	 -0.05378	  8.49356	 -0.29839	 11.11284	715.50000	 18.60	
 13.611	-57.569	 10.14140	  6.40671	  1.66855	  0.15025	  8.18554	 -0.30685	 11.11370	715.59998	 18.60	
 13.596	-50.360	 10.14996	  6.93558	  1.25596	  0.41794	  7.80355	 -0.31643	 11.10863	715.47998	 18.50	
 13.601	-43.175	 10.16448	  7.42074	  0.89365	  0.73505	  7.36414	 -0.31912	 11.11161	715.52002	 18.60	
 13.611	-36.001	 10.17372	  7.85352	  0.58170	  1.11309	  6.85924	 -0.30965	 11.10780	715.53998	 18.60	
 13.609	-28.790	 10.18775	  8.22483	  0.33261	  1.54972	  6.31673	 -0.29024	 11.10826	715.46997	 18.60	
 13.601	-21.647	 10.19860	  8.52250	  0.13720	  2.01262	  5.75697	 -0.28092	 11.11155	715.52002	 18.60	
 13.611	-14.417	 10.19537	  8.74456	 -0.00941	  2.53224	  5.15354	 -0.27020	 11.10376	715.41998	 18.60	
 13.608	 -7.147	 10.20821	  8.89375	 -0.10015	  3.09918	  4.53993	 -0.25790	 11.10878	715.37000	 18.60	
 13.600	  0.000	 10.21404	  8.95084	 -0.13181	  3.67049	  3.95754	 -0.25168	 11.11553	715.53998	 18.60	
 13.608	  7.147	 10.21144	  8.92651	 -0.11711	  4.26971	  3.36754	 -0.24177	 11.11172	715.50000	 18.60	
 13.611	 14.417	 10.22201	  8.82084	 -0.04416	  4.88639	  2.80211	 -0.22756	 11.11651	715.51001	 18.60	
 13.601	 21.647	 10.22554	  8.62515	  0.08992	  5.48222	  2.28819	 -0.21116	 11.10944	715.46997	 18.60	
 13.609	 28.790	 10.22433	  8.35759	  0.26796	  6.07409	  1.79577	 -0.21539	 11.10824	715.46002	 18.60	
 13.611	 36.001	 10.22923	  8.01727	  0.50235	  6.63872	  1.35258	 -0.23548	 11.11119	715.53998	 18.60	
 13.601	 43.175	 10.23186	  7.60916	  0.79128	  7.14971	  0.97428	 -0.25894	 11.10929	715.52002	 18.60	
 13.596	 50.360	 10.23506	  7.14373	  1.13909	  7.61046	  0.63761	 -0.27596	 11.10945	715.48999	 18.60	
 13.611	 57.569	 10.23407	  6.62450	  1.54196	  8.02814	  0.35024	 -0.28447	 11.10953	715.46002	 18.60	
 13.604	 64.789	 10.23259	  6.07035	  1.98505	  8.36944	  0.12027	 -0.29581	 11.11165	715.53998	 18.60	
 13.595	 71.958	 10.22958	  5.49650	  2.47312	  8.62202	 -0.04340	 -0.30268	 11.11033	715.57001	 18.60	
 13.607	 79.207	 10.22838	  4.89725	  3.00422	  8.81481	 -0.16958	 -0.31600	 11.11644	715.62000	 18.60	
 13.601	 86.383	 10.22522	  4.30483	  3.55799	  8.89907	 -0.22660	 -0.32767	 11.10982	715.52002	 18.60	
 13.601	 93.617	 10.22161	  3.72145	  4.13599	  8.91258	 -0.23084	 -0.33155	 11.11382	715.59003	 18.60	
 13.607	100.793	 10.20800	  3.15474	  4.72611	  8.83691	 -0.19169	 -0.33199	 11.10513	715.60999	 18.60	
 13.595	108.042	 10.20392	  2.61380	  5.32262	  8.68054	 -0.09818	 -0.32549	 11.11054	715.51001	 18.60	
 13.604	115.211	 10.19455	  2.11037	  5.90456	  8.44058	  0.04103	 -0.32283	 11.11214	715.53003	 18.60	
 13.611	122.431	 10.18046	  1.64891	  6.46847	  8.12115	  0.24475	 -0.33170	 11.10947	715.46997	 18.60	
 13.596	129.640	 10.16544	  1.23056	  7.00104	  7.72510	  0.50095	 -0.34363	 11.10483	715.53998	 18.60	
 13.601	136.825	 10.15422	  0.86994	  7.48350	  7.27384	  0.80837	 -0.35045	 11.10802	715.47998	 18.60	
 13.611	143.999	 10.13836	  0.56126	  7.91220	  6.77751	  1.15779	 -0.35490	 11.10279	715.53998	 18.60	
 13.609	151.210	 10.13172	  0.30702	  8.28591	  6.22565	  1.57524	 -0.34513	 11.11139	715.53998	 18.70	
 13.601	158.353	 10.11964	  0.11203	  8.58222	  5.64405	  2.04343	 -0.33967	 11.10928	715.37000	 18.60	
 13.611	165.583	 10.10814	 -0.02952	  8.80525	  5.05190	  2.54186	 -0.34222	 11.11023	715.45001	 18.70	
 13.608	172.853	 10.09788	 -0.11982	  8.94147	  4.43561	  3.10036	 -0.34839	 11.11072	715.53998	 18.70	
 15.298	173.587	  9.79956	 -0.71921	  9.31617	  4.19872	  2.85167	 -0.41438	 11.10122	715.42999	 18.70	
 15.291	167.167	  9.80969	 -0.64451	  9.19489	  4.81104	  2.30929	 -0.42242	 11.10668	715.35999	 18.70	
 15.307	160.676	  9.81703	 -0.52547	  8.99827	  5.40775	  1.79566	 -0.42342	 11.10286	715.40997	 18.70	
 15.300	154.261	  9.83275	 -0.35832	  8.73109	  6.00469	  1.32056	 -0.43414	 11.10503	715.45001	 18.70	
 15.288	147.854	  9.84698	 -0.14415	  8.39426	  6.57078	  0.89631	 -0.44823	 11.10744	715.38000	 18.70	
 15.293	141.428	  9.86402	  0.11884	  8.00053	  7.10240	  0.52036	 -0.45795	 11.11071	715.47998	 18.70	
 15.299	134.985	  9.87598	  0.43068	  7.54523	  7.59870	  0.18049	 -0.45921	 11.11149	715.51001	 18.70	
 15.305	128.583	  9.88175	  0.78569	  7.04723	  8.03819	 -0.10917	 -0.44769	 11.10428	715.46002	 18.70	
 15.309	122.142	  9.89273	  1.18820	  6.51390	  8.42937	 -0.34745	 -0.44229	 11.10690	715.39001	 18.70	
 15.304	115.711	  9.90463	  1.64694	  5.94168	  8.75001	 -0.53469	 -0.43226	 11.10673	715.48999	 18.70	
 15.297	109.291	  9.92516	  2.13732	  5.36520	  9.00061	 -0.66991	 -0.43793	 11.10850	715.44000	 18.70	
 15.293	102.897	  9.93420	  2.65627	  4.78226	  9.17442	 -0.76373	 -0.44846	 11.10806	715.47998	 18.70	
 15.293	 96.458	  9.93454	  3.21173	  4.18280	  9.27587	 -0.82431	 -0.46023	 11.10304	715.41998	 18.70	
 15.300	 90.000	  9.94505	  3.78957	  3.59842	  9.30720	 -0.84160	 -0.45750	 11.10770	715.44000	 18.70	
 15.293	 83.542	  9.95152	  4.37650	  3.03640	  9.25872	 -0.80992	 -0.44938	 11.10705	715.53998	 18.70	
 15.293	 77.103	  9.95141	  4.97626	  2.49037	  9.13310	 -0.73464	 -0.44042	 11.10684	715.48999	 18.70	
 15.297	 70.709	  9.95440	  5.55740	  1.98629	  8.93845	 -0.62030	 -0.43073	 11.11146	715.38000	 18.70	
 15.304	 64.289	  9.95386	  6.13170	  1.51301	  8.67606	 -0.45847	 -0.41894	 11.11002	715.47998	 18.70	
 15.309	 57.858	  9.94856	  6.68630	  1.06872	  8.33123	 -0.24709	 -0.41442	 11.10494	715.46002	 18.70	
 15.305	 51.417	  9.94569	  7.21291	  0.67400	  7.92237	  0.02219	 -0.40627	 11.10020	715.50000	 18.70	
 15.299	 45.015	  9.95503	  7.69462	  0.33907	  7.46313	  0.34362	 -0.39255	 11.10614	715.53003	 18.70	
 15.293	 38.572	  9.95056	  8.12434	  0.04465	  6.95119	  0.71125	 -0.36891	 11.10172	715.40002	 18.70	
 15.288	 32.146	  9.94072	  8.49588	 -0.20720	  6.40816	  1.10881	 -0.33935	 11.10250	715.47998	 18.70	
 15.300	 25.739	  9.93589	  8.80902	 -0.41390	  5.82862	  1.56371	 -0.32397	 11.10330	715.44000	 18.70	
 15.307	 19.324	  9.93549	  9.04830	 -0.56188	  5.23118	  2.05757	 -0.32441	 11.10526	715.40997	 18.70	
 15.291	 12.833	  9.93360	  9.21658	 -0.66857	  4.62907	  2.58548	 -0.33554	 11.10266	715.40997	 18.70	
 15.298	  6.413	  9.92930	  9.31180	 -0.72601	  4.02101	  3.15770	 -0.34759	 11.10523	715.46002	 18.70	
 15.300	  0.000	  9.92606	  9.33418	 -0.74249	  3.41880	  3.74554	 -0.35205	 11.10608	715.42999	 18.80	
 15.298	 -6.413	  9.92150	  9.27817	 -0.71345	  2.85154	  4.32523	 -0.35237	 11.10310	715.38000	 18.80	
 15.291	-12.833	  9.91608	  9.14686	 -0.63872	  2.29505	  4.93314	 -0.35250	 11.09969	715.28998	 18.80	
 15.307	-19.324	  9.90672	  8.95163	 -0.52402	  1.75802	  5.54515	 -0.35396	 11.10552	715.46002	 18.80	
 15.300	-25.739	  9.90336	  8.68069	 -0.35880	  1.29001	  6.12003	 -0.36120	 11.10961	715.47998	 18.80	
 15.288	-32.146	  9.89652	  8.34382	 -0.13848	  0.85064	  6.68201	 -0.37125	 11.11329	715.53998	 18.80	
 15.293	-38.572	  9.87858	  7.93555	  0.12747	  0.44723	  7.20705	 -0.36844	 11.10343	715.52002	 18.80	
 15.299	-45.015	  9.86796	  7.48522	  0.44540	  0.10135	  7.68571	 -0.36887	 11.10515	715.52002	 18.80	
 15.305	-51.417	  9.85404	  6.98932	  0.80321	 -0.19164	  8.11219	 -0.35459	 11.09979	715.38000	 18.80	
 15.309	-57.858	  9.83408	  6.44865	  1.21094	 -0.44580	  8.49269	 -0.33559	 11.09752	715.50000	 18.80	
 15.304	-64.289	  9.81813	  5.87698	  1.66385	 -0.64461	  8.80605	 -0.31901	 11.09772	715.48999	 18.80	
 15.297	-70.709	  9.81320	  5.29743	  2.15719	 -0.79200	  9.04972	 -0.31832	 11.10512	715.47998	 18.80	
 15.293	-77.103	  9.79838	  4.70629	  2.68019	 -0.89792	  9.20973	 -0.30913	 11.10289	715.57001	 18.80	
 15.293	-83.542	  9.78423	  4.10572	  3.24478	 -0.96015	  9.29576	 -0.31610	 11.10280	715.57001	 18.80	
 15.300	-90.000	  9.77564	  3.52345	  3.81826	 -0.97226	  9.31476	 -0.30399	 11.10757	715.53003	 18.80	
 15.293	-96.458	  9.76861	  2.95559	  4.41042	 -0.94193	  9.25427	 -0.29960	 11.10854	715.45001	 18.80	
 15.293	-102.897	  9.75871	  2.41092	  5.01607	 -0.86227	  9.11304	 -0.29629	 11.10600	715.50000	 18.80	
 15.297	-109.291	  9.74399	  1.90177	  5.60019	 -0.73654	  8.89458	 -0.29352	 11.09903	715.52002	 18.80	
 15.304	-115.711	  9.74286	  1.43614	  6.17767	 -0.57049	  8.62307	 -0.29396	 11.10351	715.51001	 18.80	
 15.309	-122.142	  9.74074	  1.00895	  6.73765	 -0.35405	  8.27848	 -0.30289	 11.10722	715.60999	 18.80	
 15.305	-128.583	  9.73996	  0.62575	  7.25807	 -0.08619	  7.86804	 -0.31744	 11.10672	715.56000	 18.80	
 15.299	-134.985	  9.73847	  0.29645	  7.73457	  0.23009	  7.41259	 -0.32669	 11.10217	715.54999	 18.80	
 15.293	-141.428	  9.74202	  0.01003	  8.16148	  0.58917	  6.91143	 -0.33818	 11.10498	715.53998	 18.80	
 15.288	-147.854	  9.74275	 -0.22979	  8.53243	  0.99542	  6.36470	 -0.34448	 11.09492	715.62000	 18.80	
 15.300	-154.261	  9.74948	 -0.43116	  8.84326	  1.44641	  5.78976	 -0.34928	 11.10049	715.45001	 18.80	
 15.307	-160.676	  9.76023	 -0.57907	  9.08265	  1.92705	  5.21016	 -0.36804	 11.09918	715.52002	 18.80	
 15.291	-167.167	  9.77289	 -0.67498	  9.25361	  2.47210	  4.60349	 -0.38515	 11.10130	715.60999	 18.80	
 15.298	-173.587	  9.78404	 -0.72939	  9.35280	  3.03455	  4.00705	 -0.40548	 11.10577	715.66998	 18.80	
 15.300	180.000	  9.79002	 -0.74831	  9.37216	  3.60737	  3.42915	 -0.41232	 11.10604	715.69000	 18.80	
 17.000	180.000	  9.45765	 -1.33093	  9.71533	  3.35102	  3.16038	 -0.45008	 11.10124	715.67999	 18.90	
 16.990	-174.179	  9.45622	 -1.31381	  9.70314	  2.78864	  3.73886	 -0.43757	 11.10494	715.53003	 18.80	
 17.009	-168.383	  9.44178	 -1.26970	  9.61808	  2.22713	  4.33430	 -0.40876	 11.10368	715.42999	 18.90	
 17.000	-162.596	  9.42535	 -1.18809	  9.46469	  1.69701	  4.92434	 -0.38393	 11.09891	715.53998	 18.90	
 16.990	-156.759	  9.42221	 -1.05697	  9.24514	  1.21358	  5.51247	 -0.36521	 11.10000	715.50000	 18.90	
 16.995	-150.919	  9.41207	 -0.88921	  8.96508	  0.74522	  6.10675	 -0.34973	 11.10302	715.53003	 18.90	
 16.988	-145.161	  9.40274	 -0.69599	  8.63134	  0.32537	  6.66351	 -0.33245	 11.10297	715.62000	 18.90	
 17.014	-139.343	  9.39886	 -0.45065	  8.24158	 -0.04498	  7.18736	 -0.31694	 11.10614	715.64001	 18.90	
 17.007	-133.546	  9.40134	 -0.15349	  7.79294	 -0.37416	  7.68472	 -0.30785	 11.10184	715.57001	 18.90	
 17.001	-127.699	  9.39610	  0.17255	  7.29866	 -0.67373	  8.13788	 -0.29923	 11.10165	715.51001	 18.90	
 17.006	-121.937	  9.39659	  0.54105	  6.77806	 -0.92533	  8.53944	 -0.28558	 11.10307	715.58002	 18.90	
 17.002	-116.134	  9.39980	  0.95424	  6.22515	 -1.13425	  8.88572	 -0.27638	 11.10798	715.53998	 18.90	
 17.001	-110.310	  9.40883	  1.41844	  5.64603	 -1.29140	  9.16621	 -0.27531	 11.10505	715.53998	 18.90	
 16.988	-104.517	  9.41676	  1.90625	  5.05918	 -1.41452	  9.38458	 -0.27482	 11.09952	715.53003	 18.90	
 17.008	-98.662	  9.42212	  2.42726	  4.45976	 -1.50597	  9.55128	 -0.27279	 11.10067	715.46002	 18.90	
 16.996	-92.909	  9.43333	  2.97877	  3.86858	 -1.55061	  9.63822	 -0.28443	 11.10074	715.46002	 18.90	
 16.996	-87.091	  9.45030	  3.54709	  3.29398	 -1.55963	  9.66676	 -0.28880	 11.10421	715.53003	 18.90	
 17.012	-81.253	  9.45533	  4.13411	  2.71946	 -1.53393	  9.62754	 -0.28272	 11.10177	715.45001	 18.90	
 16.988	-75.483	  9.47282	  4.73199	  2.18647	 -1.45054	  9.51302	 -0.29010	 11.10115	715.40002	 18.90	
 17.001	-69.690	  9.48201	  5.31675	  1.67107	 -1.35700	  9.33739	 -0.30166	 11.10161	715.46997	 18.90	
 17.002	-63.866	  9.48662	  5.89775	  1.18666	 -1.21837	  9.08794	 -0.31449	 11.09997	715.53003	 18.90	
 17.006	-58.063	  9.50248	  6.46769	  0.74281	 -1.03246	  8.78036	 -0.33454	 11.10434	715.41998	 18.90	
 17.001	-52.301	  9.51531	  6.99952	  0.35212	 -0.80271	  8.40541	 -0.34697	 11.10376	715.50000	 18.90	
 17.007	-46.454	  9.53277	  7.51447	 -0.01020	 -0.52204	  7.97925	 -0.36453	 11.10122	715.42999	 18.90	
 17.014	-40.657	  9.53783	  7.98069	 -0.32710	 -0.20784	  7.51185	 -0.38262	 11.09586	715.47998	 18.90	
 16.988	-34.839	  9.55034	  8.39941	 -0.60031	  0.15840	  6.99858	 -0.39405	 11.09776	715.47998	 18.90	
 16.995	-29.081	  9.56952	  8.77020	 -0.81984	  0.57123	  6.45733	 -0.40456	 11.10137	715.42999	 18.90	
 16.990	-23.241	  9.58188	  9.07990	 -1.00267	  1.02374	  5.87637	 -0.41206	 11.10204	715.46997	 18.90	
 17.000	-17.404	  9.58421	  9.32553	 -1.14592	  1.50228	  5.29121	 -0.41448	 11.09948	715.40997	 18.90	
 17.009	-11.617	  9.59014	  9.50708	 -1.24647	  2.02575	  4.68867	 -0.42437	 11.09888	715.50000	 18.90	
 16.990	 -5.821	  9.60102	  9.62299	 -1.30583	  2.58354	  4.09240	 -0.43495	 11.10283	715.46997	 18.90	
 17.000	  0.000	  9.59840	  9.67404	 -1.33174	  3.14146	  3.50690	 -0.44537	 11.09425	715.51001	 19.00	
 16.990	  5.821	  9.59802	  9.65667	 -1.32411	  3.73852	  2.92368	 -0.44734	 11.09635	715.52002	 19.00	
 17.009	 11.617	  9.60150	  9.57559	 -1.27552	  4.34256	  2.35708	 -0.44770	 11.09422	715.34003	 19.00	
 17.000	 17.404	  9.60979	  9.42673	 -1.18591	  4.93736	  1.84162	 -0.43746	 11.09390	715.38000	 19.00	
 16.990	 23.241	  9.61563	  9.21196	 -1.05235	  5.54873	  1.33258	 -0.44014	 11.09841	715.40997	 19.00	
 16.995	 29.081	  9.61532	  8.92919	 -0.88323	  6.13778	  0.86403	 -0.45248	 11.09850	715.45001	 19.00	
 16.988	 34.839	  9.62171	  8.59175	 -0.66702	  6.68873	  0.46239	 -0.47553	 11.09546	715.46997	 19.00	
 17.014	 40.657	  9.62510	  8.19667	 -0.41979	  7.23447	  0.07293	 -0.51184	 11.09766	715.45001	 19.00	
 17.007	 46.454	  9.62761	  7.74481	 -0.11897	  7.73413	 -0.26328	 -0.52748	 11.09881	715.41998	 19.00	
 17.001	 52.301	  9.62646	  7.24279	  0.22413	  8.18726	 -0.56070	 -0.54038	 11.09459	715.46002	 19.00	
 17.006	 58.063	  9.62521	  6.72494	  0.60057	  8.58028	 -0.80371	 -0.54031	 11.09339	715.44000	 19.00	
 17.002	 63.866	  9.62826	  6.17239	  1.02725	  8.92771	 -1.00749	 -0.54623	 11.09732	715.46997	 19.00	
 17.001	 69.690	  9.62660	  5.58973	  1.48911	  9.20780	 -1.17606	 -0.55588	 11.09809	715.51001	 19.00	
 16.988	 75.483	  9.62651	  5.00747	  1.97734	  9.42018	 -1.29545	 -0.56549	 11.09858	715.48999	 19.00	
 17.012	 81.253	  9.62022	  4.41868	  2.49242	  9.57080	 -1.38325	 -0.57429	 11.09940	715.51001	 19.00	
 16.996	 87.091	  9.62236	  3.82715	  3.04622	  9.64645	 -1.42441	 -0.58509	 11.09794	715.47998	 19.00	
 16.996	 92.909	  9.61923	  3.25372	  3.60950	  9.65996	 -1.43462	 -0.59132	 11.09988	715.51001	 19.00	
 17.008	 98.662	  9.61251	  2.69623	  4.18993	  9.60435	 -1.40699	 -0.57868	 11.10177	715.50000	 19.00	
 16.988	104.517	  9.61231	  2.16205	  4.78946	  9.47403	 -1.32441	 -0.56360	 11.10347	715.40002	 19.00	
 17.001	110.310	  9.59553	  1.65257	  5.36938	  9.27921	 -1.22909	 -0.55408	 11.10006	715.39001	 19.00	
 17.002	116.134	  9.58734	  1.17608	  5.95733	  9.01981	 -1.08785	 -0.54743	 11.10414	715.40002	 19.00	
 17.006	121.937	  9.57421	  0.73996	  6.52042	  8.69723	 -0.91284	 -0.54360	 11.10266	715.40997	 19.00	
 17.001	127.699	  9.55992	  0.35010	  7.04890	  8.32142	 -0.69411	 -0.55259	 11.10113	715.52002	 19.00	
 17.007	133.546	  9.54684	 -0.00872	  7.56104	  7.88167	 -0.42732	 -0.55698	 11.10325	715.50000	 19.00	
 17.014	139.343	  9.52986	 -0.32552	  8.03136	  7.39868	 -0.12046	 -0.55363	 11.09982	715.53998	 19.00	
 16.988	145.161	  9.51522	 -0.58282	  8.44477	  6.86562	  0.24353	 -0.53934	 11.08968	715.56000	 19.00	
 16.995	150.919	  9.50310	 -0.80894	  8.80962	  6.32882	  0.62318	 -0.52000	 11.09352	715.47998	 19.10	
 16.990	156.759	  9.49843	 -0.98789	  9.12195	  5.75056	  1.06662	 -0.50387	 11.09835	715.60999	 19.10	
 17.000	162.596	  9.48407	 -1.13184	  9.36721	  5.14879	  1.54365	 -0.48922	 11.09402	715.60999	 19.10	
 17.009	168.383	  9.46806	 -1.23888	  9.54709	  4.55405	  2.04404	 -0.47721	 11.09569	715.52002	 19.10	
 16.990	174.179	  9.46359	 -1.29969	  9.65933	  3.94993	  2.59211	 -0.46204	 11.09702	715.48999	 19.10	
 18.709	174.675	  9.09505	 -1.87859	  9.97608	  3.67472	  2.31273	 -0.47931	 11.09790	715.54999	 19.10	
 18.703	169.441	  9.11193	 -1.81679	  9.87794	  4.27180	  1.78615	 -0.50291	 11.10285	715.54999	 19.10	
 18.691	164.085	  9.12313	 -1.72030	  9.70678	  4.86785	  1.28868	 -0.53004	 11.10161	715.57001	 19.10	
 18.706	158.818	  9.12711	 -1.60056	  9.48199	  5.46205	  0.80852	 -0.55109	 11.09617	715.46002	 19.10	
 18.695	153.537	  9.14268	 -1.44110	  9.19397	  6.04597	  0.37254	 -0.57561	 11.09776	715.51001	 19.10	
 18.704	148.255	  9.15651	 -1.25517	  8.85958	  6.60467	 -0.02612	 -0.59778	 11.09695	715.53998	 19.10	
 18.698	142.952	  9.16562	 -1.02087	  8.46602	  7.14910	 -0.39645	 -0.61782	 11.09424	715.47998	 19.10	
 18.699	137.625	  9.18019	 -0.75499	  8.02904	  7.66412	 -0.72875	 -0.63616	 11.09814	715.57001	 19.10	
 18.705	132.343	  9.19107	 -0.44657	  7.55338	  8.12966	 -1.01139	 -0.64856	 11.09777	715.47998	 19.10	
 18.713	127.067	  9.19925	 -0.09429	  7.03431	  8.54584	 -1.25253	 -0.64917	 11.08823	715.44000	 19.10	
 18.700	121.794	  9.21868	  0.28834	  6.50175	  8.92682	 -1.46055	 -0.64690	 11.09778	715.44000	 19.10	
 18.698	116.504	  9.22841	  0.70287	  5.93966	  9.25433	 -1.63320	 -0.65461	 11.09453	715.52002	 19.10	
 18.707	111.165	  9.23417	  1.16577	  5.34831	  9.52581	 -1.77657	 -0.66410	 11.09419	715.46997	 19.10	
 18.690	105.863	  9.25325	  1.66121	  4.76824	  9.73625	 -1.87936	 -0.67950	 11.10083	715.40997	 19.10	
 18.696	100.583	  9.25604	  2.16938	  4.18498	  9.87785	 -1.95297	 -0.69059	 11.09785	715.47998	 19.10	
 18.700	 95.309	  9.26381	  2.70811	  3.60330	  9.96400	 -1.99456	 -0.70614	 11.09946	715.51001	 19.10	
 18.700	 90.000	  9.26463	  3.26811	  3.03127	  9.97722	 -2.00440	 -0.70796	 11.09510	715.44000	 19.10	
 18.700	 84.691	  9.26631	  3.84132	  2.48565	  9.94145	 -1.98558	 -0.70493	 11.09509	715.50000	 19.10	
 18.696	 79.417	  9.26690	  4.42936	  1.95885	  9.83855	 -1.92803	 -0.69626	 11.09257	715.53003	 19.10	
 18.690	 74.137	  9.26774	  5.00877	  1.46209	  9.67651	 -1.83926	 -0.68607	 11.09729	715.57001	 19.10	
 18.707	 68.835	  9.26355	  5.59134	  0.99024	  9.45024	 -1.72618	 -0.68217	 11.09737	715.47998	 19.10	
 18.698	 63.496	  9.26876	  6.17297	  0.54478	  9.15661	 -1.55830	 -0.67972	 11.09513	715.53998	 19.10	
 18.700	 58.206	  9.27285	  6.72942	  0.13898	  8.80582	 -1.35100	 -0.67374	 11.09431	715.50000	 19.10	
 18.713	 52.933	  9.27688	  7.26114	 -0.22967	  8.41555	 -1.12342	 -0.66691	 11.09677	715.52002	 19.10	
 18.705	 47.657	  9.28006	  7.75847	 -0.56268	  7.97625	 -0.85421	 -0.65413	 11.09955	715.54999	 19.10	
 18.699	 42.375	  9.27491	  8.22276	 -0.86128	  7.48636	 -0.54465	 -0.64338	 11.09979	715.52002	 19.20	
 18.698	 37.048	  9.26833	  8.64144	 -1.12230	  6.95240	 -0.18430	 -0.61411	 11.09919	715.53003	 19.10	
 18.704	 31.745	  9.26769	  9.01087	 -1.34020	  6.39685	  0.20879	 -0.58744	 11.10188	715.53998	 19.20	
 18.695	 26.463	  9.25574	  9.31126	 -1.52445	  5.82411	  0.63233	 -0.56449	 11.09293	715.46002	 19.20	
 18.706	 21.182	  9.25575	  9.57154	 -1.67396	  5.23484	  1.09172	 -0.55105	 11.09574	715.53998	 19.20	
 18.691	 15.915	  9.25612	  9.76920	 -1.78218	  4.63352	  1.60156	 -0.54360	 11.09816	715.50000	 19.20	
 18.703	 10.559	  9.23952	  9.90134	 -1.86266	  4.02726	  2.12177	 -0.53413	 11.08920	715.52002	 19.20	
 18.709	  5.325	  9.23309	  9.97588	 -1.90925	  3.43655	  2.66184	 -0.52515	 11.09365	715.59998	 19.20	
 18.700	  0.000	  9.23197	  9.99211	 -1.92050	  2.84512	  3.24311	 -0.50582	 11.09859	715.46997	 19.20	
 18.709	 -5.325	  9.22986	  9.94428	 -1.89617	  2.28847	  3.82173	 -0.49172	 11.09935	715.58002	 19.20	
 18.703	-10.559	  9.22900	  9.84111	 -1.84737	  1.74632	  4.41527	 -0.46619	 11.10149	715.54999	 19.20	
 18.691	-15.915	  9.22126	  9.66198	 -1.74578	  1.22112	  5.02279	 -0.44869	 11.09523	715.45001	 19.20	
 18.706	-21.182	  9.21431	  9.44154	 -1.62394	  0.75302	  5.60326	 -0.43778	 11.09505	715.58002	 19.20	
 18.695	-26.463	  9.20544	  9.15411	 -1.46703	  0.29972	  6.18478	 -0.41890	 11.09312	715.53998	 19.20	
 18.704	-31.745	  9.19472	  8.82030	 -1.28017	 -0.12119	  6.75097	 -0.40198	 11.09510	715.42999	 19.20	
 18.698	-37.048	  9.18229	  8.43103	 -1.04306	 -0.48648	  7.27256	 -0.37502	 11.09466	715.53003	 19.20	
 18.699	-42.375	  9.17250	  7.98913	 -0.77064	 -0.82711	  7.77863	 -0.35950	 11.09464	715.46002	 19.20	
 18.705	-47.657	  9.15529	  7.50582	 -0.46048	 -1.12739	  8.24162	 -0.34283	 11.09763	715.57001	 19.20	
 18.713	-52.933	  9.13665	  6.98853	 -0.10708	 -1.38251	  8.65190	 -0.33331	 11.09223	715.47998	 19.20	
 18.700	-58.206	  9.12699	  6.45488	  0.27839	 -1.58513	  9.00695	 -0.31638	 11.09132	715.51001	 19.20	
 18.698	-63.496	  9.12073	  5.89027	  0.71344	 -1.75405	  9.31952	 -0.30309	 11.08983	715.56000	 19.20	
 18.707	-68.835	  9.10286	  5.30042	  1.18016	 -1.90753	  9.58013	 -0.29068	 11.09194	715.50000	 19.20	
 18.690	-74.137	  9.09469	  4.71722	  1.68110	 -2.00595	  9.77098	 -0.28363	 11.08993	715.51001	 19.20	
 18.696	-79.417	  9.08022	  4.12992	  2.20237	 -2.09146	  9.90168	 -0.27272	 11.09131	715.54999	 19.20	
 18.700	-84.691	  9.07099	  3.54611	  2.74905	 -2.13552	  9.97744	 -0.26159	 11.09659	715.46997	 19.20	
 18.700	-90.000	  9.05979	  2.97847	  3.31459	 -2.13719	  9.97773	 -0.26193	 11.09294	715.46002	 19.20	
 18.700	-95.309	  9.05018	  2.42403	  3.89414	 -2.11038	  9.92261	 -0.25873	 11.09780	715.53003	 19.20	
 18.696	-100.583	  9.04164	  1.89111	  4.48802	 -2.05082	  9.80258	 -0.25592	 11.09743	715.54999	 19.20	
 18.690	-105.863	  9.03054	  1.39464	  5.07151	 -1.95592	  9.62126	 -0.25504	 11.09083	715.62000	 19.20	
 18.707	-111.165	  9.02284	  0.92119	  5.65317	 -1.83326	  9.39024	 -0.25795	 11.08840	715.47998	 19.20	
 18.698	-116.504	  9.02036	  0.47919	  6.23968	 -1.66772	  9.09423	 -0.26353	 11.09680	715.45001	 19.20	
 18.700	-121.794	  9.01465	  0.08257	  6.78764	 -1.46678	  8.74900	 -0.26855	 11.09236	715.53003	 19.20	
 18.713	-127.067	  9.01246	 -0.28295	  7.31048	 -1.24256	  8.35897	 -0.27620	 11.09228	715.57001	 19.20	
 18.705	-132.343	  9.01822	 -0.60347	  7.80575	 -0.96697	  7.91762	 -0.28363	 11.09464	715.54999	 19.20	
 18.699	-137.625	  9.01378	 -0.88795	  8.26088	 -0.65668	  7.42932	 -0.29761	 11.08949	715.53998	 19.20	
 18.698	-142.952	  9.02647	 -1.13532	  8.67907	 -0.30471	  6.91046	 -0.30855	 11.09785	715.64001	 19.30	
 18.704	-148.255	  9.02883	 -1.35101	  9.03432	  0.06845	  6.36898	 -0.33281	 11.09177	715.45001	 19.30	
 18.695	-153.537	  9.03620	 -1.52099	  9.34085	  0.50148	  5.79198	 -0.34110	 11.08939	715.58002	 19.20	
 18.706	-158.818	  9.04885	 -1.67058	  9.60295	  0.95697	  5.20835	 -0.36815	 11.09770	715.54999	 19.30	
 18.691	-164.085	  9.06050	 -1.77090	  9.79299	  1.44940	  4.62951	 -0.38293	 11.09659	715.45001	 19.30	
 18.703	-169.441	  9.06290	 -1.84815	  9.92696	  1.97572	  4.02457	 -0.40965	 11.09050	715.51001	 19.30	
 18.709	-174.675	  9.07491	 -1.88676	 10.00158	  2.52523	  3.44224	 -0.42716	 11.09694	715.52002	 19.30	
 18.700	180.000	  9.08447	 -1.89720	 10.01828	  3.08514	  2.87549	 -0.45455	 11.09475	715.57001	 19.30	
 20.400	180.000	  8.68748	 -2.44321	 10.28628	  2.80279	  2.57839	 -0.43442	 11.09239	715.57001	 19.30	
 20.401	-175.153	  8.67402	 -2.43775	 10.27328	  2.24969	  3.12415	 -0.40953	 11.09177	715.54999	 19.30	
 20.407	-170.264	  8.66213	 -2.40725	 10.20760	  1.70239	  3.70772	 -0.39229	 11.09234	715.56000	 19.30	
 20.410	-165.423	  8.64989	 -2.34709	 10.08081	  1.18279	  4.29015	 -0.37004	 11.08674	715.57001	 19.30	
 20.392	-160.496	  8.65300	 -2.24549	  9.91328	  0.70046	  4.88112	 -0.36074	 11.09434	715.63000	 19.30	
 20.401	-155.705	  8.63616	 -2.13857	  9.68629	  0.24017	  5.45838	 -0.33452	 11.09211	715.64001	 19.30	
 20.405	-150.835	  8.62142	 -1.98804	  9.40147	 -0.18788	  6.03622	 -0.31665	 11.09299	715.59003	 19.30	
 20.397	-145.903	  8.62225	 -1.79196	  9.06315	 -0.57169	  6.59687	 -0.30010	 11.09079	715.56000	 19.30	
 20.392	-141.062	  8.61631	 -1.57854	  8.68643	 -0.92553	  7.13389	 -0.28240	 11.09688	715.56000	 19.30	
 20.396	-136.227	  8.61307	 -1.33240	  8.26374	 -1.24428	  7.64521	 -0.27452	 11.09630	715.59998	 19.30	
 20.408	-131.372	  8.60527	 -1.05678	  7.80406	 -1.53524	  8.11284	 -0.26275	 11.09708	715.62000	 19.30	
 20.410	-126.511	  8.60975	 -0.73076	  7.30061	 -1.78445	  8.54837	 -0.25559	 11.09052	715.53998	 19.30	
 20.400	-121.604	  8.60984	 -0.37895	  6.76914	 -2.00762	  8.94741	 -0.25178	 11.09506	714.84003	 19.30	
 20.403	-116.741	  8.60942	  0.00305	  6.21734	 -2.19834	  9.29554	 -0.24800	 11.09430	715.44000	 19.30	
 20.413	-111.900	  8.61019	  0.42146	  5.64914	 -2.36713	  9.59347	 -0.24784	 11.09637	715.53998	 19.30	
 20.398	-107.004	  8.62124	  0.87880	  5.06213	 -2.49047	  9.83754	 -0.24231	 11.10103	715.35999	 19.30	
 20.394	-102.132	  8.62359	  1.36101	  4.47582	 -2.58415	 10.02223	 -0.23941	 11.09169	715.53998	 19.30	
 20.403	-97.332	  8.62689	  1.85885	  3.89582	 -2.64909	 10.15198	 -0.23926	 11.08974	715.46997	 19.30	
 20.392	-92.440	  8.64798	  2.40328	  3.31668	 -2.68488	 10.23592	 -0.24803	 11.09788	715.58002	 19.30	
 20.392	-87.560	  8.65916	  2.95658	  2.75520	 -2.69163	 10.26342	 -0.24814	 11.09621	715.48999	 19.30	
 20.403	-82.668	  8.66393	  3.51968	  2.20157	 -2.67866	 10.23293	 -0.25578	 11.09434	715.53998	 19.30	
 20.394	-77.868	  8.68134	  4.09721	  1.67566	 -2.62645	 10.14921	 -0.25722	 11.09530	715.57001	 19.30	
 20.398	-72.996	  8.69261	  4.67755	  1.17500	 -2.54819	 10.00270	 -0.26746	 11.09438	715.45001	 19.30	
 20.413	-68.100	  8.70073	  5.26114	  0.68451	 -2.44381	  9.80089	 -0.26782	 11.09478	715.54999	 19.30	
 20.403	-63.259	  8.71193	  5.83600	  0.23587	 -2.30541	  9.53639	 -0.28189	 11.08795	715.62000	 19.30	
 20.400	-58.396	  8.73051	  6.40269	 -0.17395	 -2.14471	  9.23282	 -0.29153	 11.10062	714.96997	 19.30	
 20.410	-53.489	  8.73850	  6.94456	 -0.55342	 -1.93913	  8.86575	 -0.30271	 11.09332	715.53003	 19.40	
 20.408	-48.628	  8.74382	  7.46769	 -0.90361	 -1.70620	  8.46147	 -0.31256	 11.08871	715.45001	 19.40	
 20.396	-43.773	  8.76318	  7.95372	 -1.20680	 -1.43591	  8.01816	 -0.33967	 11.09236	715.47998	 19.40	
 20.392	-38.938	  8.78193	  8.40270	 -1.46612	 -1.12949	  7.53390	 -0.35538	 11.09377	715.46002	 19.40	
 20.397	-34.097	  8.79882	  8.81372	 -1.70695	 -0.78432	  7.00823	 -0.38803	 11.09348	715.51001	 19.40	
 20.405	-29.165	  8.79371	  9.17735	 -1.92255	 -0.40687	  6.44998	 -0.40519	 11.08312	715.46002	 19.40	
 20.401	-24.295	  8.80814	  9.49284	 -2.08637	  0.01006	  5.87668	 -0.42540	 11.08834	715.56000	 19.40	
 20.392	-19.504	  8.81585	  9.75274	 -2.21508	  0.46239	  5.29946	 -0.44462	 11.08476	715.28998	 19.40	
 20.410	-14.577	  8.81841	  9.96367	 -2.33541	  0.93533	  4.70831	 -0.46629	 11.09144	715.53003	 19.40	
 20.407	 -9.736	  8.82611	 10.11265	 -2.40578	  1.44462	  4.11817	 -0.48850	 11.08834	715.60999	 19.40	
 20.401	 -4.847	  8.82880	 10.20956	 -2.45046	  1.98758	  3.52661	 -0.51804	 11.08678	715.40997	 19.40	
 20.400	  0.000	  8.83646	 10.25570	 -2.46790	  2.53222	  2.96399	 -0.53923	 11.08750	715.40997	 19.40	
 20.401	  4.847	  8.83701	 10.24221	 -2.46130	  3.10640	  2.40064	 -0.55856	 11.08634	715.46002	 19.40	
 20.407	  9.736	  8.83985	 10.17660	 -2.42644	  3.69937	  1.85205	 -0.58709	 11.08289	715.53003	 19.40	
 20.410	 14.577	  8.84576	 10.06043	 -2.36376	  4.28130	  1.34330	 -0.60891	 11.08654	715.53003	 19.40	
 20.392	 19.504	  8.85649	  9.87976	 -2.26529	  4.89334	  0.84295	 -0.62837	 11.08642	715.40002	 19.40	
 20.401	 24.295	  8.85510	  9.65264	 -2.14202	  5.47628	  0.38494	 -0.65608	 11.08607	715.44000	 19.40	
 20.405	 29.165	  8.86191	  9.36431	 -1.98388	  6.05317	 -0.03568	 -0.67893	 11.08594	715.38000	 19.40	
 20.397	 34.097	  8.86768	  9.01811	 -1.77851	  6.62889	 -0.43716	 -0.70792	 11.08500	715.48999	 19.40	
 20.392	 38.938	  8.86926	  8.63251	 -1.55635	  7.16979	 -0.80646	 -0.72941	 11.08090	715.51001	 19.40	
 20.396	 43.773	  8.87381	  8.20343	 -1.30323	  7.67125	 -1.12706	 -0.74815	 11.07511	715.41998	 19.40	
 20.408	 48.628	  8.87317	  7.73491	 -1.01057	  8.15481	 -1.42508	 -0.75855	 11.07725	715.46997	 19.40	
 20.410	 53.489	  8.87785	  7.23464	 -0.68821	  8.60740	 -1.68348	 -0.77215	 11.08844	715.59003	 19.40	
 20.400	 58.396	  8.87085	  6.69714	 -0.33107	  8.99972	 -1.90125	 -0.77986	 11.08187	715.57001	 19.40	
 20.403	 63.259	  8.86979	  6.14380	  0.06134	  9.34487	 -2.09134	 -0.79060	 11.08466	715.58002	 19.40	
 20.413	 68.100	  8.86667	  5.56985	  0.48685	  9.63956	 -2.24603	 -0.79057	 11.08226	715.53998	 19.40	
 20.398	 72.996	  8.87832	  4.99066	  0.94874	  9.87394	 -2.36169	 -0.78774	 11.08507	715.59003	 19.40	
 20.394	 77.868	  8.87830	  4.41523	  1.42609	 10.04767	 -2.44880	 -0.79506	 11.07942	715.57001	 19.40	
 20.403	 82.668	  8.87038	  3.84327	  1.92058	 10.16636	 -2.51191	 -0.79968	 11.07712	715.51001	 19.40	
 20.392	 87.560	  8.87545	  3.26454	  2.45673	 10.23411	 -2.54499	 -0.80113	 11.08548	715.40002	 19.40	
 20.392	 92.440	  8.87480	  2.70767	  3.00276	 10.24459	 -2.55216	 -0.79599	 11.08484	715.42999	 19.40	
 20.403	 97.332	  8.86468	  2.15664	  3.57676	 10.19830	 -2.53004	 -0.78927	 11.08178	715.52002	 19.40	
 20.394	102.132	  8.86270	  1.65087	  4.14765	 10.09488	 -2.47775	 -0.77785	 11.08250	715.53998	 19.40	
 20.398	107.004	  8.85471	  1.15437	  4.72277	  9.94046	 -2.40711	 -0.76463	 11.08131	715.56000	 19.40	
 20.413	111.900	  8.83575	  0.67043	  5.30985	  9.72626	 -2.31034	 -0.75430	 11.08315	715.58002	 19.50	
 20.403	116.741	  8.82042	  0.23627	  5.88102	  9.44840	 -2.17557	 -0.73972	 11.07607	715.38000	 19.50	
 20.400	121.604	  8.81822	 -0.16429	  6.44733	  9.13064	 -2.01033	 -0.73483	 11.08102	715.44000	 19.50	
 20.410	126.511	  8.80964	 -0.53918	  6.99633	  8.75776	 -1.81335	 -0.72116	 11.08828	715.52002	 19.50	
 20.408	131.372	  8.79115	 -0.88716	  7.51151	  8.33144	 -1.57734	 -0.71006	 11.07811	715.54999	 19.50	
 20.396	136.227	  8.78236	 -1.18699	  7.98916	  7.87437	 -1.31389	 -0.69129	 11.08125	715.40002	 19.50	
 20.392	141.062	  8.76881	 -1.44904	  8.42698	  7.38906	 -1.01964	 -0.66608	 11.08335	715.52002	 19.50	
 20.397	145.903	  8.75695	 -1.68664	  8.83958	  6.86188	 -0.68376	 -0.64604	 11.08293	715.45001	 19.50	
 20.405	150.835	  8.74086	 -1.89024	  9.20663	  6.29634	 -0.30637	 -0.62673	 11.08313	715.57001	 19.50	
 20.401	155.705	  8.73116	 -2.05465	  9.52469	  5.73227	  0.10094	 -0.59379	 11.08717	715.58002	 19.50	
 20.392	160.496	  8.71748	 -2.18365	  9.77079	  5.15642	  0.53045	 -0.56800	 11.07888	715.48999	 19.50	
 20.410	165.423	  8.70440	 -2.29752	  9.98730	  4.55309	  1.00426	 -0.54069	 11.08213	715.46997	 19.50	
 20.407	170.264	  8.69595	 -2.37952	 10.13853	  3.96864	  1.48986	 -0.49992	 11.08313	715.52002	 19.50	
 20.401	175.153	  8.69065	 -2.42723	 10.23658	  3.37945	  2.02050	 -0.47469	 11.08582	715.59998	 19.50	
  0.141	 45.000	 11.05611	  4.86357	  4.83043	  4.73151	  4.71564	  0.28191	 11.08310	715.59003	 19.50	
  4.001	128.691	 11.02014	  3.96745	  5.61291	  5.75363	  3.61926	  0.19947	 11.08472	715.47998	 19.50	
  4.002	 76.995	 11.03388	  5.07926	  4.46993	  6.00667	  3.43342	  0.24109	 11.08361	715.59003	 19.50	
  4.002	 25.892	 11.04110	  6.03627	  3.61132	  5.21364	  4.13615	  0.27952	 11.08324	715.60999	 19.50	
  4.002	-25.892	 11.03254	  5.98938	  3.62726	  4.03506	  5.28420	  0.24721	 11.07855	715.63000	 19.50	
  4.002	-76.995	 11.02280	  5.02587	  4.50610	  3.36636	  6.03560	  0.19091	 11.08350	715.52002	 19.50	
  4.001	-128.691	 11.01040	  3.91774	  5.66861	  3.61465	  5.72618	  0.16472	 11.08515	715.63000	 19.50	
  4.000	180.000	 11.00988	  3.47619	  6.19495	  4.62998	  4.63088	  0.16844	 11.08656	715.53998	 19.50	
  8.000	180.000	 10.76769	  1.94720	  7.46933	  4.40458	  4.31483	 -0.03783	 11.08300	715.57001	 19.50	
  7.991	-152.370	 10.75746	  2.19779	  7.14697	  3.14848	  5.64326	 -0.04250	 11.08395	715.52002	 19.50	
  7.997	-124.550	 10.75913	  2.94536	  6.20883	  2.23713	  6.75134	 -0.04885	 11.08086	715.46997	 19.50	
  8.006	-96.837	 10.77207	  4.09082	  4.92177	  1.82828	  7.31911	 -0.04488	 11.07925	715.31000	 19.50	
  7.988	-69.228	 10.79614	  5.40866	  3.64048	  1.95898	  7.18248	 -0.01219	 11.07868	715.53998	 19.50	
  7.997	-41.563	 10.81847	  6.58576	  2.63537	  2.58761	  6.39891	  0.02587	 11.07869	715.51001	 19.50	
  8.008	-13.821	 10.84448	  7.30548	  2.08271	  3.67841	  5.15893	  0.07746	 11.08582	715.34998	 19.50	
  8.008	 13.821	 10.84672	  7.34050	  2.05218	  5.00318	  3.82939	  0.10781	 11.08327	715.48999	 19.50	
  7.997	 41.563	 10.85021	  6.68773	  2.55749	  6.27251	  2.72719	  0.09609	 11.08238	715.46997	 19.50	
  7.988	 69.228	 10.84394	  5.54791	  3.52716	  7.12955	  2.04401	  0.08019	 11.08269	715.51001	 19.50	
  8.006	 96.837	 10.82717	  4.22408	  4.79706	  7.34296	  1.86532	  0.03889	 11.08219	715.59998	 19.60	
  7.997	124.550	 10.80790	  3.04075	  6.09961	  6.83239	  2.23474	  0.01525	 11.08182	715.45001	 19.60	
  7.991	152.370	 10.78821	  2.24112	  7.08038	  5.76318	  3.08725	 -0.00580	 11.08751	715.39001	 19.60	
 12.009	161.059	 10.32923	  0.62783	  8.29347	  5.43779	  2.58595	 -0.24844	 11.08501	715.51001	 19.60	
 12.013	142.081	 10.35347	  1.15559	  7.53852	  6.74886	  1.53202	 -0.24805	 11.08868	715.46002	 19.60	
 12.006	123.113	 10.38546	  2.04269	  6.41165	  7.76566	  0.81791	 -0.22921	 11.08653	715.54999	 19.60	
 12.007	104.200	 10.40308	  3.19141	  5.07902	  8.36996	  0.41972	 -0.22255	 11.08209	715.53998	 19.60	
 11.989	 85.301	 10.42176	  4.52432	  3.71654	  8.46779	  0.36989	 -0.21201	 11.08312	715.46002	 19.60	
 12.013	 66.294	 10.42476	  5.89672	  2.47136	  8.06464	  0.64354	 -0.17977	 11.08345	715.47998	 19.60	
 12.012	 47.388	 10.43182	  7.12272	  1.48530	  7.19655	  1.26753	 -0.16012	 11.08032	715.46997	 19.60	
 11.990	 28.440	 10.43315	  8.01980	  0.82868	  5.97594	  2.23342	 -0.10842	 11.08459	715.51001	 19.60	
 11.991	  9.464	 10.42473	  8.48059	  0.50653	  4.59615	  3.44574	 -0.12814	 11.08479	715.51001	 19.60	
 11.991	 -9.464	 10.41571	  8.44202	  0.52656	  3.22959	  4.81414	 -0.15327	 11.08045	715.39001	 19.60	
 11.990	-28.440	 10.40039	  7.90744	  0.88754	  2.01436	  6.18343	 -0.20501	 11.08146	715.40997	 19.60	
 12.012	-47.388	 10.36571	  6.94357	  1.58999	  1.08154	  7.35618	 -0.24668	 11.07872	715.50000	 19.60	
 12.013	-66.294	 10.34599	  5.69369	  2.61534	  0.49996	  8.16495	 -0.24698	 11.08657	715.40997	 19.60	
 11.989	-85.301	 10.32535	  4.31575	  3.89719	  0.27183	  8.48662	 -0.26533	 11.08578	714.66998	 19.60	
 12.007	-104.200	 10.29435	  2.99940	  5.26699	  0.36838	  8.30353	 -0.26103	 11.07924	714.87000	 19.60	
 12.006	-123.113	 10.27129	  1.89072	  6.57142	  0.80833	  7.64241	 -0.26529	 11.07870	715.62000	 19.60	
 12.013	-142.081	 10.27889	  1.07147	  7.66611	  1.61193	  6.56649	 -0.26995	 11.08458	715.53998	 19.60	
 12.009	-161.059	 10.29191	  0.58583	  8.36421	  2.71418	  5.25569	 -0.26426	 11.08243	715.40002	 19.60	
 16.000	180.000	  9.63605	 -0.98741	  9.49776	  3.50056	  3.30538	 -0.43415	 11.07873	715.50000	 19.60	
 15.990	-165.604	  9.61936	 -0.88865	  9.34079	  2.19216	  4.68502	 -0.39786	 11.08574	715.46997	 19.60	
 16.002	-151.165	  9.59423	 -0.56722	  8.80225	  1.03859	  6.06162	 -0.35187	 11.07735	715.52002	 19.60	
 16.002	-136.836	  9.58754	 -0.00997	  7.92927	  0.12236	  7.31447	 -0.32815	 11.07994	715.57001	 19.60	
 15.995	-122.439	  9.58699	  0.79579	  6.77682	 -0.56351	  8.34007	 -0.30009	 11.08304	715.20001	 19.60	
 15.993	-107.966	  9.59164	  1.84325	  5.44041	 -1.00476	  9.06204	 -0.28779	 11.07608	715.56000	 19.60	
 16.005	-93.629	  9.61604	  3.07671	  4.05754	 -1.20061	  9.41044	 -0.29853	 11.07873	715.40997	 19.60	
 15.992	-79.234	  9.64833	  4.43776	  2.72215	 -1.15604	  9.37375	 -0.30311	 11.08295	715.45001	 19.60	
 16.009	-64.774	  9.66607	  5.81600	  1.51321	 -0.89804	  8.93989	 -0.31864	 11.07996	715.42999	 19.60	
 15.997	-50.364	  9.69966	  7.10555	  0.52365	 -0.37230	  8.12000	 -0.35730	 11.07767	715.47998	 19.60	
 15.997	-36.045	  9.73351	  8.17959	 -0.21569	  0.39012	  7.03902	 -0.38804	 11.08337	715.52002	 19.70	
 16.000	-21.597	  9.75237	  8.96781	 -0.71094	  1.41613	  5.72138	 -0.38035	 11.08136	715.54999	 19.70	
 16.003	 -7.169	  9.76761	  9.39025	 -0.95388	  2.64755	  4.31936	 -0.39045	 11.08015	715.47998	 19.60	
 16.003	  7.169	  9.77064	  9.42770	 -0.97347	  4.00091	  2.95752	 -0.38946	 11.07728	715.42999	 19.70	
 16.000	 21.597	  9.78855	  9.08441	 -0.75744	  5.41533	  1.70355	 -0.37478	 11.07955	715.54999	 19.60	
 15.997	 36.045	  9.78977	  8.35694	 -0.30029	  6.75931	  0.65227	 -0.41101	 11.07222	715.44000	 19.70	
 15.997	 50.364	  9.80328	  7.33491	  0.40311	  7.92375	 -0.15354	 -0.45868	 11.08178	715.50000	 19.70	
 16.009	 64.774	  9.79647	  6.07356	  1.35517	  8.79774	 -0.70818	 -0.47691	 11.07812	715.41998	 19.70	
 15.992	 79.234	  9.79266	  4.70435	  2.50831	  9.30904	 -1.01168	 -0.49689	 11.07705	715.54999	 19.70	
 16.005	 93.629	  9.78782	  3.33996	  3.81263	  9.43563	 -1.08756	 -0.51513	 11.08102	715.42999	 19.70	
 15.993	107.966	  9.77490	  2.08324	  5.18498	  9.16326	 -0.93435	 -0.49235	 11.08078	715.46002	 19.70	
 15.995	122.439	  9.74028	  0.97549	  6.53159	  8.50622	 -0.57136	 -0.48545	 11.07880	715.67999	 19.70	
 16.002	136.836	  9.71379	  0.11163	  7.72833	  7.51562	  0.04484	 -0.49968	 11.08467	715.59003	 19.70	
 16.002	151.165	  9.68225	 -0.49388	  8.66347	  6.28856	  0.90630	 -0.47541	 11.08171	715.53998	 19.70	
 15.990	165.604	  9.66445	 -0.84899	  9.26800	  4.91069	  2.01791	 -0.44900	 11.08316	715.50000	 19.70	
 20.003	168.362	  8.79855	 -2.21930	 10.02846	  4.24932	  1.38937	 -0.50569	 11.08586	715.44000	 19.70	
 20.008	156.764	  8.81875	 -1.96089	  9.53563	  5.62908	  0.29151	 -0.58408	 11.08433	715.53003	 19.70	
 20.000	145.147	  8.84945	 -1.52826	  8.74273	  6.94006	 -0.62601	 -0.64405	 11.07938	715.34003	 19.70	
 19.995	133.545	  8.88620	 -0.90210	  7.71530	  8.10132	 -1.33525	 -0.68641	 11.08150	715.60999	 19.70	
 20.009	121.926	  8.90920	 -0.08107	  6.48968	  9.06311	 -1.86943	 -0.71632	 11.08071	715.56000	 19.70	
 20.005	110.327	  8.93137	  0.91928	  5.15346	  9.73919	 -2.21240	 -0.73960	 11.07722	715.45001	 19.70	
 19.989	 98.733	  8.96055	  2.09495	  3.79967	 10.10777	 -2.38349	 -0.76804	 11.07956	715.53998	 19.70	
 19.999	 87.075	  8.96279	  3.38508	  2.47765	 10.16186	 -2.41122	 -0.78088	 11.07367	715.56000	 19.70	
 19.992	 75.457	  8.96959	  4.74322	  1.27824	  9.91265	 -2.27955	 -0.76907	 11.08712	715.52002	 19.70	
 20.009	 63.844	  8.95769	  6.08579	  0.21645	  9.33687	 -1.98481	 -0.76863	 11.07781	715.60999	 19.70	
 19.989	 52.269	  8.96757	  7.34544	 -0.65180	  8.45911	 -1.49157	 -0.74622	 11.07495	715.52002	 19.70	
 19.999	 40.602	  8.96040	  8.45442	 -1.35290	  7.34453	 -0.81718	 -0.71792	 11.08280	715.16998	 19.70	
 20.004	 29.051	  8.94663	  9.31313	 -1.85358	  6.05311	  0.07646	 -0.65336	 11.07197	715.53003	 19.70	
 20.005	 17.433	  8.94061	  9.90015	 -2.17979	  4.67467	  1.14213	 -0.60408	 11.07687	715.58002	 19.70	
 20.006	  5.780	  8.92486	 10.16890	 -2.32645	  3.28915	  2.36578	 -0.56109	 11.07530	715.21997	 19.70	
 20.006	 -5.780	  8.92152	 10.13328	 -2.31493	  1.97150	  3.69168	 -0.50500	 11.08216	715.57001	 19.70	
 20.005	-17.433	  8.90145	  9.78479	 -2.13915	  0.76504	  5.07453	 -0.45723	 11.07359	715.23999	 19.70	
 20.004	-29.051	  8.88862	  9.13659	 -1.79695	 -0.27925	  6.44127	 -0.40741	 11.07666	714.59003	 19.70	
 19.999	-40.602	  8.86341	  8.22231	 -1.25817	 -1.10749	  7.67665	 -0.35278	 11.07699	715.34998	 19.70	
 19.989	-52.269	  8.83449	  7.06880	 -0.51988	 -1.74539	  8.71521	 -0.31525	 11.07582	715.35999	 19.70	
 20.009	-63.844	  8.80293	  5.78748	  0.39588	 -2.18567	  9.50738	 -0.29386	 11.07730	715.44000	 19.80	
 19.992	-75.457	  8.77525	  4.42774	  1.51366	 -2.45176	 10.00557	 -0.26662	 11.08225	715.51001	 19.80	
 19.999	-87.075	  8.74215	  3.07231	  2.77093	 -2.55664	 10.17973	 -0.25021	 11.08103	715.53003	 19.80	
 19.989	-98.733	  8.71692	  1.79964	  4.11230	 -2.48755	 10.03610	 -0.24734	 11.06940	715.50000	 19.80	
 20.005	-110.327	  8.70503	  0.66643	  5.48320	 -2.26297	  9.60150	 -0.24972	 11.07974	715.46997	 19.80	
 20.009	-121.926	  8.69679	 -0.29013	  6.79724	 -1.86608	  8.86588	 -0.25955	 11.07946	715.51001	 19.80	
 19.995	-133.545	  8.69369	 -1.06008	  7.98017	 -1.29088	  7.87222	 -0.27352	 11.07851	715.54999	 19.80	
 20.000	-145.147	  8.71265	 -1.63342	  8.96125	 -0.50943	  6.67576	 -0.29945	 11.08058	715.57001	 19.80	
 20.008	-156.764	  8.72323	 -2.03644	  9.67318	  0.44429	  5.34764	 -0.34736	 11.07717	715.52002	 19.80	
 20.003	-168.362	  8.74881	 -2.25389	 10.09428	  1.58550	  3.98442	 -0.38461	 11.07636	715.52002	 19.80	
 20.000	180.000	  8.76835	 -2.31887	 10.21074	  2.87337	  2.63916	 -0.44157	 11.07725	715.56000	 19.80	
