FileType=PCF
NHL=14
Date=03/14/19	10:10:36
Facility=APL
Serial=16071-9
Customer=NASA
NP=6
Mach=0.150000
Calibration=1:1
CalPts=490
TstPts=95
PortNumbering=AP Standard
Units=Torr C m/s kg/m^3 deg mm 
Theta[deg]	Phi[deg]	P1[Torr]	P2[Torr]	P3[Torr]	P4[Torr]	P5[Torr]	P6[Torr]	Pt[Torr]	Ps[Abs,Torr]	Ts[C]	
  0.000	  0.000	 10.95148	  4.50875	  4.66630	  4.58680	  4.50259	  0.17197	 10.96943	709.34003	 19.30	
  1.691	128.401	 10.94507	  4.14603	  5.01344	  5.02285	  4.04179	  0.15589	 10.96569	709.39001	 19.30	
  1.692	 77.194	 10.94900	  4.63228	  4.52064	  5.13441	  3.94582	  0.17781	 10.96859	709.50000	 19.30	
  1.699	 26.182	 10.95151	  5.03989	  4.13362	  4.81827	  4.25481	  0.18706	 10.97136	709.44000	 19.30	
  1.699	-26.182	 10.95275	  5.03024	  4.14468	  4.31623	  4.76755	  0.17586	 10.97078	709.53998	 19.30	
  1.692	-77.194	 10.95059	  4.61439	  4.54210	  4.01868	  5.07690	  0.15762	 10.96780	709.48999	 19.30	
  1.691	-128.401	 10.95307	  4.13582	  5.02854	  4.12879	  4.95427	  0.14173	 10.97004	709.45001	 19.30	
  1.700	180.000	 10.94594	  3.93017	  5.24999	  4.58092	  4.47954	  0.14034	 10.96603	709.51001	 19.30	
  3.400	180.000	 10.92422	  3.35129	  5.82190	  4.54020	  4.42890	  0.08971	 10.96597	709.42999	 19.30	
  3.388	-152.325	 10.92361	  3.45932	  5.68228	  4.01588	  4.97364	  0.08733	 10.96193	709.38000	 19.30	
  3.397	-124.529	 10.93062	  3.79029	  5.30161	  3.61221	  5.41093	  0.09693	 10.96460	709.45001	 19.30	
  3.399	-96.763	 10.93483	  4.29134	  4.77162	  3.41500	  5.65752	  0.10395	 10.96834	709.40002	 19.30	
  3.394	-69.283	 10.93663	  4.83296	  4.23528	  3.46574	  5.60477	  0.12486	 10.96724	709.41998	 19.40	
  3.400	-41.398	 10.93480	  5.31868	  3.78887	  3.76287	  5.28301	  0.14959	 10.96734	709.41998	 19.40	
  3.401	-14.021	 10.93701	  5.60421	  3.53146	  4.23303	  4.77423	  0.17735	 10.96788	709.40002	 19.40	
  3.401	 14.021	 10.92991	  5.63998	  3.50456	  4.78206	  4.20868	  0.17998	 10.96222	709.34003	 19.40	
  3.400	 41.398	 10.93316	  5.36471	  3.75034	  5.27890	  3.73010	  0.18205	 10.96914	709.46997	 19.40	
  3.394	 69.283	 10.93197	  4.86134	  4.20467	  5.63711	  3.40328	  0.16304	 10.96797	709.40997	 19.40	
  3.399	 96.763	 10.92193	  4.30830	  4.74048	  5.72681	  3.33864	  0.14960	 10.96156	709.44000	 19.40	
  3.397	124.529	 10.92512	  3.79872	  5.27372	  5.51900	  3.51619	  0.12851	 10.96534	709.53998	 19.40	
  3.388	152.325	 10.92402	  3.47118	  5.66621	  5.06478	  3.91417	  0.12747	 10.96666	709.45001	 19.40	
  5.099	161.165	 10.86585	  2.82149	  6.26978	  5.03566	  3.79898	  0.04831	 10.96711	709.38000	 19.40	
  5.109	142.013	 10.86945	  3.06950	  5.95681	  5.58193	  3.29713	  0.07177	 10.96941	709.38000	 19.40	
  5.095	123.033	 10.87320	  3.46122	  5.49226	  6.00993	  2.94633	  0.09510	 10.97102	709.48999	 19.40	
  5.105	104.191	 10.87022	  3.96213	  4.95720	  6.24325	  2.74830	  0.10909	 10.96720	709.44000	 19.40	
  5.093	 85.207	 10.87650	  4.53490	  4.36621	  6.28660	  2.71844	  0.12668	 10.97169	709.40002	 19.40	
  5.104	 66.290	 10.87678	  5.11307	  3.82030	  6.12848	  2.84774	  0.12860	 10.97164	709.40002	 19.50	
  5.094	 47.331	 10.87739	  5.63367	  3.35176	  5.76657	  3.16247	  0.14132	 10.96988	709.50000	 19.50	
  5.089	 28.397	 10.88701	  6.00452	  3.05933	  5.27558	  3.61014	  0.15447	 10.97257	709.40997	 19.50	
  5.096	  9.576	 10.88010	  6.20279	  2.89200	  4.70544	  4.13830	  0.14725	 10.96773	709.46002	 19.50	
  5.096	 -9.576	 10.88215	  6.18071	  2.90976	  4.13771	  4.71691	  0.13365	 10.96563	709.35999	 19.50	
  5.089	-28.397	 10.88680	  5.96115	  3.09207	  3.60640	  5.29310	  0.11149	 10.97098	709.45001	 19.50	
  5.094	-47.331	 10.88702	  5.56277	  3.42637	  3.17856	  5.77543	  0.09021	 10.97253	709.41998	 19.50	
  5.104	-66.290	 10.88011	  5.05208	  3.88964	  2.91463	  6.07847	  0.07244	 10.95893	709.46002	 19.50	
  5.093	-85.207	 10.88035	  4.48041	  4.43982	  2.81037	  6.21120	  0.05252	 10.96538	709.48999	 19.50	
  5.105	-104.191	 10.87794	  3.93296	  4.99513	  2.84969	  6.15316	  0.03621	 10.96301	709.46997	 19.50	
  5.095	-123.033	 10.88426	  3.42169	  5.54791	  3.06305	  5.87803	  0.03238	 10.96883	709.45001	 19.50	
  5.109	-142.013	 10.87669	  3.01580	  6.01054	  3.41864	  5.45604	  0.02389	 10.96889	709.40002	 19.50	
  5.099	-161.165	 10.86740	  2.80041	  6.26949	  3.91085	  4.91409	  0.03640	 10.96127	709.50000	 19.50	
  5.100	180.000	 10.86946	  2.73519	  6.37027	  4.48213	  4.33541	  0.04411	 10.96570	709.45001	 19.50	
  6.800	180.000	 10.76998	  2.06464	  6.92171	  4.36265	  4.20303	 -0.04482	 10.96874	709.53998	 19.50	
  6.796	-166.229	 10.77300	  2.11058	  6.85032	  3.80115	  4.77514	 -0.05283	 10.96315	709.46997	 19.60	
  6.808	-152.311	 10.77599	  2.26523	  6.63923	  3.28177	  5.34235	 -0.05240	 10.96669	709.28003	 19.60	
  6.795	-138.383	 10.77830	  2.54395	  6.29852	  2.85354	  5.84050	 -0.05610	 10.96081	709.34003	 19.60	
  6.792	-124.591	 10.78471	  2.93003	  5.84793	  2.51672	  6.26018	 -0.05986	 10.96718	709.34003	 19.60	
  6.787	-110.754	 10.78755	  3.40545	  5.31783	  2.28287	  6.56817	 -0.05939	 10.96431	709.37000	 19.60	
  6.800	-96.985	 10.78622	  3.93677	  4.75779	  2.16204	  6.73917	 -0.05335	 10.96318	709.40997	 19.60	
  6.800	-83.015	 10.79198	  4.50539	  4.19291	  2.16448	  6.75882	 -0.04304	 10.96332	709.48999	 19.60	
  6.787	-69.246	 10.78717	  5.06805	  3.66122	  2.27858	  6.62252	 -0.02711	 10.96024	709.39001	 19.60	
  6.792	-55.409	 10.79174	  5.61128	  3.18590	  2.50163	  6.35034	 -0.00511	 10.96368	709.39001	 19.60	
  6.795	-41.617	 10.79184	  6.06826	  2.80157	  2.82544	  5.96909	  0.01327	 10.96376	709.45001	 19.60	
  6.808	-27.689	 10.78891	  6.44268	  2.49222	  3.24858	  5.47166	  0.03676	 10.96663	709.41998	 19.60	
  6.796	-13.771	 10.78525	  6.67500	  2.31464	  3.75810	  4.90897	  0.05862	 10.96189	709.45001	 19.60	
  6.800	  0.000	 10.78732	  6.76607	  2.25083	  4.31028	  4.33580	  0.06297	 10.96441	709.40997	 19.60	
  6.796	 13.771	 10.78317	  6.70223	  2.29859	  4.87370	  3.78327	  0.07868	 10.96135	709.38000	 19.60	
  6.808	 27.689	 10.77894	  6.49229	  2.45656	  5.44330	  3.25554	  0.08349	 10.96041	709.34998	 19.60	
  6.795	 41.617	 10.77538	  6.14737	  2.72395	  5.95057	  2.81710	  0.07370	 10.96377	709.46997	 19.60	
  6.792	 55.409	 10.77142	  5.69418	  3.10097	  6.36290	  2.47225	  0.06626	 10.96089	709.37000	 19.70	
  6.787	 69.246	 10.77678	  5.16285	  3.58122	  6.66067	  2.23402	  0.06522	 10.97125	709.39001	 19.70	
  6.800	 83.015	 10.76656	  4.58955	  4.10593	  6.81902	  2.09639	  0.04918	 10.96254	709.32001	 19.70	
  6.800	 96.985	 10.76616	  4.01602	  4.68063	  6.82594	  2.08363	  0.02908	 10.96375	709.40002	 19.70	
  6.787	110.754	 10.76537	  3.48261	  5.25086	  6.67556	  2.19455	  0.01743	 10.96576	709.34003	 19.70	
  6.792	124.591	 10.75697	  3.00252	  5.77460	  6.39744	  2.40121	  0.00944	 10.96006	709.39001	 19.70	
  6.795	138.383	 10.75365	  2.61580	  6.22865	  5.99615	  2.72396	 -0.00877	 10.96091	709.29999	 19.70	
  6.808	152.311	 10.75610	  2.31681	  6.60053	  5.49504	  3.14762	 -0.02696	 10.95983	709.34998	 19.70	
  6.796	166.229	 10.75942	  2.13556	  6.82596	  4.92866	  3.65718	 -0.03465	 10.96002	709.38000	 19.70	
  8.491	168.704	 10.60653	  1.44106	  7.35729	  4.80988	  3.47331	 -0.13150	 10.95525	709.39001	 19.70	
  8.502	157.493	 10.61152	  1.59008	  7.17151	  5.40049	  2.94405	 -0.13112	 10.96549	709.32001	 19.70	
  8.494	146.194	 10.61198	  1.84806	  6.85070	  5.95137	  2.48273	 -0.11979	 10.96313	709.40997	 19.70	
  8.495	135.039	 10.61422	  2.18133	  6.44342	  6.42712	  2.10304	 -0.10127	 10.96257	709.39001	 19.70	
  8.487	123.723	 10.61763	  2.59129	  5.95335	  6.83182	  1.78912	 -0.08411	 10.96392	709.40002	 19.70	
  8.492	112.575	 10.61492	  3.05806	  5.41196	  7.12943	  1.56702	 -0.08892	 10.96162	709.41998	 19.70	
  8.510	101.220	 10.61331	  3.59980	  4.82560	  7.31887	  1.43068	 -0.08173	 10.95593	709.39001	 19.70	
  8.500	 90.000	 10.61997	  4.17092	  4.24440	  7.37860	  1.39877	 -0.06778	 10.96182	709.42999	 19.70	
  8.510	 78.780	 10.61919	  4.75811	  3.68032	  7.31037	  1.45684	 -0.05013	 10.95977	709.42999	 19.80	
  8.492	 67.425	 10.62906	  5.35523	  3.14652	  7.10688	  1.62578	 -0.03720	 10.96476	709.34998	 19.80	
  8.487	 56.277	 10.63158	  5.89483	  2.68583	  6.79446	  1.88404	 -0.03392	 10.96304	709.40997	 19.80	
  8.495	 44.961	 10.63668	  6.37760	  2.28973	  6.38128	  2.21951	 -0.02739	 10.96380	709.47998	 19.80	
  8.494	 33.806	 10.64019	  6.76977	  1.99129	  5.90147	  2.61999	 -0.00918	 10.96212	709.45001	 19.80	
  8.502	 22.507	 10.64189	  7.07373	  1.75498	  5.34404	  3.10467	 -0.00400	 10.96453	709.45001	 19.80	
  8.491	 11.296	 10.65060	  7.24640	  1.63074	  4.75925	  3.65344	 -0.01114	 10.96492	709.54999	 19.80	
  8.500	  0.000	 10.64949	  7.30407	  1.59121	  4.17885	  4.21621	 -0.02270	 10.95979	709.46997	 19.80	
  8.491	-11.296	 10.65018	  7.22446	  1.64194	  3.60337	  4.81206	 -0.03209	 10.96255	709.34998	 19.80	
  8.502	-22.507	 10.65065	  7.01987	  1.78619	  3.06556	  5.39331	 -0.05393	 10.96481	709.38000	 19.80	
  8.494	-33.806	 10.65172	  6.69580	  2.03439	  2.60167	  5.92584	 -0.07715	 10.96523	709.40997	 19.80	
  8.495	-44.961	 10.65148	  6.28169	  2.35704	  2.20275	  6.40055	 -0.09929	 10.96181	709.35999	 19.80	
  8.487	-56.277	 10.65051	  5.77830	  2.76212	  1.87704	  6.79763	 -0.11138	 10.96014	709.40002	 19.80	
  8.492	-67.425	 10.65201	  5.23843	  3.22854	  1.64569	  7.08588	 -0.13495	 10.96770	709.42999	 19.80	
  8.510	-78.780	 10.64593	  4.64384	  3.76845	  1.49761	  7.26441	 -0.15251	 10.96208	709.34003	 19.80	
  8.500	-90.000	 10.64484	  4.06230	  4.33594	  1.45824	  7.30286	 -0.15443	 10.96377	709.40002	 19.80	
  8.510	-101.220	 10.64132	  3.49401	  4.91683	  1.50192	  7.22616	 -0.15546	 10.96419	709.45001	 19.80	
  8.492	-112.575	 10.64263	  2.95747	  5.50407	  1.65629	  7.00638	 -0.16416	 10.96392	709.40997	 19.90	
  8.487	-123.723	 10.64842	  2.49258	  6.03903	  1.89186	  6.69102	 -0.16334	 10.96693	709.40002	 19.90	
  8.495	-135.039	 10.64100	  2.08259	  6.52149	  2.22113	  6.26466	 -0.15452	 10.96232	709.42999	 19.90	
  8.494	-146.194	 10.63441	  1.76451	  6.91271	  2.62585	  5.76803	 -0.15448	 10.96107	709.28998	 19.90	
  8.502	-157.493	 10.62879	  1.53758	  7.21373	  3.10237	  5.21721	 -0.15762	 10.95982	709.29999	 19.90	
  8.491	-168.704	 10.62532	  1.40735	  7.38772	  3.64974	  4.62542	 -0.15629	 10.96379	709.41998	 19.90	
  8.500	180.000	 10.61502	  1.37497	  7.44330	  4.22932	  4.03450	 -0.14665	 10.96272	709.44000	 19.90	
 10.200	180.000	 10.43645	  0.71999	  7.93171	  4.07906	  3.85750	 -0.24576	 10.96345	709.40997	 19.90	
 10.191	-170.497	 10.45129	  0.74660	  7.89148	  3.49111	  4.45903	 -0.25859	 10.96865	709.40997	 19.90	
 10.210	-161.034	 10.45162	  0.84496	  7.74341	  2.92973	  5.05678	 -0.25769	 10.96591	709.45001	 19.90	
 10.194	-151.526	 10.45851	  1.03316	  7.48449	  2.43267	  5.63114	 -0.25549	 10.96284	709.51001	 19.90	
 10.190	-142.105	 10.46012	  1.29040	  7.13944	  1.98034	  6.16989	 -0.25120	 10.96507	709.41998	 19.90	
 10.215	-132.646	 10.46348	  1.62353	  6.71278	  1.58669	  6.66929	 -0.25731	 10.96811	709.42999	 19.90	
 10.203	-123.092	 10.46077	  2.04164	  6.19898	  1.27205	  7.09255	 -0.26027	 10.96304	709.40997	 19.90	
 10.192	-113.678	 10.46723	  2.51785	  5.65738	  1.05143	  7.41434	 -0.25620	 10.96455	709.40002	 19.90	
 10.208	-104.249	 10.46374	  3.03245	  5.08043	  0.88986	  7.64712	 -0.25019	 10.96397	709.34003	 19.90	
 10.210	-94.801	 10.47040	  3.59523	  4.48526	  0.81034	  7.77979	 -0.25350	 10.96848	709.34003	 19.90	
 10.210	-85.199	 10.46991	  4.18605	  3.88986	  0.80406	  7.79898	 -0.25614	 10.96768	709.31000	 19.90	
 10.208	-75.751	 10.47188	  4.78523	  3.32502	  0.87766	  7.71201	 -0.25088	 10.96276	709.31000	 19.90	
 10.192	-66.322	 10.47185	  5.37002	  2.79689	  1.03004	  7.50998	 -0.24048	 10.96160	709.34003	 19.90	
 10.203	-56.908	 10.47639	  5.93286	  2.32464	  1.25144	  7.22849	 -0.22695	 10.96519	709.28003	 19.90	
 10.215	-47.354	 10.47493	  6.44898	  1.90639	  1.55623	  6.83306	 -0.21858	 10.96021	709.37000	 20.00	
 10.190	-37.895	 10.47643	  6.90670	  1.56009	  1.93947	  6.35992	 -0.19965	 10.96094	709.34003	 20.00	
 10.194	-28.474	 10.47594	  7.28213	  1.28380	  2.37940	  5.83614	 -0.17096	 10.96565	709.34998	 20.00	
 10.210	-18.966	 10.47343	  7.56516	  1.07976	  2.86992	  5.27341	 -0.14801	 10.96595	709.34003	 20.00	
 10.191	 -9.503	 10.47024	  7.73394	  0.96412	  3.41957	  4.67712	 -0.13146	 10.96258	709.31000	 20.00	
 10.200	  0.000	 10.47324	  7.80751	  0.91996	  4.00552	  4.07313	 -0.12313	 10.96607	709.38000	 20.00	
 10.191	  9.503	 10.47122	  7.76085	  0.95484	  4.59393	  3.50061	 -0.10952	 10.96262	709.33002	 20.00	
 10.210	 18.966	 10.46478	  7.61703	  1.05372	  5.19472	  2.94078	 -0.10154	 10.96535	709.37000	 20.00	
 10.194	 28.474	 10.46077	  7.35428	  1.24120	  5.77558	  2.42552	 -0.10238	 10.96572	709.29999	 20.00	
 10.190	 37.895	 10.46381	  7.01140	  1.50504	  6.30859	  1.99163	 -0.11640	 10.97017	709.40002	 20.00	
 10.215	 47.354	 10.45165	  6.57467	  1.82842	  6.79432	  1.58863	 -0.14344	 10.96480	709.38000	 20.00	
 10.203	 56.908	 10.43959	  6.05886	  2.23005	  7.20371	  1.25732	 -0.16033	 10.95743	709.34998	 20.00	
 10.192	 66.322	 10.44353	  5.50832	  2.69875	  7.52962	  1.01659	 -0.15868	 10.96897	709.44000	 20.00	
 10.208	 75.751	 10.44003	  4.91781	  3.21770	  7.75768	  0.83900	 -0.16049	 10.96840	709.38000	 20.00	
 10.210	 85.199	 10.43050	  4.31475	  3.77619	  7.86873	  0.74461	 -0.17477	 10.95987	709.41998	 20.00	
 10.210	 94.801	 10.43164	  3.72171	  4.36950	  7.87799	  0.73317	 -0.19432	 10.96665	709.35999	 20.00	
 10.208	104.249	 10.42868	  3.14811	  4.96403	  7.77457	  0.79527	 -0.20431	 10.96409	709.34003	 20.00	
 10.192	113.678	 10.42115	  2.62616	  5.54305	  7.55258	  0.94241	 -0.19936	 10.96001	709.39001	 20.00	
 10.203	123.092	 10.42818	  2.15818	  6.09851	  7.25215	  1.16336	 -0.19589	 10.96251	709.38000	 20.00	
 10.215	132.646	 10.42895	  1.73332	  6.61830	  6.85261	  1.46198	 -0.20655	 10.97142	709.32001	 20.00	
 10.190	142.105	 10.42515	  1.38719	  7.06122	  6.36919	  1.83858	 -0.21739	 10.96505	709.31000	 20.00	
 10.194	151.526	 10.42058	  1.10800	  7.42204	  5.85133	  2.24782	 -0.23535	 10.96533	709.44000	 20.00	
 10.210	161.034	 10.42297	  0.89707	  7.69753	  5.26858	  2.74471	 -0.23479	 10.96270	709.31000	 20.00	
 10.191	170.497	 10.43149	  0.77774	  7.86494	  4.67141	  3.28823	 -0.23592	 10.96211	709.26001	 20.10	
 11.899	171.783	 10.21017	  0.12621	  8.33495	  4.49605	  3.08462	 -0.33373	 10.96846	709.29999	 20.10	
 11.890	163.610	 10.20074	  0.23303	  8.17915	  5.09704	  2.53480	 -0.33487	 10.96601	709.40002	 20.10	
 11.889	155.445	 10.19511	  0.40746	  7.93108	  5.68847	  2.02954	 -0.33910	 10.95965	709.22998	 20.10	
 11.909	147.299	 10.19301	  0.63785	  7.61573	  6.24013	  1.58567	 -0.33652	 10.96487	709.34003	 20.10	
 11.902	139.148	 10.19617	  0.93494	  7.21165	  6.75771	  1.19137	 -0.32179	 10.96734	709.38000	 20.10	
 11.894	130.867	 10.19967	  1.30059	  6.73630	  7.23253	  0.83880	 -0.31267	 10.96569	709.32001	 20.10	
 11.897	122.732	 10.20240	  1.72100	  6.21507	  7.62827	  0.56308	 -0.30210	 10.96779	709.40997	 20.10	
 11.903	114.597	 10.19824	  2.18278	  5.65701	  7.93507	  0.35383	 -0.31336	 10.96015	709.21002	 20.10	
 11.893	106.346	 10.20548	  2.70489	  5.07141	  8.16451	  0.21072	 -0.32024	 10.96598	709.31000	 20.10	
 11.892	 98.155	 10.20995	  3.26974	  4.46820	  8.30057	  0.12697	 -0.32251	 10.96205	709.35999	 20.10	
 11.900	 90.000	 10.21511	  3.84249	  3.87760	  8.34483	  0.09977	 -0.30678	 10.96520	709.34998	 20.10	
 11.892	 81.845	 10.21523	  4.43438	  3.30696	  8.29203	  0.14252	 -0.28826	 10.96613	709.26001	 20.10	
 11.893	 73.654	 10.21603	  5.04227	  2.75554	  8.14139	  0.24973	 -0.28232	 10.96326	709.27002	 20.10	
 11.903	 65.403	 10.21814	  5.63953	  2.24333	  7.90318	  0.42509	 -0.28813	 10.96526	709.40997	 20.10	
 11.897	 57.268	 10.21898	  6.19645	  1.78466	  7.57793	  0.66310	 -0.28601	 10.96119	709.34003	 20.10	
 11.894	 49.133	 10.22821	  6.71906	  1.37830	  7.17553	  0.96568	 -0.27229	 10.96644	709.35999	 20.10	
 11.902	 40.852	 10.23219	  7.19115	  1.03265	  6.69103	  1.34303	 -0.24011	 10.96614	709.40997	 20.10	
 11.909	 32.701	 10.24343	  7.58150	  0.75094	  6.16702	  1.76755	 -0.21227	 10.96777	709.31000	 20.10	
 11.889	 24.555	 10.24443	  7.87935	  0.53898	  5.60743	  2.23790	 -0.20321	 10.96242	709.33002	 20.10	
 11.890	 16.390	 10.24998	  8.10532	  0.38865	  5.01498	  2.75984	 -0.20664	 10.96479	709.28003	 20.20	
 11.899	  8.217	 10.25467	  8.24456	  0.29742	  4.41172	  3.32119	 -0.21523	 10.96612	709.29999	 20.10	
 11.900	  0.000	 10.25349	  8.27351	  0.26947	  3.81837	  3.89861	 -0.22345	 10.96388	709.22998	 20.20	
 11.899	 -8.217	 10.25859	  8.21258	  0.30832	  3.22853	  4.50909	 -0.23276	 10.96154	709.39001	 20.20	
 11.890	-16.390	 10.25867	  8.05279	  0.41560	  2.67242	  5.11199	 -0.24804	 10.96388	709.40002	 20.20	
 11.889	-24.555	 10.26016	  7.80611	  0.58133	  2.17221	  5.68891	 -0.26906	 10.96291	709.51001	 20.20	
 11.909	-32.701	 10.25945	  7.47983	  0.79989	  1.69846	  6.24448	 -0.29481	 10.96362	709.29999	 20.20	
 11.902	-40.852	 10.26263	  7.06772	  1.09952	  1.29067	  6.76004	 -0.31176	 10.96219	709.32001	 20.20	
 11.894	-49.133	 10.25625	  6.57329	  1.46645	  0.93627	  7.21560	 -0.32089	 10.96217	709.31000	 20.20	
 11.897	-57.268	 10.26761	  6.05026	  1.88628	  0.65550	  7.59904	 -0.32753	 10.96532	709.26001	 20.20	
 11.903	-65.403	 10.25690	  5.48392	  2.34256	  0.42667	  7.90271	 -0.32678	 10.96265	709.25000	 20.20	
 11.893	-73.654	 10.25590	  4.88525	  2.87152	  0.26733	  8.11967	 -0.33625	 10.96249	709.34003	 20.20	
 11.892	-81.845	 10.25374	  4.28142	  3.42455	  0.17436	  8.24269	 -0.33399	 10.96598	709.35999	 20.20	
 11.900	-90.000	 10.24817	  3.68769	  4.00379	  0.14657	  8.27011	 -0.33310	 10.96290	709.23999	 20.20	
 11.892	-98.155	 10.24967	  3.11446	  4.59652	  0.18293	  8.20287	 -0.32762	 10.96046	709.34998	 20.20	
 11.893	-106.346	 10.24500	  2.56279	  5.19811	  0.28495	  8.03651	 -0.33062	 10.96051	709.31000	 20.20	
 11.903	-114.597	 10.24665	  2.05221	  5.78699	  0.45372	  7.78248	 -0.33298	 10.96549	709.28003	 20.20	
 11.897	-122.732	 10.25305	  1.60150	  6.34058	  0.69004	  7.44766	 -0.33311	 10.96882	709.34003	 20.20	
 11.894	-130.867	 10.24450	  1.19059	  6.84769	  0.97923	  7.03459	 -0.33442	 10.96399	709.35999	 20.20	
 11.902	-139.148	 10.24218	  0.83874	  7.31081	  1.33951	  6.54940	 -0.33165	 10.96437	709.34003	 20.20	
 11.909	-147.299	 10.23835	  0.55166	  7.69692	  1.75623	  6.01733	 -0.33417	 10.96316	709.32001	 20.20	
 11.889	-155.445	 10.23639	  0.33823	  7.99860	  2.23489	  5.44264	 -0.33930	 10.96318	709.32001	 20.20	
 11.890	-163.610	 10.23021	  0.18498	  8.21867	  2.74624	  4.86082	 -0.34799	 10.96345	709.34998	 20.20	
 11.899	-171.783	 10.22643	  0.09506	  8.35659	  3.30879	  4.25378	 -0.34933	 10.97051	709.39001	 20.20	
 11.900	180.000	 10.21324	  0.07542	  8.39041	  3.89625	  3.64935	 -0.34172	 10.96692	709.33002	 20.20	
 13.600	180.000	  9.94555	 -0.56092	  8.81711	  3.68578	  3.41649	 -0.42677	 10.96146	709.46002	 20.20	
 13.608	-172.853	  9.95366	 -0.55206	  8.79217	  3.10379	  4.00575	 -0.43216	 10.96333	709.34003	 20.20	
 13.611	-165.583	  9.95959	 -0.48593	  8.67832	  2.52951	  4.62311	 -0.42786	 10.96316	709.45001	 20.20	
 13.601	-158.353	  9.97411	 -0.34980	  8.47927	  2.01425	  5.22014	 -0.41555	 10.96358	709.39001	 20.20	
 13.609	-151.210	  9.98045	 -0.16585	  8.20449	  1.52569	  5.80917	 -0.39925	 10.96305	709.40002	 20.30	
 13.611	-143.999	  9.98437	  0.07725	  7.85527	  1.08271	  6.37529	 -0.38857	 10.96548	709.39001	 20.20	
 13.601	-136.825	  9.98873	  0.38079	  7.43740	  0.70413	  6.88810	 -0.38216	 10.96657	709.33002	 20.30	
 13.596	-129.640	  9.99181	  0.72859	  6.96886	  0.37625	  7.35489	 -0.37697	 10.96341	709.32001	 20.30	
 13.611	-122.431	  9.98964	  1.12243	  6.44408	  0.08009	  7.77572	 -0.37537	 10.96414	709.35999	 20.30	
 13.604	-115.211	  9.98791	  1.57635	  5.88023	 -0.14310	  8.12435	 -0.36878	 10.96574	709.28998	 20.30	
 13.595	-108.042	  9.98169	  2.06628	  5.29457	 -0.31297	  8.38736	 -0.36793	 10.95804	709.34998	 20.30	
 13.607	-100.793	  9.98261	  2.60149	  4.69376	 -0.43360	  8.58601	 -0.36849	 10.96452	709.23999	 20.30	
 13.601	-93.617	  9.98453	  3.16613	  4.09297	 -0.48552	  8.68743	 -0.36856	 10.96155	709.39001	 20.30	
 13.601	-86.383	  9.98292	  3.75469	  3.50208	 -0.49075	  8.70788	 -0.37379	 10.96321	709.39001	 20.30	
 13.607	-79.207	  9.99132	  4.35167	  2.93646	 -0.44633	  8.64704	 -0.38257	 10.96415	709.27002	 20.30	
 13.595	-71.958	  9.99484	  4.96414	  2.38883	 -0.33664	  8.49339	 -0.38862	 10.96133	709.35999	 20.30	
 13.604	-64.789	  9.99630	  5.55407	  1.88499	 -0.17547	  8.26112	 -0.39086	 10.95724	709.40002	 20.30	
 13.611	-57.569	 10.00232	  6.13458	  1.41840	  0.04157	  7.95205	 -0.39564	 10.96527	709.40002	 20.30	
 13.596	-50.360	 10.00457	  6.67828	  1.00590	  0.32036	  7.56451	 -0.39326	 10.96131	709.34998	 20.30	
 13.601	-43.175	 10.00475	  7.17152	  0.64073	  0.64184	  7.12482	 -0.39955	 10.95913	709.34003	 20.30	
 13.611	-36.001	  9.99618	  7.60767	  0.33279	  1.00975	  6.63130	 -0.39205	 10.95696	709.32001	 20.30	
 13.609	-28.790	 10.00068	  7.98910	  0.08381	  1.45058	  6.08403	 -0.38151	 10.96364	709.33002	 20.30	
 13.601	-21.647	 10.00324	  8.29600	 -0.10829	  1.93521	  5.51210	 -0.35860	 10.96795	709.38000	 20.30	
 13.611	-14.417	  9.99378	  8.51873	 -0.25904	  2.44750	  4.91285	 -0.34393	 10.96133	709.32001	 20.30	
 13.608	 -7.147	  9.99512	  8.65978	 -0.34303	  3.01053	  4.30148	 -0.33070	 10.96310	709.38000	 20.30	
 13.600	  0.000	  9.99335	  8.71267	 -0.37282	  3.59064	  3.69908	 -0.32907	 10.96320	709.38000	 20.30	
 13.608	  7.147	  9.99047	  8.68721	 -0.35248	  4.17478	  3.12969	 -0.32713	 10.96302	709.40002	 20.30	
 13.611	 14.417	  9.98945	  8.57194	 -0.27985	  4.79434	  2.55664	 -0.31953	 10.96333	709.39001	 20.30	
 13.601	 21.647	  9.98751	  8.36901	 -0.14345	  5.40075	  2.02751	 -0.30966	 10.96564	709.31000	 20.30	
 13.609	 28.790	  9.98675	  8.09452	  0.04006	  5.97297	  1.55206	 -0.31583	 10.96545	709.34998	 20.30	
 13.611	 36.001	  9.97604	  7.73433	  0.27678	  6.53324	  1.10087	 -0.34218	 10.96395	709.29999	 20.30	
 13.601	 43.175	  9.96902	  7.31690	  0.56402	  7.04583	  0.70341	 -0.38003	 10.96405	709.37000	 20.30	
 13.596	 50.360	  9.96408	  6.84077	  0.90675	  7.50833	  0.35667	 -0.41106	 10.96598	709.33002	 20.30	
 13.611	 57.569	  9.96305	  6.30711	  1.31065	  7.91148	  0.07116	 -0.42671	 10.97013	709.45001	 20.30	
 13.604	 64.789	  9.95216	  5.73422	  1.76748	  8.24488	 -0.16818	 -0.42753	 10.96330	709.33002	 20.30	
 13.595	 71.958	  9.94585	  5.14166	  2.25972	  8.49789	 -0.34210	 -0.42211	 10.96239	709.37000	 20.40	
 13.607	 79.207	  9.93893	  4.53064	  2.79503	  8.67837	 -0.46782	 -0.42254	 10.95913	709.40997	 20.40	
 13.601	 86.383	  9.94172	  3.93128	  3.35941	  8.76857	 -0.52607	 -0.43512	 10.96305	709.45001	 20.40	
 13.601	 93.617	  9.93596	  3.34386	  3.94470	  8.77250	 -0.53316	 -0.45125	 10.95952	709.37000	 20.40	
 13.607	100.793	  9.93244	  2.77093	  4.54119	  8.69625	 -0.49669	 -0.45863	 10.96251	709.37000	 20.40	
 13.595	108.042	  9.93502	  2.22960	  5.14864	  8.53234	 -0.39302	 -0.45043	 10.96287	709.40997	 20.40	
 13.604	115.211	  9.93374	  1.72686	  5.72936	  8.28967	 -0.24714	 -0.43052	 10.96355	709.33002	 20.40	
 13.611	122.431	  9.93159	  1.26509	  6.30054	  7.96927	 -0.03878	 -0.41856	 10.96894	709.28998	 20.40	
 13.596	129.640	  9.92590	  0.84964	  6.82869	  7.57550	  0.22239	 -0.42186	 10.96027	709.29999	 20.40	
 13.601	136.825	  9.92089	  0.48777	  7.31069	  7.12353	  0.53787	 -0.43621	 10.95880	709.27002	 20.40	
 13.611	143.999	  9.92138	  0.17733	  7.74288	  6.61792	  0.90532	 -0.44296	 10.96167	709.27002	 20.40	
 13.609	151.210	  9.92387	 -0.07849	  8.11377	  6.06605	  1.32936	 -0.44800	 10.96290	709.22998	 20.40	
 13.601	158.353	  9.92587	 -0.28929	  8.40783	  5.49481	  1.78141	 -0.44016	 10.96555	709.29999	 20.40	
 13.611	165.583	  9.92987	 -0.43474	  8.63122	  4.88787	  2.29995	 -0.42583	 10.96263	709.25000	 20.40	
 13.608	172.853	  9.93811	 -0.52204	  8.76803	  4.27209	  2.85813	 -0.42424	 10.96345	709.28998	 20.40	
 15.298	173.587	  9.63846	 -1.13431	  9.15425	  4.04039	  2.60709	 -0.49249	 10.95901	709.34998	 20.40	
 15.291	167.167	  9.63475	 -1.06024	  9.03435	  4.64997	  2.06055	 -0.50205	 10.96313	709.38000	 20.40	
 15.307	160.676	  9.62048	 -0.95093	  8.83626	  5.25466	  1.53697	 -0.51752	 10.96172	709.31000	 20.40	
 15.300	154.261	  9.61826	 -0.77396	  8.56882	  5.83880	  1.06675	 -0.54042	 10.96281	709.20001	 20.40	
 15.288	147.854	  9.62002	 -0.54916	  8.23355	  6.41033	  0.63823	 -0.55363	 10.96852	709.22998	 20.40	
 15.293	141.428	  9.61872	 -0.27775	  7.82871	  6.94864	  0.24685	 -0.55089	 10.96275	709.26001	 20.40	
 15.299	134.985	  9.62421	  0.04458	  7.37987	  7.44103	 -0.08788	 -0.54452	 10.96126	709.29999	 20.40	
 15.305	128.583	  9.62374	  0.39968	  6.88389	  7.88396	 -0.38526	 -0.53452	 10.96415	709.28003	 20.40	
 15.309	122.142	  9.62440	  0.79545	  6.34989	  8.28186	 -0.63880	 -0.53288	 10.96993	709.28003	 20.40	
 15.304	115.711	  9.62025	  1.25322	  5.77347	  8.60049	 -0.83164	 -0.55238	 10.95679	709.32001	 20.40	
 15.297	109.291	  9.62840	  1.74293	  5.19026	  8.86098	 -0.98402	 -0.57421	 10.96413	709.23999	 20.40	
 15.293	102.897	  9.62414	  2.26281	  4.59632	  9.03289	 -1.08535	 -0.58926	 10.95715	709.28003	 20.40	
 15.293	 96.458	  9.63407	  2.83363	  3.99094	  9.14184	 -1.13746	 -0.59305	 10.96136	709.26001	 20.40	
 15.300	 90.000	  9.64007	  3.41343	  3.40033	  9.18124	 -1.14991	 -0.58125	 10.96735	709.26001	 20.40	
 15.293	 83.542	  9.63812	  4.00297	  2.83163	  9.13373	 -1.12030	 -0.56158	 10.96452	709.28003	 20.40	
 15.293	 77.103	  9.63911	  4.60815	  2.27460	  9.01497	 -1.04723	 -0.56075	 10.96333	709.25000	 20.40	
 15.297	 70.709	  9.64580	  5.20548	  1.75937	  8.82164	 -0.92893	 -0.56945	 10.96379	709.28003	 20.40	
 15.304	 64.289	  9.64897	  5.79500	  1.27978	  8.55654	 -0.75228	 -0.57619	 10.96644	709.21997	 20.40	
 15.309	 57.858	  9.65283	  6.37184	  0.83511	  8.21639	 -0.53000	 -0.57330	 10.96519	709.34998	 20.40	
 15.305	 51.417	  9.65821	  6.91346	  0.43984	  7.80771	 -0.24986	 -0.55509	 10.95954	709.29999	 20.40	
 15.299	 45.015	  9.67188	  7.40972	  0.09882	  7.36014	  0.07626	 -0.52257	 10.96573	709.28998	 20.50	
 15.293	 38.572	  9.67571	  7.84614	 -0.19423	  6.85862	  0.44330	 -0.48676	 10.96283	709.31000	 20.50	
 15.288	 32.146	  9.68828	  8.24046	 -0.44469	  6.32194	  0.86377	 -0.44636	 10.96700	709.32001	 20.50	
 15.300	 25.739	  9.69272	  8.56131	 -0.64771	  5.75147	  1.31636	 -0.43238	 10.97032	709.33002	 20.50	
 15.307	 19.324	  9.68813	  8.81032	 -0.80718	  5.16185	  1.80166	 -0.43252	 10.96517	709.23999	 20.50	
 15.291	 12.833	  9.70100	  8.98876	 -0.91215	  4.55512	  2.34223	 -0.43442	 10.96513	709.25000	 20.50	
 15.298	  6.413	  9.69995	  9.09272	 -0.97926	  3.94532	  2.90201	 -0.43582	 10.96455	709.32001	 20.50	
 15.300	  0.000	  9.69771	  9.11520	 -0.99860	  3.35119	  3.47120	 -0.43038	 10.96019	709.28003	 20.50	
 15.298	 -6.413	  9.70156	  9.06110	 -0.96485	  2.77170	  4.07546	 -0.42484	 10.95908	709.35999	 20.50	
 15.291	-12.833	  9.69955	  8.93016	 -0.89618	  2.21506	  4.68310	 -0.42842	 10.95743	709.41998	 20.50	
 15.307	-19.324	  9.70579	  8.73699	 -0.77785	  1.69111	  5.28484	 -0.43903	 10.96774	709.34003	 20.50	
 15.300	-25.739	  9.70323	  8.45838	 -0.61277	  1.20301	  5.87247	 -0.45076	 10.95955	709.32001	 20.50	
 15.288	-32.146	  9.70431	  8.11091	 -0.39404	  0.75283	  6.43636	 -0.45292	 10.95924	709.31000	 20.50	
 15.293	-38.572	  9.71090	  7.70299	 -0.12476	  0.36135	  6.96415	 -0.45565	 10.96078	709.40002	 20.50	
 15.299	-45.015	  9.70991	  7.24066	  0.18659	  0.01011	  7.45202	 -0.44510	 10.95896	709.33002	 20.50	
 15.305	-51.417	  9.70808	  6.73245	  0.54360	 -0.29896	  7.89329	 -0.44063	 10.96114	709.37000	 20.50	
 15.309	-57.858	  9.70331	  6.18148	  0.95018	 -0.56388	  8.27611	 -0.42684	 10.96252	709.39001	 20.50	
 15.304	-64.289	  9.70284	  5.59911	  1.41287	 -0.76730	  8.58880	 -0.41208	 10.96361	709.33002	 20.50	
 15.297	-70.709	  9.70394	  5.01408	  1.90462	 -0.91939	  8.82585	 -0.40683	 10.96434	709.33002	 20.50	
 15.293	-77.103	  9.69571	  4.41155	  2.42702	 -1.02829	  8.98595	 -0.39512	 10.95498	709.40997	 20.50	
 15.293	-83.542	  9.69532	  3.80571	  2.99056	 -1.08438	  9.07781	 -0.38347	 10.95756	709.32001	 20.50	
 15.300	-90.000	  9.69540	  3.21584	  3.57143	 -1.10579	  9.10001	 -0.38129	 10.96353	709.32001	 20.50	
 15.293	-96.458	  9.69063	  2.63895	  4.16650	 -1.07678	  9.03728	 -0.38388	 10.96032	709.34998	 20.50	
 15.293	-102.897	  9.69544	  2.08633	  4.77231	 -1.00598	  8.90821	 -0.38382	 10.96633	709.34003	 20.50	
 15.297	-109.291	  9.68281	  1.57617	  5.35563	 -0.89134	  8.69435	 -0.37649	 10.95422	709.32001	 20.50	
 15.304	-115.711	  9.69240	  1.09322	  5.94137	 -0.73535	  8.42457	 -0.37562	 10.96645	709.44000	 20.50	
 15.309	-122.142	  9.68455	  0.64822	  6.50737	 -0.51786	  8.06875	 -0.38078	 10.95904	709.28998	 20.50	
 15.305	-128.583	  9.68850	  0.26605	  7.03516	 -0.24498	  7.65579	 -0.38367	 10.95779	709.34003	 20.50	
 15.299	-134.985	  9.69267	 -0.07946	  7.52201	  0.06891	  7.19495	 -0.39477	 10.96024	709.42999	 20.50	
 15.293	-141.428	  9.68824	 -0.38340	  7.95631	  0.43565	  6.67808	 -0.40993	 10.95649	709.37000	 20.50	
 15.288	-147.854	  9.68429	 -0.64894	  8.33769	  0.82857	  6.13804	 -0.42408	 10.96232	709.33002	 20.50	
 15.300	-154.261	  9.67410	 -0.85476	  8.65585	  1.28309	  5.55750	 -0.43916	 10.95836	709.41998	 20.50	
 15.307	-160.676	  9.66297	 -1.00756	  8.89942	  1.77727	  4.95947	 -0.45809	 10.95189	709.34003	 20.50	
 15.291	-167.167	  9.66506	 -1.10493	  9.07509	  2.31189	  4.36005	 -0.47355	 10.96001	709.46002	 20.60	
 15.298	-173.587	  9.65473	 -1.16406	  9.17922	  2.87356	  3.75485	 -0.48546	 10.96074	709.46002	 20.60	
 15.300	180.000	  9.64670	 -1.16983	  9.20710	  3.45822	  3.16578	 -0.49304	 10.96197	709.40997	 20.60	
 17.000	180.000	  9.30695	 -1.76442	  9.55383	  3.20590	  2.89198	 -0.52575	 10.95820	709.50000	 20.60	
 16.990	-174.179	  9.31994	 -1.75650	  9.53047	  2.62841	  3.48032	 -0.52103	 10.95776	709.46997	 20.60	
 17.009	-168.383	  9.32553	 -1.72326	  9.44457	  2.06891	  4.07595	 -0.49947	 10.95834	709.50000	 20.60	
 17.000	-162.596	  9.33850	 -1.62840	  9.28903	  1.55405	  4.66762	 -0.47406	 10.95850	709.37000	 20.60	
 16.990	-156.759	  9.34461	 -1.49892	  9.06367	  1.04915	  5.27360	 -0.45116	 10.95896	709.35999	 20.60	
 16.995	-150.919	  9.35525	 -1.33134	  8.78350	  0.57616	  5.87313	 -0.43187	 10.96616	709.45001	 20.60	
 16.988	-145.161	  9.35698	 -1.11532	  8.43921	  0.17071	  6.42278	 -0.41827	 10.96088	709.34998	 20.60	
 17.014	-139.343	  9.35002	 -0.85700	  8.03117	 -0.21612	  6.96423	 -0.40037	 10.95435	709.31000	 20.60	
 17.007	-133.546	  9.35488	 -0.54350	  7.57432	 -0.55431	  7.47156	 -0.38479	 10.95759	709.39001	 20.60	
 17.001	-127.699	  9.36104	 -0.19387	  7.07512	 -0.84676	  7.93678	 -0.37275	 10.96185	709.35999	 20.60	
 17.006	-121.937	  9.35857	  0.18575	  6.54978	 -1.09059	  8.33245	 -0.36265	 10.95784	709.29999	 20.60	
 17.002	-116.134	  9.35864	  0.61129	  5.98594	 -1.29566	  8.68141	 -0.35840	 10.95867	709.31000	 20.60	
 17.001	-110.310	  9.35426	  1.07649	  5.40147	 -1.45866	  8.97216	 -0.36124	 10.95487	709.38000	 20.60	
 16.988	-104.517	  9.35880	  1.57403	  4.81236	 -1.57672	  9.19548	 -0.36517	 10.96222	709.27002	 20.60	
 17.008	-98.662	  9.34577	  2.10168	  4.20491	 -1.66410	  9.35459	 -0.36306	 10.95271	709.28998	 20.60	
 16.996	-92.909	  9.35673	  2.65804	  3.61692	 -1.70393	  9.44515	 -0.36798	 10.95925	709.40997	 20.60	
 16.996	-87.091	  9.35786	  3.23147	  3.03413	 -1.71124	  9.46757	 -0.37312	 10.96183	709.29999	 20.60	
 17.012	-81.253	  9.35452	  3.82804	  2.45707	 -1.68650	  9.42373	 -0.37136	 10.95916	709.31000	 20.60	
 16.988	-75.483	  9.36696	  4.42937	  1.91971	 -1.60703	  9.30297	 -0.38340	 10.96386	709.41998	 20.60	
 17.001	-69.690	  9.36924	  5.02812	  1.41040	 -1.49291	  9.12275	 -0.39668	 10.96142	709.53998	 20.60	
 17.002	-63.866	  9.37155	  5.62069	  0.93344	 -1.33621	  8.86736	 -0.41645	 10.95916	709.32001	 20.60	
 17.006	-58.063	  9.37300	  6.20512	  0.48250	 -1.14501	  8.55366	 -0.42964	 10.96020	709.39001	 20.60	
 17.001	-52.301	  9.36303	  6.74063	  0.08519	 -0.90950	  8.17876	 -0.43962	 10.95284	709.34003	 20.60	
 17.007	-46.454	  9.37454	  7.26980	 -0.27182	 -0.61943	  7.75404	 -0.45915	 10.96041	709.32001	 20.60	
 17.014	-40.657	  9.37802	  7.75214	 -0.59303	 -0.29408	  7.27910	 -0.47850	 10.96304	709.31000	 20.60	
 16.988	-34.839	  9.37781	  8.18445	 -0.86021	  0.08354	  6.75580	 -0.48906	 10.95872	709.46997	 20.60	
 16.995	-29.081	  9.36663	  8.55102	 -1.08553	  0.47906	  6.21223	 -0.50410	 10.95340	709.42999	 20.60	
 16.990	-23.241	  9.37222	  8.87082	 -1.26513	  0.95099	  5.62599	 -0.50304	 10.95480	709.31000	 20.60	
 17.000	-17.404	  9.37273	  9.12630	 -1.40860	  1.44240	  5.03300	 -0.49438	 10.96005	709.28998	 20.60	
 17.009	-11.617	  9.37015	  9.31466	 -1.51834	  1.94632	  4.44257	 -0.49923	 10.96130	709.40002	 20.60	
 16.990	 -5.821	  9.36971	  9.42331	 -1.57265	  2.50275	  3.83852	 -0.50924	 10.95644	709.39001	 20.60	
 17.000	  0.000	  9.36469	  9.47133	 -1.59979	  3.08496	  3.23805	 -0.51992	 10.95528	709.33002	 20.60	
 16.990	  5.821	  9.36905	  9.45168	 -1.58030	  3.67759	  2.66660	 -0.53532	 10.95912	709.44000	 20.60	
 17.009	 11.617	  9.36429	  9.36744	 -1.53154	  4.28193	  2.10168	 -0.54486	 10.96166	709.34003	 20.60	
 17.000	 17.404	  9.36152	  9.20688	 -1.43721	  4.88993	  1.56965	 -0.54729	 10.96353	709.38000	 20.60	
 16.990	 23.241	  9.36095	  8.97812	 -1.30264	  5.48255	  1.07804	 -0.54454	 10.96487	709.39001	 20.60	
 16.995	 29.081	  9.34770	  8.67789	 -1.13267	  6.06753	  0.60896	 -0.55861	 10.95686	709.34003	 20.60	
 16.988	 34.839	  9.34301	  8.33211	 -0.91747	  6.62673	  0.19497	 -0.58713	 10.96141	709.46997	 20.60	
 17.014	 40.657	  9.33199	  7.92361	 -0.66934	  7.14935	 -0.19523	 -0.63080	 10.95734	709.46997	 20.70	
 17.007	 46.454	  9.32681	  7.45743	 -0.36799	  7.64582	 -0.54963	 -0.67144	 10.96324	709.32001	 20.70	
 17.001	 52.301	  9.31923	  6.94772	 -0.02137	  8.09124	 -0.85564	 -0.70485	 10.96159	709.35999	 20.70	
 17.006	 58.063	  9.30714	  6.40533	  0.35684	  8.48191	 -1.11013	 -0.73062	 10.95512	709.40997	 20.70	
 17.002	 63.866	  9.30908	  5.83756	  0.79004	  8.82532	 -1.31924	 -0.72880	 10.96267	709.23999	 20.70	
 17.001	 69.690	  9.29796	  5.24304	  1.25425	  9.09493	 -1.48333	 -0.71033	 10.95544	709.28003	 20.70	
 16.988	 75.483	  9.29939	  4.64681	  1.75659	  9.29746	 -1.59972	 -0.69777	 10.95613	709.21002	 20.70	
 17.012	 81.253	  9.28904	  4.04699	  2.28190	  9.44439	 -1.69582	 -0.69722	 10.95215	709.32001	 20.70	
 16.996	 87.091	  9.29611	  3.45645	  2.84616	  9.51876	 -1.73384	 -0.70669	 10.95977	709.26001	 20.70	
 16.996	 92.909	  9.29111	  2.87640	  3.42481	  9.52559	 -1.74153	 -0.72468	 10.95948	709.34003	 20.70	
 17.008	 98.662	  9.28500	  2.30796	  4.01276	  9.46900	 -1.72305	 -0.73395	 10.95746	709.35999	 20.70	
 16.988	104.517	  9.28092	  1.76123	  4.62357	  9.33385	 -1.65076	 -0.71946	 10.95506	709.34998	 20.70	
 17.001	110.310	  9.27748	  1.24815	  5.21613	  9.13887	 -1.54863	 -0.69435	 10.95702	709.33002	 20.70	
 17.002	116.134	  9.27416	  0.77172	  5.80136	  8.88118	 -1.40763	 -0.67147	 10.95582	709.29999	 20.70	
 17.006	121.937	  9.27138	  0.33079	  6.37100	  8.55503	 -1.22427	 -0.65789	 10.95958	709.41998	 20.70	
 17.001	127.699	  9.27245	 -0.05005	  6.90134	  8.16952	 -0.98717	 -0.64676	 10.95560	709.41998	 20.70	
 17.007	133.546	  9.27493	 -0.41041	  7.41423	  7.72689	 -0.71131	 -0.64983	 10.95900	709.40002	 20.70	
 17.014	139.343	  9.26991	 -0.73378	  7.87972	  7.24104	 -0.39500	 -0.65193	 10.95583	709.32001	 20.70	
 16.988	145.161	  9.26565	 -1.00172	  8.29259	  6.72180	 -0.03785	 -0.64686	 10.95687	709.28003	 20.70	
 16.995	150.919	  9.27001	 -1.23901	  8.66027	  6.17115	  0.35615	 -0.63947	 10.96028	709.44000	 20.70	
 16.990	156.759	  9.26958	 -1.42877	  8.96573	  5.57940	  0.80405	 -0.61031	 10.95084	709.34998	 20.70	
 17.000	162.596	  9.27757	 -1.57227	  9.21023	  4.99170	  1.27454	 -0.58449	 10.95475	709.35999	 20.70	
 17.009	168.383	  9.28634	 -1.67268	  9.39536	  4.39285	  1.78296	 -0.56504	 10.95852	709.38000	 20.70	
 16.990	174.179	  9.29377	 -1.72574	  9.49772	  3.79228	  2.33554	 -0.54407	 10.95047	709.28998	 20.70	
 18.709	174.675	  8.91376	 -2.31665	  9.82307	  3.51068	  2.04167	 -0.57100	 10.94856	709.38000	 20.70	
 18.703	169.441	  8.91099	 -2.26085	  9.72851	  4.11492	  1.51357	 -0.59492	 10.95700	709.32001	 20.70	
 18.691	164.085	  8.90730	 -2.16425	  9.55654	  4.72045	  1.00752	 -0.62255	 10.95666	709.32001	 20.70	
 18.706	158.818	  8.89386	 -2.06518	  9.33456	  5.29869	  0.52925	 -0.64988	 10.95570	709.34003	 20.70	
 18.695	153.537	  8.88912	 -1.90371	  9.04745	  5.88737	  0.08347	 -0.69008	 10.95217	709.29999	 20.70	
 18.704	148.255	  8.88885	 -1.70170	  8.71274	  6.45842	 -0.32320	 -0.71848	 10.95792	709.29999	 20.70	
 18.698	142.952	  8.90089	 -1.44964	  8.33239	  7.00227	 -0.68420	 -0.72651	 10.95864	709.32001	 20.70	
 18.699	137.625	  8.89660	 -1.16994	  7.89173	  7.51266	 -1.01968	 -0.74144	 10.95604	709.22998	 20.70	
 18.705	132.343	  8.89382	 -0.85975	  7.40950	  7.98521	 -1.32175	 -0.74601	 10.95203	709.40997	 20.70	
 18.713	127.067	  8.88896	 -0.51304	  6.89615	  8.40944	 -1.57501	 -0.75576	 10.95045	709.28998	 20.70	
 18.700	121.794	  8.89920	 -0.12425	  6.35963	  8.78413	 -1.78090	 -0.76600	 10.95269	709.34998	 20.70	
 18.698	116.504	  8.90294	  0.29565	  5.79961	  9.11023	 -1.95415	 -0.78622	 10.95407	709.38000	 20.70	
 18.707	111.165	  8.90624	  0.76025	  5.20749	  9.39074	 -2.10073	 -0.81579	 10.95490	709.28998	 20.70	
 18.690	105.863	  8.90828	  1.25105	  4.62088	  9.60046	 -2.20862	 -0.84241	 10.95942	709.34003	 20.70	
 18.696	100.583	  8.91210	  1.77520	  4.02491	  9.75008	 -2.28398	 -0.85563	 10.95790	709.32001	 20.70	
 18.700	 95.309	  8.91716	  2.32905	  3.43084	  9.83645	 -2.32013	 -0.85909	 10.95848	709.41998	 20.80	
 18.700	 90.000	  8.91342	  2.89381	  2.84242	  9.85011	 -2.32818	 -0.85391	 10.94981	709.25000	 20.70	
 18.700	 84.691	  8.92478	  3.47190	  2.28502	  9.82368	 -2.30299	 -0.83488	 10.95904	709.34998	 20.80	
 18.696	 79.417	  8.92404	  4.06808	  1.74131	  9.71809	 -2.24573	 -0.83119	 10.95296	709.34003	 20.70	
 18.690	 74.137	  8.93085	  4.66538	  1.23226	  9.55981	 -2.15597	 -0.84124	 10.95322	709.33002	 20.80	
 18.707	 68.835	  8.93230	  5.26225	  0.74509	  9.34015	 -2.03462	 -0.85257	 10.95619	709.23999	 20.80	
 18.698	 63.496	  8.94045	  5.85673	  0.29720	  9.05060	 -1.86268	 -0.86697	 10.95633	709.34998	 20.80	
 18.700	 58.206	  8.94645	  6.42796	 -0.11603	  8.71294	 -1.66303	 -0.86835	 10.95480	709.34003	 20.80	
 18.713	 52.933	  8.94734	  6.96747	 -0.49694	  8.33339	 -1.44213	 -0.85012	 10.95522	709.26001	 20.80	
 18.705	 47.657	  8.95913	  7.48005	 -0.83180	  7.89966	 -1.16013	 -0.81751	 10.96129	709.34003	 20.80	
 18.699	 42.375	  8.96365	  7.95660	 -1.12910	  7.41274	 -0.82618	 -0.77900	 10.95487	709.34998	 20.80	
 18.698	 37.048	  8.97741	  8.39004	 -1.38512	  6.88576	 -0.45506	 -0.73559	 10.95588	709.48999	 20.80	
 18.704	 31.745	  8.98186	  8.76496	 -1.60954	  6.34816	 -0.06949	 -0.70203	 10.95904	709.40002	 20.80	
 18.695	 26.463	  8.99185	  9.08582	 -1.78748	  5.77514	  0.36379	 -0.67537	 10.95922	709.45001	 20.80	
 18.706	 21.182	  8.99018	  9.35657	 -1.93729	  5.18076	  0.82618	 -0.66239	 10.95630	709.39001	 20.80	
 18.691	 15.915	  8.99513	  9.56210	 -2.05473	  4.58990	  1.31433	 -0.65037	 10.95886	709.34998	 20.80	
 18.703	 10.559	  8.99216	  9.70735	 -2.13575	  3.97629	  1.84855	 -0.63668	 10.95277	709.40002	 20.80	
 18.709	  5.325	  8.99938	  9.79436	 -2.18623	  3.38176	  2.40074	 -0.61193	 10.95873	709.41998	 20.80	
 18.700	  0.000	  9.00131	  9.81108	 -2.19627	  2.80663	  2.96706	 -0.58875	 10.95815	709.42999	 20.80	
 18.709	 -5.325	  8.99723	  9.76219	 -2.17719	  2.22875	  3.56209	 -0.56571	 10.95202	709.28003	 20.80	
 18.703	-10.559	  9.00125	  9.65751	 -2.12165	  1.68440	  4.16015	 -0.54844	 10.95631	709.41998	 20.80	
 18.691	-15.915	  9.00463	  9.48540	 -2.02241	  1.17753	  4.75430	 -0.53527	 10.95110	709.42999	 20.80	
 18.706	-21.182	  9.01206	  9.26222	 -1.90851	  0.68189	  5.35327	 -0.53077	 10.96095	709.34003	 20.80	
 18.695	-26.463	  9.01200	  8.96446	 -1.74524	  0.22380	  5.94032	 -0.51691	 10.95723	709.35999	 20.80	
 18.704	-31.745	  9.01823	  8.62521	 -1.55320	 -0.19032	  6.49852	 -0.49887	 10.96024	709.39001	 20.80	
 18.698	-37.048	  9.01153	  8.21534	 -1.32189	 -0.57081	  7.03214	 -0.48381	 10.95290	709.35999	 20.80	
 18.699	-42.375	  9.00472	  7.75830	 -1.04797	 -0.91573	  7.53792	 -0.47023	 10.94663	709.39001	 20.80	
 18.705	-47.657	  9.01193	  7.27208	 -0.73292	 -1.21582	  8.01145	 -0.44560	 10.95614	709.40997	 20.80	
 18.713	-52.933	  9.01442	  6.75246	 -0.37967	 -1.47388	  8.42831	 -0.43269	 10.95699	709.38000	 20.80	
 18.700	-58.206	  9.00310	  6.19545	  0.00670	 -1.70223	  8.78724	 -0.41388	 10.94704	709.34003	 20.80	
 18.698	-63.496	  9.00309	  5.62211	  0.43603	 -1.89304	  9.11242	 -0.39415	 10.95233	709.32001	 20.80	
 18.707	-68.835	  8.99819	  5.02054	  0.90409	 -2.05136	  9.37428	 -0.38021	 10.95345	709.37000	 20.80	
 18.690	-74.137	  9.00131	  4.42634	  1.40530	 -2.16290	  9.57216	 -0.36900	 10.95570	709.31000	 20.80	
 18.696	-79.417	  8.99892	  3.83208	  1.93051	 -2.23952	  9.71159	 -0.35346	 10.95844	709.34998	 20.80	
 18.700	-84.691	  8.99125	  3.23754	  2.47793	 -2.28482	  9.78233	 -0.35414	 10.95552	709.28003	 20.80	
 18.700	-90.000	  8.98688	  2.66399	  3.04666	 -2.29727	  9.79096	 -0.34988	 10.95490	709.31000	 20.80	
 18.700	-95.309	  8.98265	  2.10841	  3.63448	 -2.27265	  9.73646	 -0.34693	 10.95410	709.21002	 20.80	
 18.696	-100.583	  8.98225	  1.56962	  4.22779	 -2.21569	  9.62123	 -0.34934	 10.95127	709.28003	 20.80	
 18.690	-105.863	  8.99217	  1.06943	  4.82405	 -2.12438	  9.45024	 -0.34482	 10.95822	709.15002	 20.80	
 18.707	-111.165	  8.99034	  0.58176	  5.41325	 -2.00942	  9.21418	 -0.33887	 10.95840	709.26001	 20.80	
 18.698	-116.504	  8.99585	  0.12832	  6.00093	 -1.84629	  8.91206	 -0.33534	 10.95589	709.32001	 20.80	
 18.700	-121.794	  9.00215	 -0.27582	  6.56402	 -1.64571	  8.56092	 -0.34364	 10.96119	709.25000	 20.80	
 18.713	-127.067	  8.99468	 -0.64743	  7.08932	 -1.41330	  8.15505	 -0.34528	 10.95007	709.35999	 20.80	
 18.705	-132.343	  8.99942	 -0.99256	  7.59879	 -1.14509	  7.71449	 -0.36165	 10.96038	709.26001	 20.80	
 18.699	-137.625	  8.99148	 -1.30148	  8.05494	 -0.84010	  7.21697	 -0.37018	 10.94931	709.33002	 20.80	
 18.698	-142.952	  8.99475	 -1.57166	  8.48362	 -0.48409	  6.68376	 -0.38656	 10.95816	709.35999	 20.80	
 18.704	-148.255	  8.99162	 -1.79571	  8.85698	 -0.09380	  6.12488	 -0.40644	 10.95674	709.44000	 20.80	
 18.695	-153.537	  8.98125	 -1.97511	  9.16713	  0.32876	  5.55553	 -0.42680	 10.95412	709.37000	 20.80	
 18.706	-158.818	  8.97299	 -2.12724	  9.43127	  0.79352	  4.95840	 -0.44627	 10.95157	709.28003	 20.80	
 18.691	-164.085	  8.97084	 -2.22974	  9.63021	  1.30203	  4.36377	 -0.46930	 10.95470	709.40997	 20.80	
 18.703	-169.441	  8.95870	 -2.30376	  9.77344	  1.81841	  3.76503	 -0.49081	 10.95923	709.32001	 20.90	
 18.709	-174.675	  8.94469	 -2.33870	  9.84914	  2.36477	  3.17157	 -0.51973	 10.95478	709.26001	 20.90	
 18.700	180.000	  8.93515	 -2.34094	  9.86933	  2.93710	  2.59507	 -0.54609	 10.95464	709.21997	 20.80	
 20.400	180.000	  8.52892	 -2.89887	 10.14148	  2.65804	  2.28443	 -0.53708	 10.95410	709.31000	 20.90	
 20.401	-175.153	  8.53819	 -2.89427	 10.12399	  2.09613	  2.85002	 -0.49993	 10.94942	709.23999	 20.90	
 20.407	-170.264	  8.55121	 -2.87187	 10.05812	  1.54437	  3.43730	 -0.47200	 10.95192	709.31000	 20.90	
 20.410	-165.423	  8.56105	 -2.81584	  9.93533	  1.03482	  4.01791	 -0.44990	 10.95427	709.28998	 20.90	
 20.392	-160.496	  8.57120	 -2.71983	  9.74686	  0.53493	  4.62335	 -0.43083	 10.94919	709.32001	 20.90	
 20.401	-155.705	  8.57883	 -2.60343	  9.51816	  0.06889	  5.21334	 -0.41271	 10.95706	709.25000	 20.90	
 20.405	-150.835	  8.59092	 -2.44374	  9.23205	 -0.34933	  5.78690	 -0.38940	 10.95755	709.28998	 20.90	
 20.397	-145.903	  8.59021	 -2.24873	  8.87485	 -0.75542	  6.36432	 -0.38144	 10.94792	709.28998	 20.90	
 20.392	-141.062	  8.59028	 -2.02222	  8.48631	 -1.12006	  6.91205	 -0.36356	 10.95021	709.22998	 20.90	
 20.396	-136.227	  8.59925	 -1.75073	  8.05596	 -1.44259	  7.42818	 -0.35440	 10.94995	709.21002	 20.90	
 20.408	-131.372	  8.59166	 -1.44034	  7.58349	 -1.72573	  7.90478	 -0.34929	 10.94365	709.29999	 20.90	
 20.410	-126.511	  8.59962	 -1.10525	  7.08187	 -1.98216	  8.36251	 -0.33649	 10.95648	709.22998	 20.90	
 20.400	-121.604	  8.59714	 -0.73621	  6.54212	 -2.19415	  8.76209	 -0.32670	 10.95530	709.21002	 20.90	
 20.403	-116.741	  8.58695	 -0.34834	  5.98019	 -2.39426	  9.11121	 -0.32859	 10.95164	709.22998	 20.90	
 20.413	-111.900	  8.58066	  0.07112	  5.40372	 -2.54775	  9.41109	 -0.31532	 10.95078	709.21002	 20.90	
 20.398	-107.004	  8.58272	  0.55124	  4.81222	 -2.65649	  9.64935	 -0.31542	 10.94593	709.28998	 20.90	
 20.394	-102.132	  8.58474	  1.03860	  4.22413	 -2.75049	  9.84128	 -0.32147	 10.95093	709.22998	 20.90	
 20.403	-97.332	  8.57714	  1.54490	  3.64202	 -2.80829	  9.96714	 -0.32334	 10.94149	709.27002	 20.90	
 20.392	-92.440	  8.58784	  2.09263	  3.05375	 -2.83696	 10.05031	 -0.32134	 10.94751	709.28003	 20.90	
 20.392	-87.560	  8.59161	  2.65299	  2.48276	 -2.84994	 10.07211	 -0.33118	 10.95261	709.21997	 20.90	
 20.403	-82.668	  8.59052	  3.22654	  1.91908	 -2.82846	 10.03760	 -0.33685	 10.95213	709.28003	 20.90	
 20.394	-77.868	  8.59248	  3.80394	  1.39228	 -2.77802	  9.94404	 -0.34006	 10.95046	709.32001	 20.90	
 20.398	-72.996	  8.59646	  4.39643	  0.88363	 -2.69946	  9.80004	 -0.35537	 10.95248	709.34998	 20.90	
 20.413	-68.100	  8.59345	  4.99186	  0.39749	 -2.59366	  9.59635	 -0.37022	 10.95591	709.33002	 20.90	
 20.403	-63.259	  8.59746	  5.58133	 -0.05326	 -2.44412	  9.33449	 -0.37692	 10.95604	709.25000	 20.90	
 20.400	-58.396	  8.60785	  6.15374	 -0.46228	 -2.26104	  9.02089	 -0.39258	 10.95725	709.33002	 20.90	
 20.410	-53.489	  8.60281	  6.70866	 -0.84489	 -2.04529	  8.64181	 -0.40463	 10.94980	709.34003	 20.90	
 20.408	-48.628	  8.60638	  7.24468	 -1.19401	 -1.80337	  8.22827	 -0.42280	 10.95032	709.34998	 20.90	
 20.396	-43.773	  8.60610	  7.73976	 -1.49811	 -1.51144	  7.76800	 -0.44055	 10.94892	709.41998	 20.90	
 20.392	-38.938	  8.61174	  8.19745	 -1.77003	 -1.20803	  7.28686	 -0.45275	 10.95236	709.34003	 20.90	
 20.397	-34.097	  8.60441	  8.60938	 -2.00277	 -0.85934	  6.75419	 -0.46934	 10.94575	709.39001	 20.90	
 20.405	-29.165	  8.60866	  9.00365	 -2.21686	 -0.47484	  6.19571	 -0.49467	 10.95641	709.28998	 20.90	
 20.401	-24.295	  8.59742	  9.31855	 -2.38368	 -0.05704	  5.62599	 -0.52971	 10.94743	709.40997	 20.90	
 20.392	-19.504	  8.60075	  9.58001	 -2.50868	  0.40374	  5.05107	 -0.54226	 10.94714	709.31000	 20.90	
 20.410	-14.577	  8.59178	  9.79935	 -2.62677	  0.89889	  4.43792	 -0.56031	 10.94739	709.29999	 20.90	
 20.407	 -9.736	  8.59544	  9.95204	 -2.69798	  1.39388	  3.86349	 -0.57678	 10.94938	709.29999	 20.90	
 20.401	 -4.847	  8.59710	 10.05334	 -2.74333	  1.93784	  3.26867	 -0.60391	 10.95139	709.21997	 20.90	
 20.400	  0.000	  8.59970	 10.09713	 -2.76407	  2.49877	  2.68240	 -0.62728	 10.95794	709.27002	 20.90	
 20.401	  4.847	  8.59354	 10.08048	 -2.75706	  3.06452	  2.12764	 -0.66103	 10.95352	709.21002	 20.90	
 20.407	  9.736	  8.59161	 10.00941	 -2.72398	  3.66049	  1.57455	 -0.69479	 10.95230	709.28003	 20.90	
 20.410	 14.577	  8.58534	  9.88011	 -2.65127	  4.25306	  1.05614	 -0.72375	 10.95220	709.25000	 20.90	
 20.392	 19.504	  8.58440	  9.68223	 -2.54753	  4.84895	  0.56310	 -0.74889	 10.95193	709.32001	 20.90	
 20.401	 24.295	  8.57537	  9.43854	 -2.42024	  5.43568	  0.09833	 -0.77831	 10.94574	709.22998	 20.90	
 20.405	 29.165	  8.57252	  9.14132	 -2.26356	  6.01223	 -0.32837	 -0.80566	 10.95242	709.22998	 20.90	
 20.397	 34.097	  8.56651	  8.78502	 -2.06601	  6.57707	 -0.73280	 -0.83635	 10.94621	709.22998	 20.90	
 20.392	 38.938	  8.55872	  8.38602	 -1.84003	  7.11488	 -1.10384	 -0.87759	 10.94677	709.39001	 20.90	
 20.396	 43.773	  8.54952	  7.94317	 -1.58538	  7.62154	 -1.45002	 -0.91435	 10.94835	709.31000	 20.90	
 20.408	 48.628	  8.54015	  7.45702	 -1.28864	  8.09188	 -1.74731	 -0.93690	 10.94528	709.21002	 20.90	
 20.410	 53.489	  8.53679	  6.94404	 -0.95469	  8.52240	 -1.99096	 -0.97296	 10.94508	709.27002	 20.90	
 20.400	 58.396	  8.53039	  6.38994	 -0.58898	  8.91038	 -2.21418	 -0.99021	 10.94288	709.22998	 20.90	
 20.403	 63.259	  8.52415	  5.82897	 -0.19529	  9.25129	 -2.40908	 -0.99672	 10.95009	709.15002	 20.90	
 20.413	 68.100	  8.51262	  5.24276	  0.23104	  9.53771	 -2.57221	 -0.98712	 10.94732	709.23999	 21.00	
 20.398	 72.996	  8.50843	  4.64356	  0.70069	  9.76741	 -2.69598	 -0.96212	 10.94851	709.22998	 21.00	
 20.394	 77.868	  8.51185	  4.05558	  1.19230	  9.94967	 -2.78753	 -0.95737	 10.95167	709.31000	 20.90	
 20.403	 82.668	  8.50271	  3.46832	  1.70668	 10.06118	 -2.84943	 -0.96038	 10.94776	709.29999	 21.00	
 20.392	 87.560	  8.50131	  2.89384	  2.25708	 10.12091	 -2.88147	 -0.96544	 10.94568	709.32001	 21.00	
 20.392	 92.440	  8.49579	  2.32371	  2.82430	 10.12123	 -2.88726	 -0.96726	 10.94131	709.26001	 21.00	
 20.403	 97.332	  8.48713	  1.76073	  3.40644	 10.07752	 -2.87466	 -0.96457	 10.94266	709.26001	 21.00	
 20.394	102.132	  8.48817	  1.23618	  3.98467	  9.97972	 -2.82729	 -0.95092	 10.94896	709.29999	 21.00	
 20.398	107.004	  8.48408	  0.73132	  4.57510	  9.81989	 -2.75791	 -0.93526	 10.95154	709.37000	 21.00	
 20.413	111.900	  8.47949	  0.24912	  5.16496	  9.59849	 -2.65170	 -0.91258	 10.95201	709.34998	 21.00	
 20.403	116.741	  8.48355	 -0.18233	  5.74319	  9.32174	 -2.50309	 -0.88878	 10.95036	709.27002	 21.00	
 20.400	121.604	  8.47954	 -0.58422	  6.30231	  8.98956	 -2.33229	 -0.86589	 10.94339	709.38000	 21.00	
 20.410	126.511	  8.48089	 -0.96234	  6.85044	  8.61531	 -2.13085	 -0.84411	 10.94764	709.40997	 21.00	
 20.408	131.372	  8.47563	 -1.31000	  7.37155	  8.19818	 -1.90030	 -0.83457	 10.94911	709.21002	 21.00	
 20.396	136.227	  8.47248	 -1.61333	  7.84820	  7.73648	 -1.62799	 -0.81416	 10.94179	709.27002	 21.00	
 20.392	141.062	  8.47862	 -1.88125	  8.30042	  7.24302	 -1.31732	 -0.79109	 10.94723	709.25000	 21.00	
 20.397	145.903	  8.47594	 -2.13145	  8.70840	  6.71307	 -0.97714	 -0.76215	 10.94648	709.33002	 21.00	
 20.405	150.835	  8.46310	 -2.35720	  9.06446	  6.14124	 -0.61117	 -0.73776	 10.93871	709.22998	 21.00	
 20.401	155.705	  8.47136	 -2.52615	  9.38364	  5.57222	 -0.20054	 -0.69698	 10.94441	709.21002	 21.00	
 20.392	160.496	  8.48514	 -2.63859	  9.63614	  4.99673	  0.24017	 -0.66166	 10.94511	709.20001	 21.00	
 20.410	165.423	  8.48465	 -2.74848	  9.84207	  4.40750	  0.70548	 -0.63678	 10.93863	709.28998	 21.00	
 20.407	170.264	  8.49683	 -2.81885	  9.99281	  3.81844	  1.20656	 -0.60277	 10.93866	709.21997	 21.00	
 20.401	175.153	  8.50808	 -2.87308	 10.09434	  3.22429	  1.73893	 -0.57095	 10.94519	709.19000	 21.00	
  0.141	 45.000	 10.92829	  4.54156	  4.61741	  4.62935	  4.45168	  0.17253	 10.94382	709.15002	 21.00	
  4.001	128.691	 10.88880	  3.60378	  5.43004	  5.62120	  3.36673	  0.12640	 10.94522	709.19000	 21.00	
  4.002	 76.995	 10.89393	  4.73147	  4.25792	  5.89556	  3.13392	  0.14742	 10.94642	709.17999	 21.00	
  4.002	 25.892	 10.89949	  5.70736	  3.37687	  5.09020	  3.86150	  0.17641	 10.94600	709.21002	 21.00	
  4.002	-25.892	 10.90461	  5.66902	  3.42072	  3.91008	  5.06051	  0.15134	 10.94650	709.21002	 21.00	
  4.002	-76.995	 10.90211	  4.69128	  4.31423	  3.23351	  5.81078	  0.10709	 10.94606	709.28998	 21.00	
  4.001	-128.691	 10.90135	  3.58306	  5.47951	  3.49965	  5.47970	  0.07824	 10.94744	709.29999	 21.00	
  4.000	180.000	 10.88781	  3.12905	  6.01149	  4.52567	  4.39129	  0.07195	 10.94091	709.32001	 21.00	
  8.000	180.000	 10.65698	  1.57460	  7.28126	  4.27925	  4.07329	 -0.11736	 10.94917	709.27002	 21.00	
  7.991	-152.370	 10.66706	  1.82677	  6.94429	  3.00754	  5.42002	 -0.12545	 10.94404	709.26001	 21.00	
  7.997	-124.550	 10.67267	  2.60339	  6.00216	  2.10513	  6.52250	 -0.13387	 10.94316	709.10999	 21.00	
  8.006	-96.837	 10.68035	  3.77832	  4.70441	  1.68779	  7.09617	 -0.12399	 10.94390	709.31000	 21.00	
  7.988	-69.228	 10.68031	  5.11621	  3.41088	  1.82427	  6.95478	 -0.10185	 10.93974	709.15002	 21.00	
  7.997	-41.563	 10.68713	  6.31395	  2.40834	  2.47927	  6.16048	 -0.05964	 10.94401	709.21997	 21.00	
  8.008	-13.821	 10.68468	  7.03471	  1.85849	  3.57018	  4.92505	 -0.00621	 10.94429	709.33002	 21.00	
  8.008	 13.821	 10.67750	  7.06567	  1.83642	  4.89550	  3.58845	  0.01699	 10.94693	709.25000	 21.00	
  7.997	 41.563	 10.66893	  6.39640	  2.34289	  6.16504	  2.46120	  0.00505	 10.94645	709.23999	 21.00	
  7.988	 69.228	 10.65061	  5.21618	  3.32717	  7.00296	  1.77117	 -0.00895	 10.93559	709.22998	 21.00	
  8.006	 96.837	 10.64563	  3.87367	  4.60800	  7.20462	  1.59222	 -0.05030	 10.93898	709.34998	 21.00	
  7.997	124.550	 10.64618	  2.68448	  5.91686	  6.68656	  1.97219	 -0.05895	 10.94706	709.34003	 21.00	
  7.991	152.370	 10.64281	  1.88555	  6.89340	  5.61367	  2.83770	 -0.09715	 10.94536	709.33002	 21.00	
 12.009	161.059	 10.17074	  0.24102	  8.12337	  5.28686	  2.33639	 -0.33806	 10.94549	709.31000	 21.00	
 12.013	142.081	 10.16206	  0.78595	  7.36655	  6.58753	  1.27976	 -0.33616	 10.94278	709.29999	 21.00	
 12.006	123.113	 10.16891	  1.66388	  6.23235	  7.62997	  0.52421	 -0.31432	 10.95106	709.41998	 21.10	
 12.007	104.200	 10.17402	  2.82127	  4.89658	  8.23223	  0.12933	 -0.33384	 10.94670	709.31000	 21.10	
 11.989	 85.301	 10.18621	  4.16975	  3.52272	  8.34631	  0.07269	 -0.30347	 10.95033	709.23999	 21.00	
 12.013	 66.294	 10.18705	  5.57031	  2.25545	  7.95287	  0.35395	 -0.29310	 10.94673	709.35999	 21.10	
 12.012	 47.388	 10.19384	  6.82393	  1.25719	  7.09807	  0.98491	 -0.27663	 10.94455	709.27002	 21.10	
 11.990	 28.440	 10.21791	  7.75702	  0.59495	  5.88427	  1.97192	 -0.21037	 10.94774	709.28998	 21.10	
 11.991	  9.464	 10.22968	  8.23967	  0.26967	  4.49974	  3.20544	 -0.21924	 10.94667	709.39001	 21.10	
 11.991	 -9.464	 10.23428	  8.20862	  0.27985	  3.13088	  4.57714	 -0.23486	 10.94584	709.42999	 21.10	
 11.990	-28.440	 10.23940	  7.67609	  0.64060	  1.92076	  5.94940	 -0.28185	 10.94818	709.34003	 21.10	
 12.012	-47.388	 10.23426	  6.69449	  1.34566	  0.97651	  7.12516	 -0.32704	 10.94039	709.32001	 21.10	
 12.013	-66.294	 10.23471	  5.42301	  2.37182	  0.37886	  7.93494	 -0.33351	 10.94648	709.31000	 21.10	
 11.989	-85.301	 10.22926	  4.01694	  3.65282	  0.13105	  8.27287	 -0.33487	 10.94234	709.33002	 21.10	
 12.007	-104.200	 10.22642	  2.68297	  5.03453	  0.22294	  8.10217	 -0.32821	 10.94903	709.33002	 21.10	
 12.006	-123.113	 10.23045	  1.55432	  6.36319	  0.67524	  7.43321	 -0.33642	 10.95337	709.41998	 21.10	
 12.013	-142.081	 10.21657	  0.69512	  7.46510	  1.45767	  6.35943	 -0.33932	 10.94513	709.35999	 21.10	
 12.009	-161.059	 10.20306	  0.18276	  8.17457	  2.56004	  5.02584	 -0.34824	 10.94415	709.32001	 21.10	
 16.000	180.000	  9.50609	 -1.41018	  9.33967	  3.36030	  3.04659	 -0.50694	 10.94280	709.38000	 21.10	
 15.990	-165.604	  9.52974	 -1.32319	  9.17149	  2.04229	  4.43792	 -0.47913	 10.94485	709.41998	 21.10	
 16.002	-151.165	  9.54250	 -0.99654	  8.62259	  0.87357	  5.83309	 -0.43031	 10.94780	709.40997	 21.10	
 16.002	-136.836	  9.55676	 -0.39483	  7.72642	 -0.04270	  7.10343	 -0.39997	 10.94759	709.35999	 21.10	
 15.995	-122.439	  9.55198	  0.44201	  6.54971	 -0.73208	  8.14622	 -0.37752	 10.94046	709.48999	 21.10	
 15.993	-107.966	  9.55220	  1.52276	  5.20571	 -1.14907	  8.86613	 -0.37202	 10.94170	709.44000	 21.10	
 16.005	-93.629	  9.55410	  2.77387	  3.81392	 -1.34266	  9.22042	 -0.37686	 10.94991	709.34003	 21.10	
 15.992	-79.234	  9.56259	  4.14448	  2.46913	 -1.29706	  9.16579	 -0.39478	 10.94651	709.34998	 21.10	
 16.009	-64.774	  9.56343	  5.54907	  1.26040	 -1.01443	  8.71879	 -0.41380	 10.94546	709.51001	 21.10	
 15.997	-50.364	  9.57340	  6.86320	  0.26937	 -0.47807	  7.91065	 -0.44232	 10.94867	709.44000	 21.10	
 15.997	-36.045	  9.57357	  7.96329	 -0.47769	  0.30681	  6.79589	 -0.47093	 10.94850	709.51001	 21.10	
 16.000	-21.597	  9.56070	  8.76746	 -0.97063	  1.34331	  5.47052	 -0.46779	 10.94055	709.41998	 21.10	
 16.003	 -7.169	  9.56461	  9.19696	 -1.21338	  2.57094	  4.07171	 -0.45859	 10.94768	709.40997	 21.10	
 16.003	  7.169	  9.56117	  9.22900	 -1.22408	  3.93708	  2.70591	 -0.47884	 10.94742	709.37000	 21.10	
 16.000	 21.597	  9.54511	  8.85489	 -1.00307	  5.34670	  1.44859	 -0.47780	 10.93915	709.48999	 21.10	
 15.997	 36.045	  9.52751	  8.09952	 -0.53776	  6.68866	  0.39171	 -0.51924	 10.94079	709.40997	 21.10	
 15.997	 50.364	  9.51965	  7.04344	  0.17095	  7.82405	 -0.43580	 -0.60975	 10.94554	709.41998	 21.10	
 16.009	 64.774	  9.50661	  5.74998	  1.12513	  8.70614	 -1.01775	 -0.63933	 10.95549	709.41998	 21.10	
 15.992	 79.234	  9.49646	  4.34817	  2.29853	  9.20345	 -1.32614	 -0.61541	 10.95056	709.41998	 21.10	
 16.005	 93.629	  9.48651	  2.96970	  3.62498	  9.31398	 -1.40109	 -0.64541	 10.94533	709.50000	 21.10	
 15.993	107.966	  9.47641	  1.68638	  5.01457	  9.03282	 -1.25858	 -0.63108	 10.94227	709.50000	 21.10	
 15.995	122.439	  9.47634	  0.58317	  6.37788	  8.37091	 -0.86897	 -0.58441	 10.95018	709.33002	 21.10	
 16.002	136.836	  9.46906	 -0.27930	  7.57042	  7.36620	 -0.23068	 -0.58914	 10.94293	709.35999	 21.10	
 16.002	151.165	  9.46810	 -0.90849	  8.51362	  6.13464	  0.64300	 -0.58388	 10.94718	709.47998	 21.10	
 15.990	165.604	  9.48779	 -1.27584	  9.11810	  4.75570	  1.76320	 -0.53403	 10.94750	709.46002	 21.10	
 20.003	168.362	  8.59701	 -2.66259	  9.88723	  4.10476	  1.10146	 -0.61493	 10.94398	709.48999	 21.10	
 20.008	156.764	  8.57741	 -2.42832	  9.40222	  5.46894	 -0.00140	 -0.69072	 10.95019	709.44000	 21.10	
 20.000	145.147	  8.57197	 -1.96868	  8.61335	  6.79446	 -0.91683	 -0.76462	 10.94457	709.41998	 21.10	
 19.995	133.545	  8.57834	 -1.32890	  7.57993	  7.97519	 -1.65901	 -0.80430	 10.94876	709.51001	 21.10	
 20.009	121.926	  8.57694	 -0.49735	  6.35208	  8.92479	 -2.19422	 -0.84217	 10.94479	709.54999	 21.10	
 20.005	110.327	  8.57074	  0.50377	  5.00140	  9.60793	 -2.55361	 -0.90162	 10.93646	709.41998	 21.10	
 19.989	 98.733	  8.59415	  1.69318	  3.63971	  9.99652	 -2.73480	 -0.94283	 10.95045	709.38000	 21.10	
 19.999	 87.075	  8.59199	  3.00254	  2.27865	 10.04766	 -2.74721	 -0.93728	 10.93554	709.48999	 21.10	
 19.992	 75.457	  8.60516	  4.38669	  1.03936	  9.80451	 -2.60884	 -0.93050	 10.94387	709.56000	 21.10	
 20.009	 63.844	  8.61156	  5.76618	 -0.03346	  9.23102	 -2.29889	 -0.96239	 10.93703	709.51001	 21.10	
 19.989	 52.269	  8.64660	  7.06474	 -0.91275	  8.39187	 -1.80279	 -0.93759	 10.94919	709.41998	 21.10	
 19.999	 40.602	  8.65766	  8.21370	 -1.63064	  7.28702	 -1.10787	 -0.86860	 10.95236	709.56000	 21.10	
 20.004	 29.051	  8.66638	  9.09362	 -2.13250	  6.01879	 -0.21236	 -0.77831	 10.94185	709.48999	 21.10	
 20.005	 17.433	  8.67407	  9.70483	 -2.46124	  4.63605	  0.86149	 -0.72523	 10.94294	709.54999	 21.20	
 20.006	  5.780	  8.69065	 10.00864	 -2.61208	  3.24565	  2.09810	 -0.65863	 10.95438	709.41998	 21.20	
 20.006	 -5.780	  8.68908	  9.96608	 -2.60120	  1.92471	  3.43111	 -0.60186	 10.94614	709.50000	 21.20	
 20.005	-17.433	  8.69295	  9.62225	 -2.42988	  0.71249	  4.82570	 -0.55247	 10.94479	709.64001	 21.20	
 20.004	-29.051	  8.70231	  8.95863	 -2.08198	 -0.33669	  6.18727	 -0.50654	 10.94719	709.48999	 21.20	
 19.999	-40.602	  8.70358	  8.01606	 -1.55333	 -1.18953	  7.43695	 -0.45124	 10.94370	709.40002	 21.20	
 19.989	-52.269	  8.70693	  6.84217	 -0.80745	 -1.84857	  8.49715	 -0.41219	 10.94301	709.56000	 21.20	
 20.009	-63.844	  8.68848	  5.52890	  0.10721	 -2.32757	  9.30536	 -0.37937	 10.94418	709.51001	 21.20	
 19.992	-75.457	  8.69020	  4.14400	  1.23626	 -2.60091	  9.81226	 -0.35657	 10.94856	709.40002	 21.20	
 19.999	-87.075	  8.67628	  2.76870	  2.50035	 -2.71177	  9.99218	 -0.33736	 10.93622	709.44000	 21.20	
 19.989	-98.733	  8.67872	  1.48532	  3.86603	 -2.65358	  9.87416	 -0.33112	 10.94193	709.47998	 21.20	
 20.005	-110.327	  8.67568	  0.33357	  5.23828	 -2.45373	  9.43608	 -0.32376	 10.94451	709.45001	 21.20	
 20.009	-121.926	  8.68366	 -0.64661	  6.57227	 -2.05708	  8.69013	 -0.33214	 10.94230	709.53003	 21.20	
 19.995	-133.545	  8.68929	 -1.46012	  7.77506	 -1.47524	  7.66919	 -0.35181	 10.94306	709.46997	 21.20	
 20.000	-145.147	  8.68373	 -2.08644	  8.77699	 -0.69667	  6.45168	 -0.37884	 10.94967	709.32001	 21.20	
 20.008	-156.764	  8.66166	 -2.50658	  9.51325	  0.27646	  5.09540	 -0.41644	 10.94206	709.46997	 21.20	
 20.003	-168.362	  8.64359	 -2.72026	  9.94735	  1.43314	  3.71359	 -0.47284	 10.94256	709.51001	 21.20	
 20.000	180.000	  8.62290	 -2.75981	 10.06930	  2.73051	  2.35620	 -0.53750	 10.94237	709.44000	 21.20	
