FileType=PCF
NHL=14
Date=03/14/19	10:49:09
Facility=APL
Serial=16071-9
Customer=NASA
NP=6
Mach=0.230000
Calibration=1:1
CalPts=490
TstPts=95
PortNumbering=AP Standard
Units=Torr C m/s kg/m^3 deg mm 
Theta[deg]	Phi[deg]	P1[Torr]	P2[Torr]	P3[Torr]	P4[Torr]	P5[Torr]	P6[Torr]	Pt[Torr]	Ps[Abs,Torr]	Ts[C]	
  0.000	  0.000	 25.54992	 10.51291	 10.85198	 10.73612	 10.40491	  0.34105	 25.55752	709.53003	 21.80	
  1.691	128.401	 25.55938	  9.67567	 11.66863	 11.79966	  9.34455	  0.30193	 25.57615	709.51001	 21.80	
  1.692	 77.194	 25.56003	 10.79406	 10.51515	 12.05548	  9.10830	  0.35676	 25.57653	709.40997	 21.80	
  1.699	 26.182	 25.54452	 11.70958	  9.60174	 11.29814	  9.80853	  0.37488	 25.55720	709.31000	 21.80	
  1.699	-26.182	 25.55370	 11.69987	  9.62337	 10.10144	 10.98989	  0.35511	 25.56774	709.41998	 21.80	
  1.692	-77.194	 25.54625	 10.73548	 10.55636	  9.37710	 11.67957	  0.31144	 25.55224	709.37000	 21.80	
  1.691	-128.401	 25.54143	  9.62436	 11.70757	  9.65185	 11.35920	  0.28024	 25.55060	709.42999	 21.90	
  1.700	180.000	 25.55664	  9.14318	 12.23717	 10.73230	 10.34925	  0.27351	 25.57243	709.51001	 21.90	
  3.400	180.000	 25.49980	  7.71785	 13.58900	 10.65332	 10.21093	  0.15588	 25.56965	709.46002	 21.90	
  3.388	-152.325	 25.49809	  8.00356	 13.27042	  9.37258	 11.43998	  0.15531	 25.55786	709.42999	 21.90	
  3.397	-124.529	 25.51865	  8.84054	 12.35614	  8.40080	 12.52102	  0.17589	 25.56637	709.41998	 21.90	
  3.399	-96.763	 25.52487	 10.01869	 11.11073	  7.93507	 13.06883	  0.19935	 25.56205	709.46997	 21.90	
  3.394	-69.283	 25.52342	 11.27114	  9.83429	  8.08682	 12.93530	  0.26195	 25.56648	709.41998	 22.00	
  3.400	-41.398	 25.53890	 12.45600	  8.76687	  8.80647	 12.14548	  0.30489	 25.57368	709.39001	 22.00	
  3.401	-14.021	 25.52366	 13.14908	  8.15929	  9.92759	 10.98878	  0.36033	 25.55963	709.41998	 22.00	
  3.401	 14.021	 25.52706	 13.18488	  8.12611	 11.22246	  9.70358	  0.37974	 25.56568	709.35999	 22.00	
  3.400	 41.398	 25.51891	 12.54625	  8.68401	 12.40205	  8.57513	  0.36912	 25.56753	709.42999	 22.00	
  3.394	 69.283	 25.50963	 11.37473	  9.72456	 13.25227	  7.80238	  0.33891	 25.57139	709.45001	 22.00	
  3.399	 96.763	 25.51134	 10.11010	 10.99366	 13.47297	  7.60884	  0.29207	 25.57432	709.40997	 22.10	
  3.397	124.529	 25.51488	  8.91601	 12.27905	 12.98840	  8.05138	  0.25530	 25.58252	709.38000	 22.10	
  3.388	152.325	 25.49858	  8.05753	 13.22223	 11.93169	  8.97937	  0.21035	 25.56583	709.52002	 22.10	
  5.099	161.165	 25.34237	  6.51547	 14.62668	 11.80032	  8.69784	  0.06094	 25.54629	709.41998	 22.10	
  5.109	142.013	 25.34325	  7.10707	 13.89432	 13.09721	  7.57734	  0.16260	 25.56173	709.40002	 22.10	
  5.095	123.033	 25.34947	  8.06265	 12.80946	 14.12601	  6.74042	  0.14301	 25.57179	709.34998	 22.10	
  5.105	104.191	 25.36128	  9.28004	 11.49644	 14.71281	  6.24454	  0.16852	 25.57956	709.46002	 22.10	
  5.093	 85.207	 25.37714	 10.61020	 10.14244	 14.80409	  6.17904	  0.21275	 25.57982	709.52002	 22.20	
  5.104	 66.290	 25.38114	 11.94530	  8.87517	 14.40507	  6.51661	  0.25492	 25.58288	709.41998	 22.20	
  5.094	 47.331	 25.40036	 13.19506	  7.80232	 13.54267	  7.26636	  0.29149	 25.58245	709.46002	 22.20	
  5.089	 28.397	 25.37910	 14.07828	  7.04357	 12.36156	  8.29742	  0.32046	 25.55273	709.40997	 22.20	
  5.096	  9.576	 25.41110	 14.54373	  6.68921	 11.06261	  9.54129	  0.31093	 25.57611	709.46002	 22.20	
  5.096	 -9.576	 25.42008	 14.52545	  6.71153	  9.71370	 10.89696	  0.29951	 25.57552	709.37000	 22.20	
  5.089	-28.397	 25.40959	 13.97701	  7.15206	  8.49400	 12.16086	  0.27018	 25.56098	709.50000	 22.20	
  5.094	-47.331	 25.43025	 13.02944	  7.96044	  7.49533	 13.30442	  0.20219	 25.58004	709.40997	 22.20	
  5.104	-66.290	 25.42325	 11.78174	  9.04942	  6.81924	 14.08121	  0.16041	 25.56708	709.37000	 22.30	
  5.093	-85.207	 25.42661	 10.48613	 10.32169	  6.52807	 14.38693	  0.11669	 25.56526	709.50000	 22.30	
  5.105	-104.191	 25.41081	  9.17510	 11.67018	  6.63448	 14.22190	  0.08254	 25.55670	709.38000	 22.30	
  5.095	-123.033	 25.39815	  8.00344	 12.94390	  7.14869	 13.58354	  0.08528	 25.56448	709.42999	 22.30	
  5.109	-142.013	 25.40330	  7.03422	 14.00995	  7.98767	 12.58864	  0.04820	 25.57195	709.35999	 22.30	
  5.099	-161.165	 25.38797	  6.47268	 14.67666	  9.17529	 11.31504	  0.09409	 25.57209	709.41998	 22.30	
  5.100	180.000	 25.37824	  6.30977	 14.89401	 10.52587	  9.99841	  0.06107	 25.57901	709.39001	 22.30	
  6.800	180.000	 25.14027	  4.86350	 16.14202	 10.27928	  9.70346	 -0.13377	 25.56201	709.41998	 22.30	
  6.796	-166.229	 25.17039	  4.97574	 15.99079	  9.01530	 11.02922	 -0.09109	 25.57972	709.40997	 22.30	
  6.808	-152.311	 25.16745	  5.35515	 15.49435	  7.76998	 12.29698	 -0.09939	 25.57291	709.34998	 22.40	
  6.795	-138.383	 25.18694	  6.01306	 14.70634	  6.76054	 13.47978	 -0.13220	 25.57024	709.34003	 22.40	
  6.792	-124.591	 25.19571	  6.93156	 13.65222	  5.96229	 14.47108	 -0.10062	 25.56748	709.40997	 22.40	
  6.787	-110.754	 25.20747	  8.05197	 12.41005	  5.37196	 15.22329	 -0.10672	 25.57625	709.53003	 22.40	
  6.800	-96.985	 25.19762	  9.25622	 11.11323	  5.06061	 15.65243	 -0.09013	 25.56346	709.52002	 22.40	
  6.800	-83.015	 25.22991	 10.56464	  9.78553	  5.04817	 15.69981	 -0.05265	 25.57540	709.41998	 22.40	
  6.787	-69.246	 25.21613	 11.85714	  8.54989	  5.34164	 15.36975	 -0.02519	 25.56610	709.46002	 22.40	
  6.792	-55.409	 25.22340	 13.12392	  7.43120	  5.87559	 14.68415	  0.02853	 25.57089	709.47998	 22.40	
  6.795	-41.617	 25.21775	 14.22465	  6.52181	  6.65198	 13.75796	  0.06789	 25.57774	709.41998	 22.50	
  6.808	-27.689	 25.22079	 15.12399	  5.80344	  7.63912	 12.61500	  0.12801	 25.57102	709.50000	 22.50	
  6.796	-13.771	 25.20638	 15.69353	  5.34754	  8.85263	 11.31407	  0.16991	 25.56631	709.57001	 22.50	
  6.800	  0.000	 25.20215	 15.89232	  5.19085	 10.12218	 10.01879	  0.18850	 25.57262	709.60999	 22.50	
  6.796	 13.771	 25.19258	 15.74459	  5.29001	 11.42984	  8.73071	  0.21747	 25.58170	709.52002	 22.50	
  6.808	 27.689	 25.18002	 15.23487	  5.66437	 12.78285	  7.51222	  0.21342	 25.57881	709.40002	 22.50	
  6.795	 41.617	 25.16554	 14.40953	  6.32076	 13.96881	  6.45938	  0.17887	 25.57333	709.41998	 22.50	
  6.792	 55.409	 25.16406	 13.31657	  7.23758	 14.95129	  5.62791	  0.14482	 25.58088	709.47998	 22.50	
  6.787	 69.246	 25.16067	 12.03234	  8.34997	 15.65692	  5.04428	  0.12821	 25.57778	709.40997	 22.60	
  6.800	 83.015	 25.14920	 10.74321	  9.57463	 16.04250	  4.73513	  0.10996	 25.58018	709.40997	 22.60	
  6.800	 96.985	 25.13264	  9.41650	 10.86736	 16.04250	  4.71494	  0.09394	 25.56920	709.54999	 22.60	
  6.787	110.754	 25.13252	  8.14714	 12.21579	 15.71375	  4.98537	  0.03755	 25.57351	709.53003	 22.60	
  6.792	124.591	 25.12180	  7.00481	 13.46009	 15.07612	  5.48096	  0.01419	 25.57670	709.48999	 22.60	
  6.795	138.383	 25.13280	  6.07880	 14.56555	 14.10783	  6.26475	  0.02305	 25.57814	709.46997	 22.60	
  6.808	152.311	 25.11743	  5.36100	 15.42795	 12.88543	  7.25200	 -0.01967	 25.57015	709.37000	 22.60	
  6.796	166.229	 25.14681	  5.03735	 15.95444	 11.57434	  8.44721	 -0.03635	 25.57573	709.48999	 22.60	
  8.491	168.704	 24.79973	  3.46492	 17.18571	 11.28319	  8.03616	 -0.27532	 25.56631	709.47998	 22.60	
  8.502	157.493	 24.78180	  3.73872	 16.73899	 12.65408	  6.79775	 -0.27131	 25.56812	709.40002	 22.60	
  8.494	146.194	 24.77185	  4.29572	 15.98643	 13.96398	  5.70234	 -0.24715	 25.57780	709.54999	 22.70	
  8.495	135.039	 24.78702	  5.08079	 15.03175	 15.09570	  4.82941	 -0.20276	 25.57577	709.41998	 22.70	
  8.487	123.723	 24.79388	  6.05250	 13.88158	 16.05451	  4.09702	 -0.17933	 25.58383	709.41998	 22.70	
  8.492	112.575	 24.78021	  7.17779	 12.58776	 16.74531	  3.58034	 -0.17800	 25.56078	709.34998	 22.70	
  8.510	101.220	 24.79036	  8.45488	 11.21014	 17.20250	  3.23730	 -0.17969	 25.58368	709.41998	 22.70	
  8.500	 90.000	 24.78524	  9.79583	  9.87073	 17.32809	  3.15383	 -0.14695	 25.56986	709.40997	 22.70	
  8.510	 78.780	 24.80268	 11.14161	  8.57310	 17.17146	  3.29218	 -0.09291	 25.57645	709.42999	 22.70	
  8.492	 67.425	 24.82363	 12.49878	  7.33245	 16.69084	  3.66169	 -0.06372	 25.58593	709.28003	 22.70	
  8.487	 56.277	 24.83932	 13.77805	  6.24058	 15.95612	  4.20892	 -0.05108	 25.59328	709.37000	 22.70	
  8.495	 44.961	 24.84998	 14.94065	  5.29779	 14.98136	  5.02634	 -0.04258	 25.58603	709.38000	 22.70	
  8.494	 33.806	 24.84214	 15.86936	  4.57037	 13.83882	  5.99238	 -0.00028	 25.56833	709.46002	 22.70	
  8.502	 22.507	 24.87295	 16.59188	  4.04412	 12.54070	  7.14300	  0.01819	 25.57794	709.39001	 22.80	
  8.491	 11.296	 24.87576	 16.98832	  3.72228	 11.20777	  8.33628	 -0.00053	 25.54698	709.45001	 22.80	
  8.500	  0.000	 24.88559	 17.12238	  3.61581	  9.86679	  9.65585	 -0.01490	 25.54923	709.40997	 22.80	
  8.491	-11.296	 24.89354	 16.94136	  3.77431	  8.54433	 11.04373	 -0.03677	 25.54434	709.42999	 22.80	
  8.502	-22.507	 24.90697	 16.48289	  4.14193	  7.28556	 12.35961	 -0.06517	 25.53738	709.42999	 22.80	
  8.494	-33.806	 24.90563	 15.71219	  4.72910	  6.18167	 13.60813	 -0.11809	 25.52970	709.40002	 22.80	
  8.495	-44.961	 24.93137	 14.74473	  5.50714	  5.24400	 14.73277	 -0.14865	 25.55485	709.40002	 22.80	
  8.487	-56.277	 24.93368	 13.57359	  6.47887	  4.50238	 15.69245	 -0.20645	 25.54957	709.51001	 22.80	
  8.492	-67.425	 24.92672	 12.29394	  7.58576	  3.96005	 16.37637	 -0.24090	 25.53974	709.46002	 22.80	
  8.510	-78.780	 24.91504	 10.90401	  8.84795	  3.60497	 16.78369	 -0.28598	 25.53024	709.58002	 22.90	
  8.500	-90.000	 24.91519	  9.60703	 10.16620	  3.49031	 16.89025	 -0.30531	 25.53495	709.52002	 22.80	
  8.510	-101.220	 24.91097	  8.30156	 11.51467	  3.62142	 16.70378	 -0.31296	 25.53999	709.46002	 22.90	
  8.492	-112.575	 24.90302	  7.04445	 12.84886	  4.01341	 16.19761	 -0.31475	 25.53141	709.52002	 22.90	
  8.487	-123.723	 24.91222	  5.96932	 14.11577	  4.58752	 15.40966	 -0.31715	 25.54211	709.53003	 22.90	
  8.495	-135.039	 24.89209	  5.02309	 15.24285	  5.37578	 14.39039	 -0.30299	 25.54019	709.59003	 22.90	
  8.494	-146.194	 24.87043	  4.26641	 16.14618	  6.33080	 13.22195	 -0.30004	 25.52955	709.41998	 22.90	
  8.502	-157.493	 24.85610	  3.71976	 16.83562	  7.43667	 11.92712	 -0.30144	 25.53113	709.45001	 22.90	
  8.491	-168.704	 24.83590	  3.38059	 17.24518	  8.71358	 10.60641	 -0.30305	 25.53650	709.54999	 22.90	
  8.500	180.000	 24.83138	  3.31288	 17.37752	 10.02658	  9.25671	 -0.29442	 25.55613	709.42999	 22.90	
 10.200	180.000	 24.36220	  1.72405	 18.48944	  9.67684	  8.81126	 -0.53369	 25.52382	709.42999	 22.90	
 10.191	-170.497	 24.40236	  1.77386	 18.40670	  8.32245	 10.17188	 -0.55770	 25.52645	709.40997	 22.90	
 10.210	-161.034	 24.42630	  2.02584	 18.07518	  7.02184	 11.56199	 -0.55021	 25.54377	709.40997	 22.90	
 10.194	-151.526	 24.45332	  2.50541	 17.48820	  5.86306	 12.87559	 -0.52625	 25.53711	709.46997	 22.90	
 10.190	-142.105	 24.47689	  3.15827	 16.67788	  4.79856	 14.16430	 -0.52412	 25.53389	709.40997	 23.00	
 10.215	-132.646	 24.48400	  3.96347	 15.67647	  3.85304	 15.34824	 -0.53858	 25.54271	709.45001	 23.00	
 10.203	-123.092	 24.48459	  4.90742	 14.49375	  3.08301	 16.36909	 -0.54041	 25.54140	709.39001	 23.00	
 10.192	-113.678	 24.51430	  5.99725	 13.20627	  2.53881	 17.12805	 -0.54147	 25.54964	709.40002	 23.00	
 10.208	-104.249	 24.49848	  7.19877	 11.85306	  2.13156	 17.65123	 -0.53591	 25.53436	709.44000	 23.00	
 10.210	-94.801	 24.50139	  8.51303	 10.50426	  1.91661	 17.94292	 -0.53879	 25.53975	709.40997	 23.00	
 10.210	-85.199	 24.52111	  9.88538	  9.12247	  1.89154	 18.00379	 -0.54276	 25.54819	709.34003	 23.00	
 10.208	-75.751	 24.52357	 11.22423	  7.80421	  2.10837	 17.79563	 -0.52442	 25.54353	709.40997	 23.00	
 10.192	-66.322	 24.53062	 12.60479	  6.59642	  2.48452	 17.35807	 -0.50233	 25.54444	709.40997	 23.00	
 10.203	-56.908	 24.51978	 13.91246	  5.47748	  2.99463	 16.68280	 -0.47452	 25.53172	709.53003	 23.00	
 10.215	-47.354	 24.51942	 15.13968	  4.47474	  3.71134	 15.75449	 -0.42862	 25.54523	709.53998	 23.00	
 10.190	-37.895	 24.52371	 16.21731	  3.62754	  4.62745	 14.62472	 -0.42575	 25.55117	709.48999	 23.00	
 10.194	-28.474	 24.50536	 17.08760	  2.97263	  5.68512	 13.38893	 -0.35007	 25.54152	709.52002	 23.10	
 10.210	-18.966	 24.48624	 17.73689	  2.47367	  6.85081	 12.05145	 -0.29390	 25.54515	709.50000	 23.10	
 10.191	 -9.503	 24.49135	 18.13913	  2.19305	  8.13188	 10.73415	 -0.25622	 25.54293	709.47998	 23.10	
 10.200	  0.000	 24.46706	 18.29287	  2.03804	  9.46361	  9.31834	 -0.24176	 25.53299	709.54999	 23.10	
 10.191	  9.503	 24.46699	 18.17817	  2.13119	 10.82582	  7.98875	 -0.21127	 25.53679	709.45001	 23.10	
 10.210	 18.966	 24.44194	 17.83381	  2.37007	 12.23425	  6.67624	 -0.19537	 25.54347	709.53998	 23.10	
 10.194	 28.474	 24.42609	 17.21791	  2.80748	 13.60184	  5.45289	 -0.19597	 25.54728	709.50000	 23.10	
 10.190	 37.895	 24.40917	 16.39398	  3.42118	 14.83226	  4.39466	 -0.24846	 25.54685	709.47998	 23.10	
 10.215	 47.354	 24.38273	 15.35847	  4.19060	 15.97440	  3.43647	 -0.32684	 25.54236	709.50000	 23.10	
 10.203	 56.908	 24.36625	 14.14736	  5.16104	 16.94240	  2.68288	 -0.32577	 25.53987	709.53003	 23.10	
 10.192	 66.322	 24.36208	 12.83833	  6.26044	 17.69318	  2.13223	 -0.33684	 25.54467	709.56000	 23.10	
 10.208	 75.751	 24.34275	 11.48729	  7.45813	 18.22592	  1.75663	 -0.35188	 25.54251	709.46002	 23.20	
 10.210	 85.199	 24.33151	 10.11980	  8.75698	 18.49183	  1.52635	 -0.37587	 25.54097	709.63000	 23.20	
 10.210	 94.801	 24.30867	  8.71585	 10.12529	 18.50169	  1.49543	 -0.41752	 25.53814	709.47998	 23.20	
 10.208	104.249	 24.31634	  7.41002	 11.48127	 18.26952	  1.65757	 -0.44152	 25.54544	709.52002	 23.20	
 10.192	113.678	 24.32152	  6.17995	 12.85624	 17.77827	  2.00173	 -0.41625	 25.53838	709.46997	 23.20	
 10.203	123.092	 24.32217	  5.05461	 14.15852	 17.05980	  2.53066	 -0.40657	 25.55398	709.46002	 23.20	
 10.215	132.646	 24.31566	  4.06180	 15.38093	 16.10585	  3.23835	 -0.42587	 25.52969	709.46997	 23.20	
 10.190	142.105	 24.32534	  3.26863	 16.43634	 14.97069	  4.11348	 -0.46976	 25.53501	709.48999	 23.20	
 10.194	151.526	 24.33336	  2.61938	 17.29217	 13.74201	  5.06630	 -0.49785	 25.54580	709.50000	 23.20	
 10.210	161.034	 24.34060	  2.13362	 17.95106	 12.39529	  6.23404	 -0.49356	 25.53609	709.46002	 23.20	
 10.191	170.497	 24.36090	  1.84219	 18.34361	 10.99170	  7.49311	 -0.49411	 25.52592	709.46997	 23.20	
 11.899	171.783	 23.82044	  0.22062	 19.41466	 10.56303	  6.99647	 -0.72389	 25.50983	709.51001	 23.20	
 11.890	163.610	 23.80837	  0.48904	 19.05353	 11.97698	  5.73289	 -0.71146	 25.52727	709.59003	 23.20	
 11.889	155.445	 23.78940	  0.90343	 18.48033	 13.36787	  4.54133	 -0.72939	 25.53064	709.47998	 23.20	
 11.909	147.299	 23.77745	  1.43281	 17.72347	 14.65563	  3.52524	 -0.74796	 25.52592	709.46997	 23.20	
 11.902	139.148	 23.78128	  2.16385	 16.77979	 15.87204	  2.59410	 -0.71933	 25.52893	709.46997	 23.20	
 11.894	130.867	 23.77843	  3.03066	 15.64705	 16.98175	  1.69290	 -0.67950	 25.52589	709.51001	 23.20	
 11.897	122.732	 23.76925	  4.00602	 14.41009	 17.91323	  0.96201	 -0.66265	 25.53361	709.57001	 23.30	
 11.903	114.597	 23.78076	  5.10561	 13.10151	 18.64527	  0.42981	 -0.68888	 25.54019	709.58002	 23.30	
 11.893	106.346	 23.78966	  6.33465	 11.72312	 19.16339	  0.08882	 -0.72173	 25.53335	709.53998	 23.30	
 11.892	 98.155	 23.77877	  7.64750	 10.30482	 19.47183	 -0.13256	 -0.71952	 25.51659	709.41998	 23.30	
 11.900	 90.000	 23.79409	  9.00900	  8.97654	 19.57965	 -0.20526	 -0.67525	 25.53038	709.47998	 23.30	
 11.892	 81.845	 23.79642	 10.39903	  7.64297	 19.45294	 -0.07124	 -0.63256	 25.52073	709.44000	 23.30	
 11.893	 73.654	 23.80259	 11.74598	  6.36765	 19.09748	  0.20801	 -0.63336	 25.51431	709.46997	 23.30	
 11.903	 65.403	 23.83031	 13.14924	  5.16743	 18.55692	  0.59106	 -0.66395	 25.54886	709.52002	 23.30	
 11.897	 57.268	 23.82384	 14.44453	  4.08640	 17.80016	  1.13479	 -0.67500	 25.53435	709.41998	 23.30	
 11.894	 49.133	 23.84017	 15.67810	  3.12061	 16.85771	  1.95349	 -0.62579	 25.52975	709.33002	 23.30	
 11.902	 40.852	 23.87471	 16.79745	  2.27467	 15.73648	  2.85285	 -0.53911	 25.53767	709.45001	 23.30	
 11.909	 32.701	 23.87708	 17.71878	  1.64008	 14.49337	  3.87222	 -0.45407	 25.51940	709.40997	 23.30	
 11.889	 24.555	 23.91398	 18.43859	  1.15695	 13.19870	  4.99585	 -0.42382	 25.53484	709.32001	 23.30	
 11.890	 16.390	 23.93227	 18.96176	  0.80650	 11.81086	  6.24688	 -0.42605	 25.52581	709.46997	 23.30	
 11.899	  8.217	 23.95242	 19.28344	  0.58742	 10.39700	  7.57963	 -0.45563	 25.52770	709.40002	 23.40	
 11.900	  0.000	 23.96826	 19.39321	  0.48921	  9.05577	  8.91320	 -0.46432	 25.54084	709.40997	 23.40	
 11.899	 -8.217	 23.97632	 19.24727	  0.61571	  7.70339	 10.32545	 -0.48061	 25.53712	709.40997	 23.40	
 11.890	-16.390	 23.98926	 18.88589	  0.87542	  6.40104	 11.68893	 -0.51059	 25.53659	709.40002	 23.40	
 11.889	-24.555	 24.00427	 18.31974	  1.27533	  5.20288	 13.01828	 -0.56266	 25.53863	709.38000	 23.40	
 11.909	-32.701	 23.99990	 17.55770	  1.80527	  4.06398	 14.33319	 -0.61230	 25.53144	709.40997	 23.40	
 11.902	-40.852	 23.99793	 16.57854	  2.52497	  3.06235	 15.53725	 -0.65786	 25.51453	709.40002	 23.40	
 11.894	-49.133	 24.02526	 15.43735	  3.43849	  2.22156	 16.64520	 -0.68627	 25.52680	709.40002	 23.40	
 11.897	-57.268	 24.02624	 14.19705	  4.44233	  1.54143	 17.53357	 -0.70169	 25.52975	709.35999	 23.40	
 11.903	-65.403	 24.02237	 12.88120	  5.51576	  1.00753	 18.22341	 -0.69825	 25.52680	709.46997	 23.40	
 11.893	-73.654	 24.01890	 11.47087	  6.72946	  0.61987	 18.72902	 -0.71069	 25.52255	709.42999	 23.40	
 11.892	-81.845	 23.99685	 10.10408	  8.03338	  0.34146	 19.02512	 -0.70820	 25.52288	709.46002	 23.40	
 11.900	-90.000	 23.99652	  8.73383	  9.38645	  0.27343	 19.09645	 -0.70788	 25.52517	709.48999	 23.40	
 11.892	-98.155	 23.98957	  7.38712	 10.72643	  0.39068	 18.92198	 -0.69241	 25.52638	709.48999	 23.40	
 11.893	-106.346	 23.99491	  6.08995	 12.12788	  0.64882	 18.54858	 -0.68769	 25.52189	709.42999	 23.50	
 11.903	-114.597	 23.99060	  4.89292	 13.50165	  1.06051	 17.95888	 -0.70385	 25.52974	709.50000	 23.40	
 11.897	-122.732	 23.99342	  3.84948	 14.80529	  1.65322	 17.17859	 -0.70353	 25.53218	709.44000	 23.50	
 11.894	-130.867	 23.98486	  2.90863	 16.00070	  2.37601	 16.21465	 -0.70859	 25.53602	709.45001	 23.50	
 11.902	-139.148	 23.96819	  2.04172	 17.09432	  3.23829	 15.03671	 -0.69887	 25.52779	709.45001	 23.50	
 11.909	-147.299	 23.97803	  1.32730	 18.00444	  4.24912	 13.78423	 -0.71007	 25.54620	709.45001	 23.50	
 11.889	-155.445	 23.95823	  0.77678	 18.71047	  5.39184	 12.42564	 -0.73703	 25.54927	709.44000	 23.50	
 11.890	-163.610	 23.92285	  0.37272	 19.20111	  6.58999	 11.10227	 -0.74244	 25.53364	709.48999	 23.50	
 11.899	-171.783	 23.88925	  0.14429	 19.50588	  7.89780	  9.68730	 -0.74444	 25.53039	709.53003	 23.50	
 11.900	180.000	 23.86477	  0.09063	 19.58361	  9.25865	  8.32347	 -0.72746	 25.53848	709.46997	 23.50	
 13.600	180.000	 23.24540	 -1.51165	 20.57483	  8.76195	  7.79745	 -0.90986	 25.53008	709.46002	 23.50	
 13.608	-172.853	 23.27488	 -1.46659	 20.51584	  7.40797	  9.16926	 -0.93080	 25.53161	709.38000	 23.50	
 13.611	-165.583	 23.30753	 -1.40311	 20.28275	  6.07716	 10.53341	 -0.90622	 25.54678	709.28998	 23.50	
 13.601	-158.353	 23.32526	 -1.06013	 19.80687	  4.84128	 11.88092	 -0.87886	 25.52108	709.39001	 23.50	
 13.609	-151.210	 23.37141	 -0.51709	 19.17536	  3.68378	 13.30686	 -0.85249	 25.53244	709.41998	 23.50	
 13.611	-143.999	 23.36149	  0.11835	 18.34536	  2.62568	 14.61992	 -0.83807	 25.52240	709.42999	 23.50	
 13.601	-136.825	 23.38954	  0.86930	 17.38141	  1.69377	 15.84278	 -0.81970	 25.53020	709.44000	 23.50	
 13.596	-129.640	 23.40345	  1.72137	 16.28894	  0.88744	 16.95538	 -0.80874	 25.52913	709.40002	 23.50	
 13.611	-122.431	 23.40978	  2.72108	 15.06753	  0.19848	 17.92878	 -0.80359	 25.54015	709.53003	 23.60	
 13.604	-115.211	 23.39628	  3.78224	 13.73011	 -0.36922	 18.74928	 -0.79449	 25.52844	709.39001	 23.60	
 13.595	-108.042	 23.39523	  4.92331	 12.36784	 -0.78386	 19.37976	 -0.79475	 25.52818	709.47998	 23.60	
 13.607	-100.793	 23.39091	  6.17229	 10.95541	 -1.07567	 19.83779	 -0.79958	 25.52926	709.53998	 23.60	
 13.601	-93.617	 23.40226	  7.51195	  9.57720	 -1.24556	 20.08663	 -0.79958	 25.52660	709.51001	 23.50	
 13.601	-86.383	 23.40716	  8.89211	  8.23046	 -1.24736	 20.13286	 -0.81711	 25.52739	709.41998	 23.60	
 13.607	-79.207	 23.40215	 10.29165	  6.88413	 -1.13237	 19.98699	 -0.82173	 25.52194	709.51001	 23.60	
 13.595	-71.958	 23.41385	 11.69121	  5.58389	 -0.80934	 19.60378	 -0.82463	 25.52007	709.47998	 23.60	
 13.604	-64.789	 23.42723	 13.08053	  4.41457	 -0.41979	 19.06991	 -0.83886	 25.52681	709.53998	 23.60	
 13.611	-57.569	 23.42715	 14.42038	  3.33081	  0.08637	 18.33348	 -0.85423	 25.52117	709.51001	 23.60	
 13.596	-50.360	 23.43345	 15.68640	  2.36008	  0.72090	 17.44610	 -0.84884	 25.52691	709.45001	 23.60	
 13.601	-43.175	 23.42190	 16.84639	  1.45600	  1.49235	 16.41135	 -0.84932	 25.52414	709.45001	 23.60	
 13.611	-36.001	 23.39443	 17.86890	  0.67464	  2.37726	 15.23687	 -0.83302	 25.51497	709.40997	 23.60	
 13.609	-28.790	 23.40306	 18.76317	  0.04785	  3.47911	 13.94212	 -0.79064	 25.52677	709.40997	 23.60	
 13.601	-21.647	 23.40019	 19.45673	 -0.38657	  4.66369	 12.58320	 -0.75604	 25.53077	709.41998	 23.60	
 13.611	-14.417	 23.36350	 19.96709	 -0.72709	  5.87451	 11.25219	 -0.71250	 25.52085	709.44000	 23.60	
 13.608	 -7.147	 23.35955	 20.28949	 -0.95276	  7.19454	  9.85008	 -0.68576	 25.51824	709.48999	 23.60	
 13.600	  0.000	 23.34634	 20.40119	 -1.03931	  8.54052	  8.45019	 -0.68518	 25.52281	709.51001	 23.60	
 13.608	  7.147	 23.33119	 20.32192	 -0.97560	  9.86330	  7.10164	 -0.68809	 25.51600	709.40002	 23.60	
 13.611	 14.417	 23.31513	 20.05034	 -0.79208	 11.28292	  5.73378	 -0.67952	 25.51765	709.37000	 23.60	
 13.601	 21.647	 23.29717	 19.56414	 -0.49104	 12.70056	  4.47051	 -0.66376	 25.51764	709.31000	 23.60	
 13.609	 28.790	 23.28284	 18.91744	 -0.08677	 14.03521	  3.34514	 -0.68422	 25.52691	709.38000	 23.60	
 13.611	 36.001	 23.25290	 18.07868	  0.45804	 15.33613	  2.23524	 -0.74098	 25.51418	709.31000	 23.60	
 13.601	 43.175	 23.24788	 17.10285	  1.15169	 16.54577	  1.23406	 -0.83620	 25.54053	709.42999	 23.60	
 13.596	 50.360	 23.21800	 15.96796	  1.99358	 17.61057	  0.42875	 -0.92738	 25.52242	709.41998	 23.70	
 13.611	 57.569	 23.20162	 14.70817	  2.97484	 18.53172	 -0.22830	 -0.97184	 25.50666	709.42999	 23.70	
 13.604	 64.789	 23.18549	 13.37556	  4.03316	 19.31780	 -0.76166	 -0.95648	 25.51258	709.57001	 23.70	
 13.595	 71.958	 23.17024	 11.99736	  5.18593	 19.90912	 -1.16600	 -0.92606	 25.50181	709.54999	 23.70	
 13.607	 79.207	 23.15709	 10.63230	  6.43648	 20.34299	 -1.46277	 -0.91501	 25.51320	709.52002	 23.70	
 13.601	 86.383	 23.14886	  9.22360	  7.76116	 20.55042	 -1.64132	 -0.93343	 25.50804	709.45001	 23.70	
 13.601	 93.617	 23.14045	  7.83009	  9.12647	 20.56081	 -1.68478	 -0.99128	 25.50766	709.58002	 23.70	
 13.607	100.793	 23.13813	  6.48277	 10.46798	 20.38221	 -1.53786	 -1.00304	 25.51158	709.45001	 23.70	
 13.595	108.042	 23.13667	  5.20779	 11.89278	 19.99881	 -1.31168	 -0.97137	 25.51832	709.40997	 23.70	
 13.604	115.211	 23.13284	  4.01463	 13.26722	 19.43628	 -0.98614	 -0.92387	 25.51394	709.46997	 23.70	
 13.611	122.431	 23.14143	  2.90811	 14.61105	 18.68039	 -0.48639	 -0.89766	 25.52332	709.50000	 23.70	
 13.596	129.640	 23.13518	  1.89204	 15.84940	 17.76743	  0.13501	 -0.92247	 25.51176	709.40002	 23.70	
 13.601	136.825	 23.13381	  1.02643	 16.98892	 16.70446	  0.86105	 -0.95160	 25.51162	709.40002	 23.70	
 13.611	143.999	 23.14386	  0.30191	 17.99633	 15.54472	  1.76842	 -0.98634	 25.51170	709.48999	 23.70	
 13.609	151.210	 23.14520	 -0.32686	 18.88455	 14.25393	  2.87784	 -0.97973	 25.52014	709.40002	 23.70	
 13.601	158.353	 23.14993	 -0.82238	 19.57011	 12.91796	  3.91291	 -0.93947	 25.51311	709.35999	 23.70	
 13.611	165.583	 23.18771	 -1.16878	 20.11570	 11.51441	  5.13640	 -0.89823	 25.52472	709.34998	 23.70	
 13.608	172.853	 23.19563	 -1.38037	 20.42319	 10.07092	  6.45037	 -0.89930	 25.49599	709.38000	 23.70	
 15.298	173.587	 22.51153	 -2.84859	 21.34397	  9.53736	  5.86584	 -1.04786	 25.51645	709.34003	 23.70	
 15.291	167.167	 22.47915	 -2.64115	 21.04277	 10.94316	  4.55349	 -1.06463	 25.50293	709.38000	 23.80	
 15.307	160.676	 22.45020	 -2.36893	 20.57778	 12.35768	  3.33795	 -1.13285	 25.51353	709.37000	 23.80	
 15.300	154.261	 22.43387	 -1.93314	 19.94124	 13.71526	  2.17616	 -1.18449	 25.51100	709.35999	 23.80	
 15.288	147.854	 22.43870	 -1.38809	 19.13908	 15.04397	  1.14314	 -1.22251	 25.51610	709.41998	 23.80	
 15.293	141.428	 22.43382	 -0.74051	 18.18340	 16.30215	  0.20613	 -1.22790	 25.50698	709.31000	 23.80	
 15.299	134.985	 22.44162	  0.01626	 17.11885	 17.46198	 -0.58263	 -1.19415	 25.50613	709.48999	 23.80	
 15.305	128.583	 22.41915	  0.85677	 15.93645	 18.47951	 -1.24370	 -1.16138	 25.49908	709.46997	 23.80	
 15.309	122.142	 22.40080	  1.77635	 14.67934	 19.40627	 -1.81466	 -1.14556	 25.50900	709.38000	 23.80	
 15.304	115.711	 22.40213	  2.87245	 13.33246	 20.16666	 -2.25933	 -1.18614	 25.51199	709.40002	 23.80	
 15.297	109.291	 22.41022	  4.06757	 11.96632	 20.76320	 -2.56716	 -1.24637	 25.52085	709.53003	 23.80	
 15.293	102.897	 22.40829	  5.28314	 10.58282	 21.18057	 -2.75061	 -1.28547	 25.51980	709.53998	 23.80	
 15.293	 96.458	 22.42107	  6.61311	  9.17011	 21.42512	 -2.90620	 -1.28722	 25.51605	709.46002	 23.80	
 15.300	 90.000	 22.42418	  7.97373	  7.84737	 21.50420	 -2.98230	 -1.25273	 25.50774	709.48999	 23.80	
 15.293	 83.542	 22.43106	  9.38518	  6.49501	 21.40275	 -2.89217	 -1.21936	 25.50675	709.42999	 23.80	
 15.293	 77.103	 22.43978	 10.79798	  5.21120	 21.12269	 -2.72601	 -1.21530	 25.51424	709.37000	 23.80	
 15.297	 70.709	 22.45284	 12.12301	  4.02946	 20.67528	 -2.48187	 -1.23600	 25.52001	709.38000	 23.80	
 15.304	 64.289	 22.45749	 13.50713	  2.89438	 20.04625	 -2.12233	 -1.27640	 25.51800	709.28003	 23.80	
 15.309	 57.858	 22.47790	 14.86680	  1.83968	 19.26447	 -1.61113	 -1.28648	 25.51101	709.44000	 23.80	
 15.305	 51.417	 22.50397	 16.12461	  0.87605	 18.31346	 -0.96863	 -1.23636	 25.51428	709.38000	 23.80	
 15.299	 45.015	 22.53339	 17.29440	  0.03065	 17.28328	 -0.21095	 -1.15630	 25.51738	709.35999	 23.80	
 15.293	 38.572	 22.55814	 18.32203	 -0.63092	 16.13196	  0.65693	 -1.05730	 25.51400	709.40997	 23.90	
 15.288	 32.146	 22.59745	 19.24616	 -1.21297	 14.86558	  1.62328	 -0.97203	 25.53378	709.38000	 23.80	
 15.300	 25.739	 22.59509	 19.99290	 -1.69867	 13.51982	  2.71682	 -0.92458	 25.50966	709.46002	 23.90	
 15.307	 19.324	 22.59631	 20.59387	 -2.08307	 12.15533	  3.90213	 -0.91979	 25.51398	709.48999	 23.90	
 15.291	 12.833	 22.63097	 21.01390	 -2.31368	 10.71823	  5.20566	 -0.92080	 25.52492	709.48999	 23.90	
 15.298	  6.413	 22.64070	 21.25909	 -2.46347	  9.29000	  6.55468	 -0.91922	 25.51638	709.45001	 23.90	
 15.300	  0.000	 22.66027	 21.33575	 -2.51515	  7.90131	  7.91301	 -0.90115	 25.51264	709.52002	 23.90	
 15.298	 -6.413	 22.66863	 21.21537	 -2.41998	  6.61356	  9.31245	 -0.88602	 25.50999	709.46997	 23.90	
 15.291	-12.833	 22.67806	 20.91964	 -2.23395	  5.33450	 10.74507	 -0.88923	 25.50730	709.59003	 23.90	
 15.307	-19.324	 22.68724	 20.48289	 -1.96990	  4.10902	 12.06073	 -0.91680	 25.51760	709.52002	 23.90	
 15.300	-25.739	 22.69892	 19.83750	 -1.58964	  2.91475	 13.42322	 -0.92791	 25.50080	709.54999	 23.90	
 15.288	-32.146	 22.70475	 19.03460	 -1.08484	  1.79702	 14.74846	 -0.95114	 25.48893	709.53998	 23.90	
 15.293	-38.572	 22.72877	 18.09941	 -0.41552	  0.88005	 15.99969	 -0.95012	 25.50083	709.47998	 23.90	
 15.299	-45.015	 22.73180	 17.00559	  0.37072	  0.03859	 17.15625	 -0.93808	 25.51270	709.46002	 23.90	
 15.305	-51.417	 22.73726	 15.83060	  1.23687	 -0.70464	 18.19368	 -0.92868	 25.50722	709.46002	 23.90	
 15.309	-57.858	 22.73370	 14.55315	  2.19670	 -1.31614	 19.08503	 -0.90081	 25.51046	709.32001	 23.90	
 15.304	-64.289	 22.71148	 13.17830	  3.29350	 -1.80775	 19.81145	 -0.87249	 25.49437	709.40997	 23.90	
 15.297	-70.709	 22.72552	 11.80519	  4.45260	 -2.17810	 20.36832	 -0.86028	 25.50717	709.53003	 23.90	
 15.293	-77.103	 22.70717	 10.43653	  5.67981	 -2.49144	 20.75701	 -0.84567	 25.50238	709.42999	 23.90	
 15.293	-83.542	 22.71708	  9.02685	  7.02325	 -2.65244	 20.98050	 -0.83241	 25.51019	709.35999	 23.90	
 15.300	-90.000	 22.69890	  7.61723	  8.37690	 -2.70018	 21.01785	 -0.81991	 25.49580	709.46002	 23.90	
 15.293	-96.458	 22.71207	  6.26746	  9.76682	 -2.64070	 20.89895	 -0.79062	 25.51431	709.39001	 23.90	
 15.293	-102.897	 22.69768	  4.96538	 11.11913	 -2.41563	 20.57028	 -0.78898	 25.49767	709.42999	 23.90	
 15.297	-109.291	 22.69140	  3.77402	 12.51899	 -2.10451	 20.08448	 -0.80590	 25.48699	709.34998	 23.90	
 15.304	-115.711	 22.70842	  2.62178	 13.88617	 -1.71621	 19.43708	 -0.81078	 25.51768	709.34998	 23.90	
 15.309	-122.142	 22.70128	  1.54954	 15.20593	 -1.21933	 18.61200	 -0.80610	 25.50102	709.27002	 23.90	
 15.305	-128.583	 22.70351	  0.57363	 16.43983	 -0.58088	 17.65303	 -0.83451	 25.51246	709.41998	 23.90	
 15.299	-134.985	 22.71291	 -0.24171	 17.57759	  0.17213	 16.56272	 -0.84924	 25.51690	709.39001	 24.00	
 15.293	-141.428	 22.68720	 -0.99666	 18.58737	  1.02383	 15.35255	 -0.86874	 25.50225	709.39001	 24.00	
 15.288	-147.854	 22.65565	 -1.64208	 19.47710	  1.97179	 14.06072	 -0.89749	 25.49323	709.28998	 24.00	
 15.300	-154.261	 22.63375	 -2.23751	 20.22488	  3.03371	 12.67601	 -0.93778	 25.50888	709.42999	 24.00	
 15.307	-160.676	 22.60363	 -2.62833	 20.79334	  4.29493	 11.31019	 -0.95896	 25.51259	709.40002	 24.00	
 15.291	-167.167	 22.59497	 -2.85488	 21.19269	  5.55747	  9.93043	 -1.00606	 25.51350	709.37000	 24.00	
 15.298	-173.587	 22.56254	 -2.89869	 21.39552	  6.86999	  8.57193	 -1.04307	 25.50232	709.41998	 24.00	
 15.300	180.000	 22.52982	 -2.92704	 21.46070	  8.22575	  7.18792	 -1.04569	 25.51646	709.39001	 24.00	
 17.000	180.000	 21.74238	 -4.26816	 22.27832	  7.61802	  6.54577	 -1.12448	 25.49993	709.37000	 24.00	
 16.990	-174.179	 21.78700	 -4.25567	 22.24271	  6.29384	  7.91511	 -1.10532	 25.51366	709.34003	 24.00	
 17.009	-168.383	 21.79474	 -4.22433	 22.04812	  4.98875	  9.25572	 -1.05865	 25.50229	709.44000	 24.00	
 17.000	-162.596	 21.81931	 -4.08102	 21.69881	  3.68616	 10.58281	 -0.99614	 25.50161	709.34998	 24.00	
 16.990	-156.759	 21.86837	 -3.81256	 21.19316	  2.49378	 11.97324	 -0.95466	 25.51496	709.39001	 24.00	
 16.995	-150.919	 21.88248	 -3.38818	 20.51822	  1.36724	 13.39832	 -0.91183	 25.50888	709.40997	 24.00	
 16.988	-145.161	 21.91174	 -2.75649	 19.71487	  0.39799	 14.74394	 -0.88239	 25.50737	709.50000	 24.00	
 17.014	-139.343	 21.91374	 -2.11243	 18.77398	 -0.50839	 16.04033	 -0.84333	 25.50130	709.39001	 24.00	
 17.007	-133.546	 21.92809	 -1.33086	 17.69744	 -1.30888	 17.22985	 -0.81289	 25.49615	709.28003	 24.00	
 17.001	-127.699	 21.92921	 -0.48749	 16.52266	 -1.99710	 18.28204	 -0.78603	 25.49599	709.34003	 24.00	
 17.006	-121.937	 21.94190	  0.40994	 15.30331	 -2.56935	 19.22589	 -0.76868	 25.50265	709.44000	 24.00	
 17.002	-116.134	 21.95420	  1.42480	 13.99283	 -3.03659	 20.05340	 -0.76262	 25.50575	709.48999	 24.00	
 17.001	-110.310	 21.92892	  2.56639	 12.60254	 -3.45933	 20.74447	 -0.75825	 25.50815	709.42999	 24.00	
 16.988	-104.517	 21.93961	  3.76495	 11.22769	 -3.73630	 21.26186	 -0.75596	 25.51368	709.35999	 24.00	
 17.008	-98.662	 21.91301	  5.00357	  9.82246	 -3.96058	 21.63773	 -0.75826	 25.49957	709.37000	 24.00	
 16.996	-92.909	 21.90093	  6.29111	  8.43636	 -4.12088	 21.82719	 -0.75580	 25.48668	709.25000	 24.10	
 16.996	-87.091	 21.91107	  7.66000	  7.11774	 -4.14279	 21.88736	 -0.76841	 25.49503	709.31000	 24.00	
 17.012	-81.253	 21.91436	  9.07448	  5.76279	 -4.06833	 21.79216	 -0.77759	 25.49979	709.28003	 24.10	
 16.988	-75.483	 21.94521	 10.45574	  4.49095	 -3.85329	 21.50459	 -0.80933	 25.50986	709.25000	 24.10	
 17.001	-69.690	 21.95796	 11.84873	  3.30347	 -3.53241	 21.07328	 -0.82530	 25.51425	709.28998	 24.10	
 17.002	-63.866	 21.96000	 13.25470	  2.16380	 -3.14298	 20.47322	 -0.86679	 25.49847	709.34003	 24.10	
 17.006	-58.063	 21.96358	 14.60682	  1.09844	 -2.69754	 19.74349	 -0.90301	 25.50027	709.32001	 24.10	
 17.001	-52.301	 21.96636	 15.88071	  0.13512	 -2.12990	 18.88822	 -0.91839	 25.51300	709.28998	 24.10	
 17.007	-46.454	 21.95616	 17.08981	 -0.73649	 -1.43496	 17.84824	 -0.95618	 25.48939	709.38000	 24.10	
 17.014	-40.657	 21.94610	 18.21039	 -1.52056	 -0.66377	 16.72226	 -0.99570	 25.50001	709.28998	 24.10	
 16.988	-34.839	 21.94588	 19.21551	 -2.19157	  0.20718	 15.50871	 -1.01923	 25.49887	709.31000	 24.10	
 16.995	-29.081	 21.93477	 20.09153	 -2.75425	  1.16403	 14.24043	 -1.03198	 25.51383	709.34003	 24.10	
 16.990	-23.241	 21.92728	 20.81976	 -3.12900	  2.26349	 12.87381	 -1.02140	 25.50489	709.38000	 24.10	
 17.000	-17.404	 21.92650	 21.39705	 -3.43905	  3.42683	 11.52294	 -1.03784	 25.50851	709.34003	 24.10	
 17.009	-11.617	 21.90368	 21.79722	 -3.69422	  4.59631	 10.16995	 -1.03516	 25.50259	709.41998	 24.10	
 16.990	 -5.821	 21.89947	 22.05710	 -3.85723	  5.90212	  8.75130	 -1.05281	 25.50475	709.40002	 24.10	
 17.000	  0.000	 21.88883	 22.18282	 -3.97503	  7.26181	  7.33311	 -1.09243	 25.51310	709.53998	 24.10	
 16.990	  5.821	 21.86656	 22.10693	 -3.91617	  8.64637	  5.96469	 -1.12650	 25.49960	709.35999	 24.10	
 17.009	 11.617	 21.84689	 21.89458	 -3.79570	 10.06952	  4.62244	 -1.15465	 25.50637	709.44000	 24.10	
 17.000	 17.404	 21.82142	 21.50249	 -3.53971	 11.48333	  3.33386	 -1.17214	 25.49915	709.44000	 24.10	
 16.990	 23.241	 21.82142	 20.95903	 -3.22011	 12.87445	  2.15692	 -1.16714	 25.49446	709.44000	 24.10	
 16.995	 29.081	 21.80832	 20.28594	 -2.83075	 14.25415	  1.06476	 -1.21404	 25.51617	709.44000	 24.10	
 16.988	 34.839	 21.78610	 19.44703	 -2.33094	 15.55645	  0.06551	 -1.27754	 25.51474	709.32001	 24.10	
 17.014	 40.657	 21.73931	 18.50207	 -1.74816	 16.78119	 -0.84054	 -1.37492	 25.49928	709.34003	 24.10	
 17.007	 46.454	 21.71354	 17.40218	 -1.04722	 17.93672	 -1.61044	 -1.47532	 25.50309	709.34003	 24.10	
 17.001	 52.301	 21.68424	 16.20815	 -0.24780	 18.99319	 -2.32918	 -1.56337	 25.50420	709.28003	 24.10	
 17.006	 58.063	 21.65138	 14.93000	  0.66505	 19.87386	 -2.92410	 -1.60261	 25.48753	709.32001	 24.10	
 17.002	 63.866	 21.64165	 13.58646	  1.73103	 20.66049	 -3.37761	 -1.57680	 25.49894	709.34998	 24.10	
 17.001	 69.690	 21.63991	 12.20574	  2.85034	 21.28750	 -3.68093	 -1.54832	 25.49141	709.33002	 24.10	
 16.988	 75.483	 21.63902	 10.84698	  4.00669	 21.76957	 -3.88046	 -1.51499	 25.49328	709.26001	 24.20	
 17.012	 81.253	 21.63251	  9.49614	  5.22455	 22.11863	 -4.08598	 -1.51464	 25.49941	709.37000	 24.20	
 16.996	 87.091	 21.63426	  8.09750	  6.54397	 22.27873	 -4.19931	 -1.53184	 25.49923	709.38000	 24.20	
 16.996	 92.909	 21.61954	  6.72152	  7.84441	 22.29389	 -4.20940	 -1.56194	 25.49372	709.28003	 24.20	
 17.008	 98.662	 21.59684	  5.38014	  9.22288	 22.14949	 -4.10819	 -1.58246	 25.48347	709.25000	 24.20	
 16.988	104.517	 21.61124	  4.09768	 10.65541	 21.85752	 -3.93559	 -1.56254	 25.50583	709.34998	 24.20	
 17.001	110.310	 21.58885	  2.85339	 12.02958	 21.40795	 -3.73912	 -1.51026	 25.49735	709.20001	 24.20	
 17.002	116.134	 21.57766	  1.73952	 13.37728	 20.80569	 -3.50684	 -1.45517	 25.49627	709.25000	 24.20	
 17.006	121.937	 21.57128	  0.70181	 14.70399	 20.05339	 -3.17176	 -1.41393	 25.49915	709.28998	 24.20	
 17.001	127.699	 21.56677	 -0.23728	 15.95577	 19.16016	 -2.69238	 -1.39927	 25.48806	709.29999	 24.20	
 17.007	133.546	 21.59416	 -1.09393	 17.18926	 18.14542	 -2.06226	 -1.40668	 25.51250	709.28003	 24.20	
 17.014	139.343	 21.60324	 -1.83174	 18.30360	 16.99277	 -1.28856	 -1.43086	 25.50134	709.32001	 24.20	
 16.988	145.161	 21.60626	 -2.45906	 19.26300	 15.79772	 -0.41146	 -1.42887	 25.49349	709.28003	 24.20	
 16.995	150.919	 21.60882	 -3.01125	 20.12693	 14.48092	  0.50662	 -1.40855	 25.48462	709.29999	 24.20	
 16.990	156.759	 21.63347	 -3.45736	 20.87218	 13.10211	  1.57312	 -1.33910	 25.49491	709.35999	 24.20	
 17.000	162.596	 21.66157	 -3.77852	 21.46593	 11.72909	  2.68994	 -1.24656	 25.50076	709.21002	 24.20	
 17.009	168.383	 21.67699	 -3.98816	 21.88956	 10.34448	  3.91879	 -1.19187	 25.49357	709.28998	 24.20	
 16.990	174.179	 21.70078	 -4.16155	 22.15535	  8.93642	  5.21414	 -1.13871	 25.48681	709.21002	 24.20	
 18.709	174.675	 20.82766	 -5.38063	 22.89717	  8.30303	  4.50793	 -1.20970	 25.48018	709.23999	 24.20	
 18.703	169.441	 20.81960	 -5.20104	 22.64979	  9.68220	  3.22713	 -1.27212	 25.49121	709.34003	 24.20	
 18.691	164.085	 20.81254	 -5.00766	 22.26532	 11.07456	  2.03242	 -1.33481	 25.49854	709.34998	 24.20	
 18.706	158.818	 20.77692	 -4.75765	 21.71922	 12.43411	  0.92705	 -1.41435	 25.49287	709.32001	 24.20	
 18.695	153.537	 20.73891	 -4.39365	 21.04316	 13.82109	 -0.05369	 -1.49034	 25.48314	709.41998	 24.30	
 18.704	148.255	 20.70871	 -3.96501	 20.25650	 15.16686	 -1.07381	 -1.53947	 25.48792	709.40002	 24.30	
 18.698	142.952	 20.69805	 -3.46762	 19.33206	 16.40267	 -1.85635	 -1.70545	 25.52396	709.34003	 24.30	
 18.699	137.625	 20.69594	 -2.88322	 18.29578	 17.60868	 -2.64578	 -1.73223	 25.52271	709.15997	 24.30	
 18.705	132.343	 20.69662	 -2.16624	 17.17396	 18.73854	 -3.32561	 -1.73110	 25.53900	709.21997	 24.30	
 18.713	127.067	 20.68777	 -1.30356	 15.92971	 19.70585	 -3.87149	 -1.78250	 25.52903	709.28003	 24.30	
 18.700	121.794	 20.70654	 -0.38474	 14.67814	 20.57471	 -4.24351	 -1.82444	 25.52418	709.20001	 24.30	
 18.698	116.504	 20.71292	  0.57265	 13.36522	 21.32404	 -4.58401	 -1.86269	 25.53078	709.20001	 24.30	
 18.707	111.165	 20.70846	  1.60756	 11.99447	 21.96141	 -4.87321	 -1.91073	 25.52240	709.25000	 24.30	
 18.690	105.863	 20.72097	  2.75586	 10.62155	 22.45205	 -5.12103	 -1.96909	 25.52795	709.13000	 24.30	
 18.696	100.583	 20.71056	  4.01949	  9.23983	 22.76778	 -5.31148	 -2.00580	 25.52247	709.21002	 24.30	
 18.700	 95.309	 20.71514	  5.36912	  7.84118	 22.97519	 -5.43189	 -2.01661	 25.51729	709.13000	 24.30	
 18.700	 90.000	 20.73466	  6.71611	  6.46967	 23.04057	 -5.48034	 -1.99512	 25.54078	709.17999	 24.30	
 18.700	 84.691	 20.73240	  8.09285	  5.15062	 22.94599	 -5.40181	 -1.96088	 25.52074	709.17999	 24.30	
 18.696	 79.417	 20.75586	  9.48399	  3.88266	 22.72281	 -5.25025	 -1.96253	 25.52758	709.27002	 24.30	
 18.690	 74.137	 20.76738	 10.82737	  2.70214	 22.32533	 -4.98415	 -1.96555	 25.52749	709.22998	 24.30	
 18.707	 68.835	 20.78362	 12.19493	  1.59139	 21.83100	 -4.70694	 -2.00256	 25.53424	709.23999	 24.30	
 18.698	 63.496	 20.80335	 13.58631	  0.54461	 21.15837	 -4.35811	 -2.02874	 25.53508	709.16998	 24.30	
 18.700	 58.206	 20.80472	 14.91420	 -0.42247	 20.41848	 -3.98442	 -2.02386	 25.52759	709.20001	 24.30	
 18.713	 52.933	 20.80014	 16.17166	 -1.33744	 19.52308	 -3.51739	 -2.00411	 25.51941	709.19000	 24.30	
 18.705	 47.657	 20.82283	 17.40408	 -2.13036	 18.50473	 -2.89664	 -1.92083	 25.51936	709.19000	 24.30	
 18.699	 42.375	 20.86017	 18.53886	 -2.84045	 17.37234	 -2.19116	 -1.80300	 25.53289	709.22998	 24.30	
 18.698	 37.048	 20.87341	 19.55249	 -3.46768	 16.16374	 -1.37464	 -1.72081	 25.51926	709.27002	 24.30	
 18.704	 31.745	 20.90084	 20.42014	 -3.96134	 14.89438	 -0.45276	 -1.64757	 25.52230	709.20001	 24.30	
 18.695	 26.463	 20.95504	 21.16476	 -4.35400	 13.55040	  0.55547	 -1.61131	 25.52976	709.26001	 24.30	
 18.706	 21.182	 20.97801	 21.81825	 -4.71655	 12.15977	  1.66488	 -1.57530	 25.54531	709.21997	 24.30	
 18.691	 15.915	 20.96596	 22.29073	 -4.98220	 10.76943	  2.81623	 -1.53251	 25.51807	709.28998	 24.30	
 18.703	 10.559	 20.98639	 22.65463	 -5.17063	  9.34382	  4.08799	 -1.50151	 25.51492	709.26001	 24.30	
 18.709	  5.325	 20.99812	 22.85155	 -5.32612	  7.94343	  5.44284	 -1.42811	 25.52515	709.21002	 24.30	
 18.700	  0.000	 21.01818	 22.90131	 -5.37204	  6.57357	  6.76225	 -1.38391	 25.52875	709.20001	 24.30	
 18.709	 -5.325	 21.02119	 22.81925	 -5.28871	  5.24981	  8.16333	 -1.33962	 25.52169	709.20001	 24.30	
 18.703	-10.559	 21.03636	 22.56616	 -5.13896	  3.96427	  9.54150	 -1.28758	 25.51648	709.25000	 24.30	
 18.691	-15.915	 21.05674	 22.18621	 -4.87929	  2.76722	 10.96464	 -1.25516	 25.51505	709.31000	 24.30	
 18.706	-21.182	 21.07441	 21.66191	 -4.57427	  1.63513	 12.29861	 -1.23996	 25.52636	709.25000	 24.30	
 18.695	-26.463	 21.09026	 20.99449	 -4.25711	  0.54703	 13.65876	 -1.22754	 25.54242	709.28998	 24.30	
 18.704	-31.745	 21.09365	 20.19466	 -3.83502	 -0.43240	 14.96192	 -1.18411	 25.53235	709.21002	 24.30	
 18.698	-37.048	 21.08652	 19.24604	 -3.28421	 -1.34238	 16.23951	 -1.12917	 25.51494	709.28003	 24.30	
 18.699	-42.375	 21.08742	 18.21218	 -2.60651	 -2.13141	 17.43080	 -1.10073	 25.51179	709.20001	 24.30	
 18.705	-47.657	 21.09915	 17.08927	 -1.83895	 -2.85055	 18.52934	 -1.06948	 25.52787	709.28003	 24.30	
 18.713	-52.933	 21.10235	 15.86377	 -0.97321	 -3.46929	 19.50699	 -1.04014	 25.51115	709.28003	 24.30	
 18.700	-58.206	 21.08745	 14.56698	 -0.03776	 -4.03056	 20.36939	 -1.00990	 25.50053	709.26001	 24.40	
 18.698	-63.496	 21.09388	 13.20627	  0.99982	 -4.50081	 21.12733	 -0.97373	 25.52257	709.29999	 24.30	
 18.707	-68.835	 21.07939	 11.80740	  2.13015	 -4.85420	 21.74784	 -0.92985	 25.51677	709.28998	 24.40	
 18.690	-74.137	 21.07099	 10.39422	  3.31238	 -5.11864	 22.20260	 -0.88815	 25.51820	709.34998	 24.40	
 18.696	-79.417	 21.06355	  9.02653	  4.53964	 -5.37320	 22.52008	 -0.87140	 25.51730	709.32001	 24.40	
 18.700	-84.691	 21.04952	  7.63480	  5.81705	 -5.49240	 22.70500	 -0.84942	 25.52154	709.33002	 24.40	
 18.700	-90.000	 21.04132	  6.26825	  7.09608	 -5.48989	 22.69822	 -0.85191	 25.51774	709.21997	 24.40	
 18.700	-95.309	 21.04424	  4.97083	  8.46860	 -5.38388	 22.58699	 -0.85806	 25.52200	709.32001	 24.40	
 18.696	-100.583	 21.05813	  3.69080	  9.88155	 -5.20799	 22.34043	 -0.84795	 25.53004	709.21002	 24.40	
 18.690	-105.863	 21.05986	  2.47465	 11.23651	 -5.00167	 21.92664	 -0.84438	 25.51656	709.34003	 24.40	
 18.707	-111.165	 21.06019	  1.33329	 12.61629	 -4.73288	 21.36485	 -0.84229	 25.51286	709.32001	 24.40	
 18.698	-116.504	 21.08215	  0.28281	 13.99277	 -4.37537	 20.66044	 -0.84041	 25.52470	709.41998	 24.40	
 18.700	-121.794	 21.09619	 -0.68285	 15.32007	 -3.90971	 19.84570	 -0.84304	 25.52697	709.37000	 24.40	
 18.713	-127.067	 21.07695	 -1.58695	 16.56448	 -3.37321	 18.91266	 -0.88543	 25.51080	709.22998	 24.40	
 18.705	-132.343	 21.05647	 -2.42552	 17.73897	 -2.75373	 17.85722	 -0.90628	 25.50802	709.34998	 24.40	
 18.699	-137.625	 21.05887	 -3.19640	 18.84341	 -2.00786	 16.70456	 -0.93452	 25.53137	709.28003	 24.40	
 18.698	-142.952	 21.04288	 -3.84277	 19.81459	 -1.13160	 15.41450	 -0.95335	 25.51227	709.32001	 24.40	
 18.704	-148.255	 21.02342	 -4.43094	 20.69225	 -0.20698	 14.07143	 -0.99944	 25.52968	709.25000	 24.40	
 18.695	-153.537	 20.99599	 -4.86936	 21.40545	  0.77559	 12.70596	 -1.04378	 25.52298	709.33002	 24.40	
 18.706	-158.818	 20.97782	 -5.16352	 22.02081	  1.89040	 11.33495	 -1.08604	 25.51671	709.34998	 24.40	
 18.691	-164.085	 20.95137	 -5.34162	 22.45896	  3.07493	  9.96994	 -1.13392	 25.51433	709.40997	 24.40	
 18.703	-169.441	 20.92275	 -5.44014	 22.79304	  4.28014	  8.62621	 -1.20131	 25.52323	709.34998	 24.40	
 18.709	-174.675	 20.89033	 -5.51672	 22.96223	  5.57792	  7.26907	 -1.25588	 25.52556	709.37000	 24.40	
 18.700	180.000	 20.86227	 -5.51011	 22.99072	  6.91844	  5.90329	 -1.30172	 25.51133	709.44000	 24.40	
 20.400	180.000	 19.92336	 -6.73993	 23.63341	  6.26672	  5.16931	 -1.27980	 25.51783	709.45001	 24.40	
 20.401	-175.153	 19.94762	 -6.77140	 23.60495	  4.94978	  6.47924	 -1.21246	 25.51151	709.37000	 24.40	
 20.407	-170.264	 19.97688	 -6.73190	 23.44531	  3.64446	  7.86433	 -1.15170	 25.50384	709.32001	 24.40	
 20.410	-165.423	 20.02500	 -6.62146	 23.18906	  2.45305	  9.20696	 -1.10943	 25.53300	709.38000	 24.40	
 20.392	-160.496	 20.04266	 -6.41778	 22.74645	  1.27803	 10.59500	 -1.05587	 25.51379	709.34998	 24.40	
 20.401	-155.705	 20.05766	 -6.17758	 22.22258	  0.20281	 11.90503	 -1.01662	 25.51775	709.33002	 24.40	
 20.405	-150.835	 20.09002	 -5.83944	 21.54991	 -0.80375	 13.26166	 -0.95608	 25.52423	709.28003	 24.40	
 20.397	-145.903	 20.11812	 -5.38295	 20.77477	 -1.76647	 14.64102	 -0.92980	 25.52476	709.27002	 24.40	
 20.392	-141.062	 20.12998	 -4.80892	 19.86026	 -2.61621	 15.95997	 -0.88110	 25.52151	709.32001	 24.40	
 20.396	-136.227	 20.13292	 -4.15001	 18.83996	 -3.38479	 17.16823	 -0.86535	 25.50638	709.31000	 24.40	
 20.408	-131.372	 20.14305	 -3.42179	 17.74731	 -4.05625	 18.31570	 -0.84100	 25.50526	709.34998	 24.40	
 20.410	-126.511	 20.16160	 -2.62865	 16.53216	 -4.67872	 19.39211	 -0.81825	 25.52802	709.22998	 24.40	
 20.400	-121.604	 20.15654	 -1.76225	 15.25233	 -5.17998	 20.34222	 -0.80281	 25.52262	709.37000	 24.40	
 20.403	-116.741	 20.13051	 -0.83898	 13.94918	 -5.57227	 21.14387	 -0.79252	 25.51181	709.25000	 24.40	
 20.413	-111.900	 20.13082	  0.12883	 12.61856	 -5.90938	 21.83979	 -0.79240	 25.51973	709.34998	 24.40	
 20.398	-107.004	 20.13696	  1.25414	 11.23280	 -6.16243	 22.40643	 -0.80323	 25.52224	709.34003	 24.40	
 20.394	-102.132	 20.15132	  2.41669	  9.87309	 -6.35616	 22.85272	 -0.79963	 25.51731	709.25000	 24.40	
 20.403	-97.332	 20.13069	  3.59807	  8.50981	 -6.52081	 23.16352	 -0.81639	 25.52177	709.39001	 24.40	
 20.392	-92.440	 20.13309	  4.91958	  7.13994	 -6.64376	 23.33602	 -0.81104	 25.50765	709.44000	 24.50	
 20.392	-87.560	 20.14055	  6.25475	  5.80114	 -6.71879	 23.38510	 -0.80018	 25.52120	709.37000	 24.50	
 20.403	-82.668	 20.13441	  7.59342	  4.49144	 -6.70079	 23.30630	 -0.83095	 25.51918	709.33002	 24.50	
 20.394	-77.868	 20.13931	  8.95451	  3.26131	 -6.57041	 23.08836	 -0.84259	 25.50771	709.41998	 24.50	
 20.398	-72.996	 20.16313	 10.32013	  2.07795	 -6.34156	 22.75018	 -0.86952	 25.52566	709.35999	 24.50	
 20.413	-68.100	 20.14508	 11.71663	  0.93160	 -6.10653	 22.27835	 -0.87818	 25.51666	709.32001	 24.50	
 20.403	-63.259	 20.14952	 13.09163	 -0.18581	 -5.77014	 21.66072	 -0.89848	 25.51462	709.40997	 24.50	
 20.400	-58.396	 20.16794	 14.44355	 -1.13712	 -5.35498	 20.90615	 -0.93857	 25.52542	709.31000	 24.50	
 20.410	-53.489	 20.16993	 15.77619	 -2.07916	 -4.81507	 20.04761	 -0.97298	 25.51595	709.39001	 24.50	
 20.408	-48.628	 20.16657	 17.02988	 -2.92048	 -4.20248	 19.04801	 -1.01398	 25.51742	709.44000	 24.50	
 20.396	-43.773	 20.17559	 18.17867	 -3.63307	 -3.51165	 17.98221	 -1.04978	 25.51418	709.41998	 24.50	
 20.392	-38.938	 20.17197	 19.22724	 -4.28090	 -2.78313	 16.81707	 -1.08731	 25.51212	709.28003	 24.50	
 20.397	-34.097	 20.17303	 20.17389	 -4.81607	 -1.98502	 15.58372	 -1.13216	 25.51269	709.34998	 24.50	
 20.405	-29.165	 20.15954	 21.06860	 -5.26349	 -1.08101	 14.27240	 -1.18555	 25.52262	709.35999	 24.50	
 20.401	-24.295	 20.14358	 21.80435	 -5.63969	 -0.11011	 12.95445	 -1.22541	 25.51997	709.53998	 24.50	
 20.392	-19.504	 20.13283	 22.42179	 -5.96390	  0.96426	 11.64920	 -1.26705	 25.52972	709.42999	 24.50	
 20.410	-14.577	 20.12742	 22.92675	 -6.25350	  2.11301	 10.25126	 -1.31038	 25.53506	709.40997	 24.50	
 20.407	 -9.736	 20.09609	 23.26217	 -6.47453	  3.28819	  8.86886	 -1.34917	 25.51015	709.48999	 24.50	
 20.401	 -4.847	 20.08952	 23.47922	 -6.62608	  4.56369	  7.44895	 -1.39899	 25.51845	709.40002	 24.50	
 20.400	  0.000	 20.07401	 23.56085	 -6.64838	  5.88006	  6.12448	 -1.45808	 25.50116	709.39001	 24.50	
 20.401	  4.847	 20.07235	 23.52861	 -6.59993	  7.20240	  4.77580	 -1.55008	 25.51988	709.40997	 24.50	
 20.407	  9.736	 20.05749	 23.34019	 -6.49219	  8.59569	  3.47736	 -1.62469	 25.52197	709.40997	 24.50	
 20.410	 14.577	 20.03973	 23.03760	 -6.34042	  9.96843	  2.25123	 -1.69328	 25.50997	709.31000	 24.50	
 20.392	 19.504	 20.01849	 22.56380	 -6.11415	 11.37002	  1.09547	 -1.74002	 25.51031	709.34003	 24.50	
 20.401	 24.295	 19.99197	 21.99322	 -5.83033	 12.74023	  0.01507	 -1.79966	 25.50275	709.40997	 24.50	
 20.405	 29.165	 19.95886	 21.31453	 -5.51230	 14.12014	 -1.07014	 -1.79855	 25.52096	709.40002	 24.50	
 20.397	 34.097	 19.93918	 20.46564	 -5.05062	 15.44396	 -2.01119	 -1.87629	 25.51516	709.34003	 24.50	
 20.392	 38.938	 19.92963	 19.51447	 -4.49660	 16.68092	 -2.81610	 -1.97411	 25.52575	709.38000	 24.50	
 20.396	 43.773	 19.90203	 18.46777	 -3.87063	 17.86555	 -3.52084	 -2.07280	 25.52781	709.35999	 24.50	
 20.408	 48.628	 19.87925	 17.33274	 -3.17895	 18.97340	 -4.21625	 -2.16461	 25.52441	709.46002	 24.50	
 20.410	 53.489	 19.85331	 16.09302	 -2.38641	 19.98105	 -4.78245	 -2.24504	 25.51695	709.38000	 24.50	
 20.400	 58.396	 19.86012	 14.82076	 -1.51840	 20.86037	 -5.18621	 -2.26453	 25.53242	709.34998	 24.50	
 20.403	 63.259	 19.82595	 13.50233	 -0.61971	 21.64760	 -5.59845	 -2.26509	 25.53294	709.33002	 24.50	
 20.413	 68.100	 19.78282	 12.12598	  0.36401	 22.29555	 -5.96955	 -2.25568	 25.51729	709.32001	 24.50	
 20.398	 72.996	 19.77902	 10.75027	  1.46700	 22.82335	 -6.23916	 -2.23461	 25.52158	709.31000	 24.50	
 20.394	 77.868	 19.78539	  9.43943	  2.61971	 23.24024	 -6.46737	 -2.20178	 25.51806	709.32001	 24.50	
 20.403	 82.668	 19.77429	  8.07285	  3.82398	 23.51531	 -6.64048	 -2.20878	 25.51551	709.31000	 24.50	
 20.392	 87.560	 19.76105	  6.68026	  5.11193	 23.64805	 -6.77137	 -2.22220	 25.52132	709.37000	 24.50	
 20.392	 92.440	 19.76156	  5.30553	  6.43487	 23.65311	 -6.81152	 -2.23862	 25.51789	709.28998	 24.50	
 20.403	 97.332	 19.73493	  3.92115	  7.79057	 23.57293	 -6.71407	 -2.23500	 25.52458	709.25000	 24.50	
 20.394	102.132	 19.71828	  2.66992	  9.12630	 23.31504	 -6.57444	 -2.20089	 25.50672	709.28998	 24.50	
 20.398	107.004	 19.71161	  1.49834	 10.49851	 22.93976	 -6.41841	 -2.16765	 25.50371	709.28998	 24.50	
 20.413	111.900	 19.69832	  0.42229	 11.86774	 22.43619	 -6.15104	 -2.11791	 25.49503	709.39001	 24.50	
 20.403	116.741	 19.71149	 -0.55236	 13.23538	 21.80372	 -5.83753	 -2.07438	 25.50674	709.29999	 24.60	
 20.400	121.604	 19.73328	 -1.43880	 14.55347	 21.05558	 -5.43301	 -2.01015	 25.51280	709.29999	 24.60	
 20.410	126.511	 19.72981	 -2.31460	 15.86355	 20.17180	 -4.95320	 -1.94373	 25.50988	709.37000	 24.60	
 20.408	131.372	 19.72679	 -3.09433	 17.07968	 19.20952	 -4.48103	 -1.89928	 25.52179	709.29999	 24.60	
 20.396	136.227	 19.74363	 -3.74037	 18.20417	 18.16603	 -3.97573	 -1.87457	 25.53141	709.37000	 24.60	
 20.392	141.062	 19.74092	 -4.32522	 19.26072	 17.01532	 -3.33314	 -1.84909	 25.51924	709.40997	 24.60	
 20.397	145.903	 19.72651	 -4.91754	 20.21854	 15.76535	 -2.55475	 -1.80371	 25.50610	709.47998	 24.60	
 20.405	150.835	 19.71993	 -5.44120	 21.08658	 14.45954	 -1.71033	 -1.74480	 25.51665	709.38000	 24.60	
 20.401	155.705	 19.75264	 -5.81166	 21.83360	 13.09620	 -0.70411	 -1.66682	 25.51162	709.40997	 24.60	
 20.392	160.496	 19.81632	 -6.02663	 22.42769	 11.75849	  0.38051	 -1.58551	 25.51723	709.40002	 24.60	
 20.410	165.423	 19.83580	 -6.28092	 22.92079	 10.37821	  1.40136	 -1.53622	 25.50613	709.48999	 24.60	
 20.407	170.264	 19.86509	 -6.47885	 23.29257	  8.99020	  2.57467	 -1.46379	 25.51452	709.39001	 24.60	
 20.401	175.153	 19.89035	 -6.60987	 23.50924	  7.59606	  3.83867	 -1.35959	 25.50451	709.35999	 24.60	
  0.141	 45.000	 25.54733	 10.57067	 10.76019	 10.87451	 10.26372	  0.33199	 25.51887	709.45001	 24.60	
  4.001	128.691	 25.42249	  8.39000	 12.67150	 13.24515	  7.68322	  0.16754	 25.51427	709.41998	 24.60	
  4.002	 76.995	 25.44331	 11.05597	  9.86481	 13.88783	  7.12351	  0.25836	 25.51412	709.51001	 24.60	
  4.002	 25.892	 25.46265	 13.38086	  7.80930	 11.97095	  8.87307	  0.32702	 25.51920	709.42999	 24.60	
  4.002	-25.892	 25.47246	 13.32120	  7.86338	  9.18127	 11.61745	  0.28715	 25.51649	709.59003	 24.60	
  4.002	-76.995	 25.46189	 10.94677	 10.00226	  7.52661	 13.44006	  0.17712	 25.50543	709.59998	 24.60	
  4.001	-128.691	 25.45366	  8.32682	 12.77820	  8.14448	 12.66390	  0.10026	 25.50699	709.39001	 24.60	
  4.000	180.000	 25.44029	  7.21034	 14.03289	 10.65648	 10.08161	  0.09649	 25.51698	709.46002	 24.60	
  8.000	180.000	 24.87587	  3.75833	 16.96629	 10.08009	  9.40072	 -0.34343	 25.51250	709.46002	 24.60	
  7.991	-152.370	 24.92579	  4.35292	 16.21104	  7.16554	 12.47670	 -0.33811	 25.51599	709.53998	 24.60	
  7.997	-124.550	 24.96606	  6.18392	 14.01182	  5.03113	 15.08098	 -0.34704	 25.51674	709.54999	 24.60	
  8.006	-96.837	 24.97282	  8.92202	 10.99656	  4.01389	 16.46413	 -0.33791	 25.52105	709.53003	 24.60	
  7.988	-69.228	 24.98994	 11.98611	  7.99214	  4.33116	 16.13952	 -0.27869	 25.52601	709.58002	 24.60	
  7.997	-41.563	 24.97915	 14.78807	  5.60566	  5.85772	 14.22307	 -0.16442	 25.51475	709.52002	 24.60	
  8.008	-13.821	 24.95006	 16.47727	  4.25850	  8.41454	 11.34626	 -0.07856	 25.51323	709.56000	 24.60	
  8.008	 13.821	 24.92850	 16.53883	  4.19648	 11.49938	  8.24875	 -0.01652	 25.51357	709.59003	 24.60	
  7.997	 41.563	 24.88706	 14.93447	  5.38348	 14.47024	  5.59968	 -0.06764	 25.51081	709.63000	 24.60	
  7.988	 69.228	 24.86360	 12.15948	  7.71760	 16.45435	  3.97969	 -0.09809	 25.52321	709.46002	 24.60	
  8.006	 96.837	 24.83234	  9.05711	 10.68250	 16.93341	  3.60297	 -0.18458	 25.51459	709.53998	 24.60	
  7.997	124.550	 24.82327	  6.24990	 13.76377	 15.71309	  4.50563	 -0.21558	 25.50114	709.59003	 24.60	
  7.991	152.370	 24.84262	  4.36961	 16.08451	 13.17790	  6.53612	 -0.28632	 25.53017	709.52002	 24.60	
 12.009	161.059	 23.71937	  0.47557	 18.91306	 12.38521	  5.31358	 -0.86505	 25.51026	709.50000	 24.60	
 12.013	142.081	 23.70647	  1.78340	 17.13072	 15.44363	  2.90510	 -0.87782	 25.51202	709.59998	 24.60	
 12.006	123.113	 23.67544	  3.85629	 14.44015	 17.87369	  0.94610	 -0.80616	 25.50255	709.48999	 24.60	
 12.007	104.200	 23.69819	  6.57714	 11.30391	 19.28179	 -0.02157	 -0.86574	 25.50881	709.53003	 24.60	
 11.989	 85.301	 23.72645	  9.75728	  8.14125	 19.54377	 -0.17025	 -0.79335	 25.51208	709.46997	 24.60	
 12.013	 66.294	 23.73126	 12.95597	  5.20642	 18.63159	  0.51738	 -0.80448	 25.51431	709.46002	 24.60	
 12.012	 47.388	 23.76121	 15.92046	  2.80799	 16.63020	  2.10261	 -0.77165	 25.51109	709.40002	 24.60	
 11.990	 28.440	 23.82523	 18.10931	  1.25610	 13.79127	  4.45334	 -0.58860	 25.51410	709.45001	 24.70	
 11.991	  9.464	 23.86557	 19.24637	  0.51155	 10.56292	  7.38387	 -0.59525	 25.51078	709.35999	 24.70	
 11.991	 -9.464	 23.88401	 19.19266	  0.54368	  7.42660	 10.56517	 -0.63988	 25.49519	709.37000	 24.70	
 11.990	-28.440	 23.92376	 17.96404	  1.40686	  4.56436	 13.69769	 -0.72796	 25.50384	709.46002	 24.70	
 12.012	-47.388	 23.92964	 15.67476	  3.12604	  2.27418	 16.50624	 -0.83066	 25.50509	709.29999	 24.70	
 12.013	-66.294	 23.93688	 12.68986	  5.56115	  0.84786	 18.37544	 -0.84633	 25.50329	709.29999	 24.70	
 11.989	-85.301	 23.92419	  9.45003	  8.54951	  0.19837	 19.16139	 -0.85252	 25.50430	709.40002	 24.70	
 12.007	-104.200	 23.90039	  6.32571	 11.70476	  0.45029	 18.75927	 -0.84227	 25.49510	709.28998	 24.60	
 12.006	-123.113	 23.90825	  3.70446	 14.83438	  1.58635	 17.20269	 -0.85626	 25.49922	709.32001	 24.60	
 12.013	-142.081	 23.88200	  1.62904	 17.41791	  3.48428	 14.65828	 -0.84740	 25.50278	709.37000	 24.70	
 12.009	-161.059	 23.83054	  0.35070	 19.07366	  6.11214	 11.54910	 -0.88960	 25.49672	709.40002	 24.70	
 16.000	180.000	 22.18312	 -3.53121	 21.76128	  7.96398	  6.98572	 -1.23440	 25.51083	709.50000	 24.70	
 15.990	-165.604	 22.25038	 -3.42090	 21.39491	  4.86949	 10.16371	 -1.17180	 25.49706	709.40997	 24.70	
 16.002	-151.165	 22.31375	 -2.59436	 20.13343	  2.04088	 13.41289	 -1.07624	 25.51270	709.39001	 24.70	
 16.002	-136.836	 22.37061	 -1.03703	 18.03626	 -0.13806	 16.42382	 -0.98948	 25.51652	709.35999	 24.70	
 15.995	-122.439	 22.37392	  0.96904	 15.29418	 -1.74406	 18.87077	 -0.95085	 25.50539	709.44000	 24.70	
 15.993	-107.966	 22.37869	  3.59325	 12.14337	 -2.74848	 20.56482	 -0.93465	 25.50682	709.46002	 24.70	
 16.005	-93.629	 22.35062	  6.52630	  8.88856	 -3.29019	 21.37713	 -0.94953	 25.50775	709.37000	 24.70	
 15.992	-79.234	 22.38055	  9.77862	  5.76006	 -3.15587	 21.25705	 -0.97957	 25.51027	709.31000	 24.70	
 16.009	-64.774	 22.38919	 13.02200	  2.93318	 -2.42628	 20.21869	 -1.02264	 25.50567	709.28998	 24.70	
 15.997	-50.364	 22.40286	 16.10637	  0.56067	 -1.14314	 18.30392	 -1.09027	 25.51352	709.34998	 24.70	
 15.997	-36.045	 22.39554	 18.66798	 -1.28158	  0.70584	 15.68553	 -1.13095	 25.52081	709.37000	 24.70	
 16.000	-21.597	 22.35612	 20.53316	 -2.43032	  3.22928	 12.58032	 -1.12425	 25.50426	709.33002	 24.70	
 16.003	 -7.169	 22.33008	 21.48750	 -3.01003	  6.04625	  9.37472	 -1.11160	 25.51425	709.33002	 24.70	
 16.003	  7.169	 22.30154	 21.53846	 -3.07749	  9.23156	  6.14184	 -1.16713	 25.50381	709.33002	 24.70	
 16.000	 21.597	 22.26953	 20.66089	 -2.52744	 12.55721	  3.13513	 -1.16656	 25.52314	709.28998	 24.70	
 15.997	 36.045	 22.21754	 18.89320	 -1.44583	 15.67875	  0.63198	 -1.28554	 25.50111	709.40997	 24.70	
 15.997	 50.364	 22.15670	 16.42239	  0.18266	 18.30830	 -1.29247	 -1.49461	 25.50541	709.26001	 24.70	
 16.009	 64.774	 22.08914	 13.34802	  2.50293	 20.35335	 -2.63825	 -1.55086	 25.50482	709.34003	 24.70	
 15.992	 79.234	 22.09108	 10.15705	  5.26474	 21.52419	 -3.23739	 -1.47977	 25.51112	709.34003	 24.70	
 16.005	 93.629	 22.07727	  6.90292	  8.29732	 21.78642	 -3.39934	 -1.54523	 25.51314	709.28998	 24.70	
 15.993	107.966	 22.04990	  3.90509	 11.54950	 21.14291	 -3.05834	 -1.52326	 25.50236	709.28003	 24.70	
 15.995	122.439	 22.05885	  1.25483	 14.76453	 19.60317	 -2.30025	 -1.40840	 25.51403	709.40997	 24.70	
 16.002	136.836	 22.07299	 -0.76034	 17.55356	 17.25484	 -0.80072	 -1.44283	 25.49896	709.29999	 24.70	
 16.002	151.165	 22.07972	 -2.26357	 19.78570	 14.36587	  1.26706	 -1.45678	 25.50556	709.28003	 24.70	
 15.990	165.604	 22.12642	 -3.15660	 21.21524	 11.14890	  3.95005	 -1.27572	 25.49840	709.33002	 24.70	
 20.003	168.362	 20.07831	 -6.10538	 23.02044	  9.63652	  2.32578	 -1.47923	 25.49952	709.41998	 24.70	
 20.008	156.764	 20.00217	 -5.55689	 21.85572	 12.84069	 -0.18094	 -1.64536	 25.51031	709.37000	 24.70	
 20.000	145.147	 19.95285	 -4.56736	 19.99843	 15.93790	 -2.42020	 -1.79772	 25.50074	709.34998	 24.70	
 19.995	133.545	 19.95200	 -3.14713	 17.55287	 18.67393	 -4.03326	 -1.85852	 25.50136	709.35999	 24.70	
 20.009	121.926	 19.95292	 -1.26076	 14.66540	 20.89317	 -5.14255	 -1.97529	 25.49577	709.33002	 24.70	
 20.005	110.327	 19.94518	  0.99968	 11.54028	 22.47323	 -5.93109	 -2.09647	 25.50274	709.37000	 24.70	
 19.989	 98.733	 19.96960	  3.76779	  8.33139	 23.34161	 -6.34481	 -2.19837	 25.50282	709.34003	 24.70	
 19.999	 87.075	 19.98713	  6.97647	  5.16132	 23.49026	 -6.45932	 -2.16594	 25.50131	709.41998	 24.70	
 19.992	 75.457	 20.00650	 10.18102	  2.26616	 22.89118	 -6.03849	 -2.15910	 25.48271	709.53003	 24.70	
 20.009	 63.844	 20.04552	 13.37838	 -0.24154	 21.60540	 -5.31693	 -2.23026	 25.49894	709.38000	 24.70	
 19.989	 52.269	 20.10010	 16.39013	 -2.30531	 19.65163	 -4.34410	 -2.17643	 25.52083	709.40002	 24.70	
 19.999	 40.602	 20.12960	 19.09364	 -3.99457	 17.07921	 -2.80172	 -1.96762	 25.50398	709.34998	 24.70	
 20.004	 29.051	 20.18130	 21.20433	 -5.20719	 14.11771	 -0.77208	 -1.78167	 25.50495	709.34998	 24.70	
 20.005	 17.433	 20.24395	 22.63942	 -5.92309	 10.86468	  1.78541	 -1.68594	 25.50925	709.22998	 24.70	
 20.006	  5.780	 20.27417	 23.33045	 -6.28177	  7.60453	  4.70022	 -1.52710	 25.50591	709.37000	 24.80	
 20.006	 -5.780	 20.30249	 23.27879	 -6.28951	  4.49526	  7.87214	 -1.38627	 25.50271	709.32001	 24.80	
 20.005	-17.433	 20.33243	 22.50530	 -5.80037	  1.67282	 11.13399	 -1.27614	 25.50665	709.38000	 24.80	
 20.004	-29.051	 20.37194	 20.96788	 -4.99082	 -0.78346	 14.24801	 -1.16649	 25.50157	709.28003	 24.80	
 19.999	-40.602	 20.37976	 18.80811	 -3.79070	 -2.76823	 17.17950	 -1.07048	 25.49993	709.34003	 24.70	
 19.989	-52.269	 20.39564	 16.07936	 -2.00387	 -4.34047	 19.67863	 -0.99475	 25.49599	709.22998	 24.80	
 20.009	-63.844	 20.36478	 12.97130	  0.19041	 -5.52016	 21.58568	 -0.90604	 25.50259	709.32001	 24.80	
 19.992	-75.457	 20.36646	  9.72114	  2.87615	 -6.12751	 22.77617	 -0.85134	 25.49539	709.29999	 24.80	
 19.999	-87.075	 20.34972	  6.52501	  5.83222	 -6.42950	 23.21304	 -0.82272	 25.50274	709.23999	 24.80	
 19.989	-98.733	 20.34463	  3.44135	  9.01311	 -6.18695	 22.90011	 -0.83086	 25.48288	709.17999	 24.80	
 20.005	-110.327	 20.34317	  0.72981	 12.21737	 -5.72150	 21.89724	 -0.81234	 25.50577	709.29999	 24.80	
 20.009	-121.926	 20.34815	 -1.55897	 15.31762	 -4.86411	 20.17177	 -0.80512	 25.49218	709.39001	 24.80	
 19.995	-133.545	 20.35859	 -3.49519	 18.18540	 -3.48183	 17.76374	 -0.86897	 25.50629	709.21997	 24.80	
 20.000	-145.147	 20.32014	 -5.03070	 20.52334	 -1.64146	 14.85906	 -0.93493	 25.50419	709.38000	 24.80	
 20.008	-156.764	 20.26024	 -5.95418	 22.19505	  0.67315	 11.67270	 -1.04269	 25.48488	709.28998	 24.80	
 20.003	-168.362	 20.21534	 -6.37914	 23.20338	  3.37646	  8.51765	 -1.14721	 25.50246	709.34003	 24.80	
 20.000	180.000	 20.14766	 -6.43825	 23.47647	  6.43895	  5.33217	 -1.30631	 25.51094	709.33002	 24.80	
