FileType=PCF
NHL=14
Date=08/28/17	16:47:28
Facility=APL
Serial=16328-12
Customer=NASA
NP=6
Mach=0.100000
Calibration=1:1
CalPts=490
TstPts=95
PortNumbering=AP Standard
Units=Torr C m/s kg/m^3 deg mm 
Theta[deg]	Phi[deg]	P1[Torr]	P2[Torr]	P3[Torr]	P4[Torr]	P5[Torr]	P6[Torr]	Pt[Torr]	Ps[Abs,Torr]	Ts[C]	
  0.000	  0.000	  4.95795	  2.61280	  2.64972	  2.60001	  2.72267	  0.03508	  4.95286	708.19299	 24.30	
  1.691	128.401	  4.95588	  2.46130	  2.78970	  2.78120	  2.53349	  0.03117	  4.95117	707.97302	 24.30	
  1.692	 77.194	  4.94867	  2.65641	  2.58820	  2.82336	  2.48586	  0.02912	  4.94594	708.07703	 24.30	
  1.699	 26.182	  4.95767	  2.81962	  2.43561	  2.70190	  2.61248	  0.02959	  4.95465	707.98798	 24.30	
  1.699	-26.182	  4.95573	  2.80432	  2.43268	  2.49575	  2.79776	  0.02421	  4.95110	707.98798	 24.30	
  1.692	-77.194	  4.96705	  2.63951	  2.59774	  2.37840	  2.92985	  0.02113	  4.96054	708.09698	 24.30	
  1.691	-128.401	  4.95431	  2.45721	  2.77358	  2.41528	  2.87961	  0.02479	  4.95089	708.13000	 24.30	
  1.700	180.000	  4.97266	  2.38125	  2.88506	  2.60327	  2.72042	  0.03128	  4.96558	708.27698	 24.30	
  3.400	180.000	  4.95602	  2.11686	  3.10922	  2.56634	  2.68289	  0.01670	  4.95795	708.19800	 24.30	
  3.388	-152.325	  4.95596	  2.16447	  3.04505	  2.34503	  2.90813	  0.01178	  4.95864	708.21600	 24.30	
  3.397	-124.529	  4.94084	  2.29483	  2.87607	  2.17526	  3.07681	  0.00675	  4.94578	708.14502	 24.30	
  3.399	-96.763	  4.94641	  2.50406	  2.65959	  2.10309	  3.16551	  0.00549	  4.95465	708.07703	 24.30	
  3.394	-69.283	  4.93678	  2.73000	  2.42920	  2.12354	  3.12992	  0.00357	  4.94169	708.19299	 24.30	
  3.400	-41.398	  4.96007	  2.94126	  2.26097	  2.25653	  3.00310	  0.00520	  4.96321	708.16803	 24.30	
  3.401	-14.021	  4.95040	  3.05071	  2.15955	  2.44091	  2.79314	  0.00724	  4.95314	707.96198	 24.30	
  3.401	 14.021	  4.95036	  3.05368	  2.16778	  2.68074	  2.56286	  0.01301	  4.95325	708.12201	 24.30	
  3.400	 41.398	  4.95078	  2.93777	  2.26997	  2.88230	  2.37538	  0.01498	  4.94971	708.08801	 24.30	
  3.394	 69.283	  4.95459	  2.74964	  2.45182	  3.01279	  2.26920	  0.01894	  4.95543	708.13702	 24.30	
  3.399	 96.763	  4.96547	  2.52519	  2.68244	  3.05113	  2.24941	  0.02035	  4.96500	708.14697	 24.30	
  3.397	124.529	  4.95808	  2.32090	  2.88713	  2.97181	  2.31311	  0.01904	  4.95578	708.12299	 24.30	
  3.388	152.325	  4.95216	  2.17139	  3.04056	  2.78767	  2.46407	  0.01671	  4.95270	708.13098	 24.20	
  5.099	161.165	  4.91961	  1.86825	  3.28985	  2.75905	  2.40757	 -0.00337	  4.94424	708.13098	 24.20	
  5.109	142.013	  4.93623	  1.98281	  3.17455	  2.98958	  2.21439	 -0.00325	  4.95697	708.09497	 24.20	
  5.095	123.033	  4.93164	  2.15224	  2.98083	  3.15520	  2.06971	 -0.00056	  4.95431	708.22601	 24.20	
  5.105	104.191	  4.93006	  2.35893	  2.75245	  3.26064	  1.97747	 -0.00353	  4.95191	708.12299	 24.20	
  5.093	 85.207	  4.93011	  2.60023	  2.51276	  3.27863	  1.96618	 -0.00101	  4.94993	708.10602	 24.20	
  5.104	 66.290	  4.94295	  2.84714	  2.28942	  3.22108	  2.02019	 -0.00023	  4.96334	708.17798	 24.20	
  5.094	 47.331	  4.93102	  3.05415	  2.09232	  3.07347	  2.13418	 -0.00094	  4.94902	708.18701	 24.20	
  5.089	 28.397	  4.93946	  3.21627	  1.96011	  2.88115	  2.31156	 -0.00494	  4.96046	708.05200	 24.20	
  5.096	  9.576	  4.91608	  3.28583	  1.88144	  2.63577	  2.51939	 -0.00607	  4.94048	708.03497	 24.20	
  5.096	 -9.576	  4.93896	  3.29922	  1.88575	  2.40174	  2.77369	 -0.01356	  4.96368	708.13000	 24.20	
  5.089	-28.397	  4.92171	  3.19857	  1.95077	  2.17781	  2.99324	 -0.01790	  4.94891	708.21802	 24.20	
  5.094	-47.331	  4.91992	  3.04113	  2.08237	  1.99601	  3.19342	 -0.01856	  4.94792	708.20099	 24.20	
  5.104	-66.290	  4.93383	  2.83541	  2.28050	  1.87612	  3.34894	 -0.01915	  4.96287	708.16803	 24.20	
  5.093	-85.207	  4.91965	  2.58720	  2.50336	  1.81959	  3.40073	 -0.02040	  4.95014	708.14203	 24.20	
  5.105	-104.191	  4.91094	  2.33928	  2.74201	  1.83107	  3.37392	 -0.01785	  4.94192	708.06097	 24.20	
  5.095	-123.033	  4.91733	  2.13070	  2.97524	  1.92573	  3.27427	 -0.01207	  4.94915	708.22101	 24.20	
  5.109	-142.013	  4.92044	  1.96707	  3.16395	  2.07898	  3.10298	 -0.00887	  4.95115	708.11102	 24.20	
  5.099	-161.165	  4.92011	  1.86292	  3.28925	  2.28426	  2.87934	 -0.00629	  4.94761	708.22101	 24.20	
  5.100	180.000	  4.93147	  1.83630	  3.33717	  2.52349	  2.64573	 -0.00381	  4.95529	708.35400	 24.20	
  6.800	180.000	  4.89915	  1.54199	  3.57280	  2.47613	  2.60317	 -0.03249	  4.96569	708.16803	 24.20	
  6.796	-166.229	  4.89112	  1.56098	  3.53745	  2.23995	  2.83351	 -0.03145	  4.96171	708.12799	 24.20	
  6.808	-152.311	  4.87451	  1.62829	  3.43444	  2.01616	  3.05567	 -0.03461	  4.94659	708.06000	 24.20	
  6.795	-138.383	  4.87944	  1.75407	  3.28983	  1.82961	  3.26950	 -0.04268	  4.95477	708.11401	 24.20	
  6.792	-124.591	  4.87561	  1.91841	  3.09586	  1.67999	  3.43714	 -0.04211	  4.95057	708.12299	 24.20	
  6.787	-110.754	  4.87981	  2.12198	  2.87668	  1.58224	  3.55989	 -0.04655	  4.95822	708.32001	 24.20	
  6.800	-96.985	  4.86874	  2.34361	  2.63252	  1.52815	  3.61322	 -0.05399	  4.94592	708.15002	 24.10	
  6.800	-83.015	  4.87200	  2.59089	  2.39141	  1.53104	  3.61237	 -0.05402	  4.95122	708.24701	 24.10	
  6.787	-69.246	  4.87939	  2.83449	  2.16963	  1.58465	  3.55832	 -0.05223	  4.95532	708.26001	 24.10	
  6.792	-55.409	  4.89117	  3.06825	  1.97115	  1.68705	  3.45103	 -0.05242	  4.96852	708.22998	 24.10	
  6.795	-41.617	  4.88678	  3.25921	  1.80172	  1.82866	  3.27916	 -0.05038	  4.96141	708.16699	 24.10	
  6.808	-27.689	  4.87480	  3.40426	  1.67414	  2.01449	  3.05983	 -0.04440	  4.94658	708.17902	 24.10	
  6.796	-13.771	  4.87868	  3.49622	  1.60280	  2.23100	  2.82935	 -0.04064	  4.94750	708.20203	 24.10	
  6.800	  0.000	  4.88388	  3.53385	  1.58036	  2.46751	  2.59328	 -0.04174	  4.94916	708.26801	 24.10	
  6.796	 13.771	  4.87296	  3.49618	  1.60317	  2.70146	  2.35700	 -0.03706	  4.93831	708.19000	 24.10	
  6.808	 27.689	  4.88963	  3.41785	  1.68370	  2.94197	  2.14933	 -0.03218	  4.95317	708.16199	 24.10	
  6.795	 41.617	  4.90177	  3.27332	  1.81599	  3.15600	  1.97482	 -0.03023	  4.96408	708.18500	 24.10	
  6.792	 55.409	  4.90390	  3.08114	  1.98489	  3.32644	  1.83414	 -0.02584	  4.96134	708.21301	 24.10	
  6.787	 69.246	  4.88906	  2.84945	  2.18049	  3.43816	  1.73051	 -0.02338	  4.94701	708.23199	 24.10	
  6.800	 83.015	  4.90071	  2.62075	  2.40817	  3.51242	  1.68163	 -0.03035	  4.96069	708.21600	 24.10	
  6.800	 96.985	  4.89017	  2.36931	  2.64653	  3.50688	  1.67777	 -0.03185	  4.94973	708.20697	 24.10	
  6.787	110.754	  4.89214	  2.14911	  2.88150	  3.44374	  1.73276	 -0.02860	  4.94937	708.16803	 24.10	
  6.792	124.591	  4.90716	  1.94992	  3.11255	  3.33459	  1.83573	 -0.02999	  4.96702	708.14697	 24.10	
  6.795	138.383	  4.89567	  1.77816	  3.29655	  3.15790	  1.97085	 -0.02908	  4.95935	708.20898	 24.10	
  6.808	152.311	  4.88935	  1.64361	  3.44338	  2.94726	  2.14778	 -0.02904	  4.95265	708.20203	 24.10	
  6.796	166.229	  4.88588	  1.56469	  3.53103	  2.71204	  2.35956	 -0.03003	  4.95039	708.23999	 24.10	
  8.491	168.704	  4.82430	  1.26481	  3.74806	  2.65906	  2.29016	 -0.06642	  4.95039	708.21002	 24.10	
  8.502	157.493	  4.82658	  1.32946	  3.67244	  2.90024	  2.06916	 -0.05814	  4.95111	708.16400	 24.10	
  8.494	146.194	  4.82772	  1.43509	  3.54499	  3.12697	  1.86968	 -0.06231	  4.94756	708.09198	 24.10	
  8.495	135.039	  4.82497	  1.57496	  3.37753	  3.32708	  1.69738	 -0.06690	  4.94598	708.28198	 24.10	
  8.487	123.723	  4.83032	  1.75449	  3.17664	  3.49943	  1.55798	 -0.06774	  4.94829	708.26099	 24.10	
  8.492	112.575	  4.82857	  1.95720	  2.94989	  3.62276	  1.46103	 -0.06545	  4.94971	708.22400	 24.10	
  8.510	101.220	  4.83614	  2.19070	  2.71110	  3.70670	  1.39884	 -0.06925	  4.95316	708.12598	 24.10	
  8.500	 90.000	  4.83366	  2.43171	  2.46253	  3.73000	  1.37844	 -0.06965	  4.95313	708.17603	 24.00	
  8.510	 78.780	  4.83115	  2.67981	  2.22011	  3.70113	  1.39733	 -0.06230	  4.94982	708.27802	 24.00	
  8.492	 67.425	  4.84420	  2.93409	  1.99587	  3.63101	  1.46306	 -0.05745	  4.96249	708.27100	 24.00	
  8.487	 56.277	  4.84788	  3.16103	  1.79561	  3.50767	  1.56313	 -0.06109	  4.96770	708.21600	 24.00	
  8.495	 44.961	  4.83527	  3.36028	  1.61245	  3.32925	  1.69694	 -0.06592	  4.95769	708.25500	 24.00	
  8.494	 33.806	  4.83712	  3.52899	  1.47402	  3.12620	  1.87130	 -0.06757	  4.95573	708.24103	 24.00	
  8.502	 22.507	  4.82021	  3.64483	  1.36553	  2.89083	  2.06675	 -0.07074	  4.94446	708.27802	 24.00	
  8.491	 11.296	  4.82778	  3.72503	  1.30706	  2.65386	  2.29225	 -0.07753	  4.95399	708.21301	 24.00	
  8.500	  0.000	  4.82770	  3.75327	  1.28287	  2.40468	  2.53379	 -0.07915	  4.95380	708.27502	 24.00	
  8.491	-11.296	  4.83342	  3.72882	  1.30596	  2.16744	  2.78397	 -0.07509	  4.96322	708.22998	 24.00	
  8.502	-22.507	  4.81345	  3.63497	  1.36075	  1.93438	  3.01262	 -0.07714	  4.94374	708.40302	 24.00	
  8.494	-33.806	  4.82764	  3.51461	  1.46980	  1.73265	  3.25247	 -0.08357	  4.96382	708.15601	 24.00	
  8.495	-44.961	  4.81848	  3.33856	  1.60458	  1.55450	  3.44695	 -0.08782	  4.95459	708.29498	 24.00	
  8.487	-56.277	  4.81694	  3.12889	  1.78160	  1.41924	  3.60695	 -0.09310	  4.95441	708.25702	 24.00	
  8.492	-67.425	  4.81612	  2.90211	  1.98292	  1.31615	  3.73221	 -0.09200	  4.95717	708.28003	 24.00	
  8.510	-78.780	  4.81731	  2.65239	  2.21103	  1.25072	  3.80985	 -0.10225	  4.95704	708.21002	 24.00	
  8.500	-90.000	  4.81547	  2.40345	  2.45189	  1.22838	  3.83642	 -0.10275	  4.95638	708.20697	 24.00	
  8.510	-101.220	  4.80701	  2.15524	  2.69375	  1.24689	  3.80256	 -0.09385	  4.94384	708.12598	 24.00	
  8.492	-112.575	  4.81076	  1.93146	  2.93988	  1.31372	  3.72658	 -0.08173	  4.95001	708.07501	 24.00	
  8.487	-123.723	  4.80717	  1.72881	  3.16291	  1.41379	  3.59948	 -0.07746	  4.94466	708.09497	 24.00	
  8.495	-135.039	  4.80766	  1.54985	  3.36806	  1.55085	  3.43490	 -0.07888	  4.94367	708.13599	 24.00	
  8.494	-146.194	  4.80978	  1.41901	  3.53323	  1.72847	  3.23629	 -0.07434	  4.94617	708.19202	 24.00	
  8.502	-157.493	  4.81430	  1.31970	  3.66250	  1.93676	  3.00995	 -0.06847	  4.94680	708.23199	 23.90	
  8.491	-168.704	  4.81286	  1.25882	  3.73783	  2.16053	  2.77133	 -0.06681	  4.94187	708.25702	 24.00	
  8.500	180.000	  4.82037	  1.24012	  3.77099	  2.40539	  2.53023	 -0.06953	  4.94584	708.16400	 23.90	
 10.200	180.000	  4.75275	  0.94539	  3.97605	  2.33597	  2.46103	 -0.10950	  4.96188	708.27698	 23.90	
 10.191	-170.497	  4.72608	  0.95385	  3.93434	  2.08144	  2.69248	 -0.10842	  4.93578	708.29700	 23.90	
 10.210	-161.034	  4.74047	  1.00627	  3.88028	  1.85500	  2.94643	 -0.10760	  4.95305	708.30798	 23.90	
 10.194	-151.526	  4.73138	  1.09349	  3.76132	  1.63481	  3.18254	 -0.10837	  4.94585	708.27802	 23.90	
 10.190	-142.105	  4.73249	  1.20750	  3.61439	  1.44376	  3.40100	 -0.11110	  4.94983	708.33398	 23.90	
 10.215	-132.646	  4.73676	  1.35494	  3.43962	  1.28127	  3.59912	 -0.11185	  4.95839	708.19800	 23.90	
 10.203	-123.092	  4.73704	  1.53299	  3.22853	  1.14445	  3.76334	 -0.11340	  4.95676	708.24103	 23.90	
 10.192	-113.678	  4.73384	  1.73561	  2.99304	  1.04184	  3.88675	 -0.11911	  4.95427	708.19299	 23.90	
 10.208	-104.249	  4.73273	  1.95758	  2.75157	  0.97087	  3.97655	 -0.13152	  4.95370	708.30499	 23.90	
 10.210	-94.801	  4.72589	  2.19419	  2.49812	  0.93343	  4.01785	 -0.14119	  4.95070	708.27502	 23.90	
 10.210	-85.199	  4.73195	  2.45377	  2.24762	  0.93469	  4.02558	 -0.14329	  4.95659	708.15399	 23.90	
 10.208	-75.751	  4.73348	  2.70451	  2.01138	  0.96973	  3.98192	 -0.14536	  4.95793	708.12000	 23.90	
 10.192	-66.322	  4.73376	  2.95000	  1.78902	  1.04384	  3.89150	 -0.13516	  4.95639	708.02600	 23.90	
 10.203	-56.908	  4.72355	  3.18046	  1.58093	  1.14245	  3.75808	 -0.13148	  4.94492	708.11401	 23.90	
 10.215	-47.354	  4.73010	  3.40178	  1.40229	  1.27771	  3.60037	 -0.13109	  4.95069	708.15302	 23.90	
 10.190	-37.895	  4.72088	  3.57589	  1.25335	  1.43931	  3.39556	 -0.12623	  4.93874	708.10602	 23.90	
 10.194	-28.474	  4.73298	  3.73267	  1.13906	  1.63285	  3.18515	 -0.11738	  4.94770	708.07202	 23.90	
 10.210	-18.966	  4.74782	  3.85882	  1.05409	  1.85209	  2.95595	 -0.11112	  4.96161	708.16400	 23.90	
 10.191	 -9.503	  4.74487	  3.92365	  1.00422	  2.08176	  2.70810	 -0.11479	  4.95316	708.14502	 23.90	
 10.200	  0.000	  4.73647	  3.94321	  0.98453	  2.32116	  2.45769	 -0.11737	  4.94245	708.10602	 23.90	
 10.191	  9.503	  4.74212	  3.92662	  1.00259	  2.57725	  2.21418	 -0.11670	  4.94634	708.10797	 23.90	
 10.210	 18.966	  4.75598	  3.87396	  1.05669	  2.83101	  1.99012	 -0.10785	  4.96162	708.16400	 23.90	
 10.194	 28.474	  4.75655	  3.76099	  1.14704	  3.06996	  1.77847	 -0.10324	  4.95884	708.11200	 23.90	
 10.190	 37.895	  4.74565	  3.60457	  1.26195	  3.28453	  1.58390	 -0.10205	  4.94560	708.12201	 23.90	
 10.215	 47.354	  4.75115	  3.43008	  1.41041	  3.48893	  1.42077	 -0.09985	  4.95010	708.21301	 23.80	
 10.203	 56.908	  4.75334	  3.21780	  1.59215	  3.65375	  1.29010	 -0.09378	  4.95060	708.12299	 23.80	
 10.192	 66.322	  4.75499	  2.98451	  1.79774	  3.78360	  1.19077	 -0.09412	  4.95036	708.12201	 23.80	
 10.208	 75.751	  4.76326	  2.74703	  2.02379	  3.88260	  1.12282	 -0.09890	  4.95770	708.23199	 23.80	
 10.210	 85.199	  4.77262	  2.49870	  2.26750	  3.93798	  1.08901	 -0.10752	  4.97033	708.22302	 23.80	
 10.210	 94.801	  4.76328	  2.23679	  2.51746	  3.92963	  1.08670	 -0.11478	  4.95939	708.13000	 23.80	
 10.208	104.249	  4.75414	  1.98812	  2.76477	  3.87876	  1.11706	 -0.11545	  4.94905	708.21301	 23.80	
 10.192	113.678	  4.76112	  1.76751	  3.01059	  3.79416	  1.19110	 -0.11236	  4.95785	708.16803	 23.80	
 10.203	123.092	  4.75653	  1.55812	  3.23992	  3.66439	  1.28760	 -0.10860	  4.95284	708.29401	 23.80	
 10.215	132.646	  4.74092	  1.37126	  3.43907	  3.48906	  1.41426	 -0.10650	  4.93734	708.22302	 23.80	
 10.190	142.105	  4.74812	  1.22287	  3.62414	  3.29413	  1.58070	 -0.10611	  4.94444	708.06897	 23.80	
 10.194	151.526	  4.76547	  1.10963	  3.78360	  3.08323	  1.77815	 -0.09896	  4.96417	708.18500	 23.80	
 10.210	161.034	  4.76029	  1.01958	  3.89298	  2.84347	  1.98773	 -0.09742	  4.96480	708.10303	 23.80	
 10.191	170.497	  4.74860	  0.96682	  3.94807	  2.58945	  2.21465	 -0.10340	  4.95285	708.15900	 23.80	
 11.899	171.783	  4.64531	  0.66717	  4.12628	  2.50066	  2.12265	 -0.14501	  4.94462	708.15399	 23.80	
 11.890	163.610	  4.66385	  0.71601	  4.08298	  2.75969	  1.89999	 -0.13735	  4.96141	708.13702	 23.80	
 11.889	155.445	  4.66184	  0.78928	  3.98538	  3.00240	  1.68253	 -0.13262	  4.95517	708.08899	 23.80	
 11.909	147.299	  4.65292	  0.88624	  3.84972	  3.23201	  1.47576	 -0.13439	  4.94667	708.18201	 23.80	
 11.902	139.148	  4.66462	  1.02230	  3.69358	  3.45463	  1.30131	 -0.13940	  4.95774	708.23199	 23.80	
 11.894	130.867	  4.66098	  1.18010	  3.49747	  3.64411	  1.14769	 -0.14380	  4.95223	708.18201	 23.80	
 11.897	122.732	  4.66141	  1.36248	  3.28531	  3.80842	  1.02151	 -0.14852	  4.95147	708.19501	 23.80	
 11.903	114.597	  4.66918	  1.56759	  3.05773	  3.94762	  0.92034	 -0.15252	  4.96070	708.15900	 23.80	
 11.893	106.346	  4.67159	  1.79805	  2.81031	  4.04421	  0.84966	 -0.15489	  4.96146	708.23798	 23.80	
 11.892	 98.155	  4.66408	  2.03342	  2.55322	  4.09908	  0.80171	 -0.15724	  4.95635	708.14697	 23.80	
 11.900	 90.000	  4.65539	  2.27629	  2.29913	  4.11064	  0.78657	 -0.15324	  4.94746	708.19501	 23.80	
 11.892	 81.845	  4.66582	  2.53267	  2.05772	  4.09982	  0.80031	 -0.14684	  4.95983	708.14203	 23.70	
 11.893	 73.654	  4.65063	  2.77920	  1.81465	  4.02613	  0.84167	 -0.13681	  4.94331	708.27698	 23.70	
 11.903	 65.403	  4.64586	  3.02517	  1.58782	  3.92386	  0.91389	 -0.12957	  4.94060	708.13898	 23.70	
 11.897	 57.268	  4.66136	  3.27064	  1.39343	  3.80179	  1.02131	 -0.13020	  4.95292	708.22302	 23.70	
 11.894	 49.133	  4.65331	  3.47932	  1.21074	  3.63074	  1.14571	 -0.13471	  4.94795	708.12000	 23.70	
 11.902	 40.852	  4.66387	  3.68280	  1.05471	  3.44724	  1.30153	 -0.13670	  4.96174	708.09497	 23.70	
 11.909	 32.701	  4.66330	  3.84503	  0.92461	  3.23155	  1.47751	 -0.14142	  4.96166	708.12299	 23.70	
 11.889	 24.555	  4.65771	  3.97100	  0.82582	  2.99078	  1.68055	 -0.14779	  4.95842	708.17798	 23.70	
 11.890	 16.390	  4.66501	  4.07133	  0.75358	  2.75142	  1.90291	 -0.15209	  4.96648	708.10498	 23.70	
 11.899	  8.217	  4.64884	  4.11645	  0.70610	  2.49285	  2.12647	 -0.15497	  4.95519	708.09100	 23.70	
 11.900	  0.000	  4.65481	  4.14025	  0.69208	  2.24107	  2.37837	 -0.15549	  4.96180	708.15002	 23.70	
 11.899	 -8.217	  4.63942	  4.10506	  0.70505	  1.98924	  2.62054	 -0.14754	  4.94454	708.00098	 23.70	
 11.890	-16.390	  4.63573	  4.04064	  0.74857	  1.75633	  2.86477	 -0.14686	  4.94370	708.15900	 23.70	
 11.889	-24.555	  4.63521	  3.94229	  0.82049	  1.53556	  3.10969	 -0.14760	  4.94687	708.22302	 23.70	
 11.909	-32.701	  4.63730	  3.81317	  0.92063	  1.33587	  3.34387	 -0.15529	  4.95415	708.15100	 23.70	
 11.902	-40.852	  4.63189	  3.64304	  1.04740	  1.15911	  3.54953	 -0.16166	  4.95279	708.12799	 23.70	
 11.894	-49.133	  4.62312	  3.43873	  1.20341	  1.00020	  3.73684	 -0.16328	  4.94218	708.09100	 23.70	
 11.897	-57.268	  4.63250	  3.22980	  1.38190	  0.87110	  3.90661	 -0.16881	  4.95894	708.13000	 23.70	
 11.903	-65.403	  4.62938	  2.99196	  1.58109	  0.76906	  4.03608	 -0.17259	  4.95500	708.01202	 23.70	
 11.893	-73.654	  4.63415	  2.74196	  1.80766	  0.70291	  4.12635	 -0.18082	  4.95641	708.05701	 23.70	
 11.892	-81.845	  4.63400	  2.48988	  2.04196	  0.66031	  4.18271	 -0.18120	  4.95496	708.03497	 23.70	
 11.900	-90.000	  4.62981	  2.23354	  2.28630	  0.64317	  4.19814	 -0.18061	  4.95215	708.06403	 23.70	
 11.892	-98.155	  4.62642	  1.98750	  2.53436	  0.65925	  4.17448	 -0.17865	  4.94904	708.04102	 23.70	
 11.893	-106.346	  4.63822	  1.75505	  2.78998	  0.70156	  4.12815	 -0.16943	  4.95883	708.15002	 23.70	
 11.903	-114.597	  4.64066	  1.53279	  3.03905	  0.77210	  4.03700	 -0.15886	  4.96382	708.06000	 23.70	
 11.897	-122.732	  4.63708	  1.32960	  3.27098	  0.87421	  3.90299	 -0.14960	  4.95766	708.12799	 23.60	
 11.894	-130.867	  4.64161	  1.15934	  3.48525	  1.00686	  3.74435	 -0.14970	  4.95971	707.98798	 23.60	
 11.902	-139.148	  4.64371	  1.00355	  3.68245	  1.16424	  3.55238	 -0.14785	  4.96094	707.98999	 23.60	
 11.909	-147.299	  4.63299	  0.87228	  3.83728	  1.33978	  3.33403	 -0.14852	  4.94740	708.00098	 23.60	
 11.889	-155.445	  4.64979	  0.78178	  3.97661	  1.54783	  3.11474	 -0.14855	  4.96121	708.05200	 23.60	
 11.890	-163.610	  4.63506	  0.70966	  4.05887	  1.76468	  2.85841	 -0.14960	  4.94106	707.89801	 23.60	
 11.899	-171.783	  4.64147	  0.66485	  4.12418	  2.00126	  2.61392	 -0.15271	  4.94803	707.98499	 23.60	
 11.900	180.000	  4.64747	  0.65184	  4.14863	  2.24891	  2.36895	 -0.15152	  4.95031	708.08099	 23.60	
 13.600	180.000	  4.54382	  0.36056	  4.32249	  2.15556	  2.27437	 -0.19294	  4.96110	708.14697	 23.60	
 13.608	-172.853	  4.52546	  0.36902	  4.29113	  1.90359	  2.51212	 -0.19618	  4.94625	708.13898	 23.60	
 13.611	-165.583	  4.53238	  0.40408	  4.24580	  1.66880	  2.76658	 -0.19826	  4.95630	708.04102	 23.60	
 13.601	-158.353	  4.52499	  0.46824	  4.15160	  1.43981	  3.01293	 -0.19244	  4.95083	707.95697	 23.60	
 13.609	-151.210	  4.53234	  0.54903	  4.04501	  1.23585	  3.25198	 -0.19654	  4.96322	707.94000	 23.60	
 13.611	-143.999	  4.51806	  0.65659	  3.88602	  1.04098	  3.47044	 -0.18728	  4.95098	708.12299	 23.60	
 13.601	-136.825	  4.51073	  0.78570	  3.70453	  0.87069	  3.67217	 -0.18341	  4.94679	708.05298	 23.60	
 13.596	-129.640	  4.52355	  0.94664	  3.51581	  0.72804	  3.86817	 -0.18260	  4.96321	708.08899	 23.60	
 13.611	-122.431	  4.52497	  1.12123	  3.29908	  0.60428	  4.02631	 -0.18633	  4.96130	708.21503	 23.60	
 13.604	-115.211	  4.52296	  1.32049	  3.06327	  0.50761	  4.15570	 -0.19055	  4.95890	708.09198	 23.60	
 13.595	-108.042	  4.53056	  1.54112	  2.82222	  0.43567	  4.26263	 -0.20091	  4.96776	708.10797	 23.60	
 13.607	-100.793	  4.51548	  1.76486	  2.56076	  0.38160	  4.31751	 -0.21181	  4.95480	708.08099	 23.60	
 13.601	-93.617	  4.51592	  2.00345	  2.31190	  0.35848	  4.34995	 -0.21445	  4.95365	708.14301	 23.60	
 13.601	-86.383	  4.51451	  2.25655	  2.06056	  0.35889	  4.35123	 -0.21376	  4.95310	708.16803	 23.60	
 13.607	-79.207	  4.51467	  2.50892	  1.82089	  0.38166	  4.32184	 -0.21265	  4.95279	708.16803	 23.60	
 13.595	-71.958	  4.51572	  2.76678	  1.59172	  0.43395	  4.25645	 -0.20304	  4.95679	708.13397	 23.60	
 13.604	-64.789	  4.51257	  3.01422	  1.37385	  0.50580	  4.15669	 -0.19678	  4.95483	707.91199	 23.60	
 13.611	-57.569	  4.51051	  3.25299	  1.17623	  0.60187	  4.02866	 -0.19699	  4.95096	708.05701	 23.60	
 13.596	-50.360	  4.51492	  3.47656	  0.99930	  0.72473	  3.87222	 -0.19505	  4.95384	708.15302	 23.60	
 13.601	-43.175	  4.51818	  3.68220	  0.84285	  0.87219	  3.68807	 -0.19043	  4.95805	708.00897	 23.60	
 13.611	-36.001	  4.51578	  3.85871	  0.70566	  1.03771	  3.47671	 -0.18746	  4.94966	707.88599	 23.60	
 13.609	-28.790	  4.52536	  4.01720	  0.59782	  1.22685	  3.25921	 -0.18487	  4.95890	707.91101	 23.60	
 13.601	-21.647	  4.52020	  4.12850	  0.51341	  1.42989	  3.01856	 -0.17736	  4.94850	707.99799	 23.60	
 13.611	-14.417	  4.51871	  4.21571	  0.44831	  1.65148	  2.76614	 -0.17919	  4.94377	707.92798	 23.60	
 13.608	 -7.147	  4.54142	  4.29083	  0.41280	  1.89827	  2.52823	 -0.17737	  4.96481	708.03003	 23.60	
 13.600	  0.000	  4.52300	  4.29130	  0.40276	  2.13315	  2.27296	 -0.17671	  4.94299	708.03802	 23.60	
 13.608	  7.147	  4.53549	  4.28964	  0.41352	  2.38970	  2.03401	 -0.18214	  4.95608	708.13000	 23.60	
 13.611	 14.417	  4.53852	  4.24252	  0.45095	  2.64459	  1.79926	 -0.18316	  4.95575	707.98199	 23.60	
 13.601	 21.647	  4.54539	  4.16150	  0.51658	  2.89838	  1.57855	 -0.17947	  4.96240	708.03497	 23.60	
 13.609	 28.790	  4.53833	  4.04212	  0.59872	  3.13725	  1.36650	 -0.17640	  4.95457	708.02399	 23.60	
 13.611	 36.001	  4.55015	  3.90501	  0.71053	  3.37374	  1.18193	 -0.17319	  4.96389	708.05701	 23.60	
 13.601	 43.175	  4.53172	  3.71353	  0.84525	  3.56714	  1.01618	 -0.16922	  4.93989	708.13898	 23.60	
 13.596	 50.360	  4.54071	  3.52103	  1.00350	  3.76238	  0.87052	 -0.16480	  4.94884	708.12799	 23.60	
 13.611	 57.569	  4.54799	  3.30742	  1.18427	  3.93636	  0.74697	 -0.16168	  4.95752	708.01202	 23.60	
 13.604	 64.789	  4.53924	  3.06437	  1.38110	  4.06342	  0.64553	 -0.16273	  4.94770	708.06000	 23.60	
 13.595	 71.958	  4.54627	  2.82137	  1.60202	  4.17195	  0.57290	 -0.16890	  4.95180	708.12598	 23.60	
 13.607	 79.207	  4.55854	  2.57319	  1.84002	  4.25355	  0.52521	 -0.18072	  4.96650	707.99799	 23.60	
 13.601	 86.383	  4.54044	  2.30927	  2.07547	  4.27064	  0.49964	 -0.18982	  4.94528	707.93903	 23.70	
 13.601	 93.617	  4.55195	  2.05979	  2.33390	  4.28236	  0.50163	 -0.19721	  4.95711	707.92603	 23.70	
 13.607	100.793	  4.54288	  1.81168	  2.58018	  4.24287	  0.52221	 -0.19997	  4.94722	707.91498	 23.60	
 13.595	108.042	  4.55534	  1.58192	  2.84039	  4.18375	  0.57603	 -0.19771	  4.96093	707.94800	 23.60	
 13.604	115.211	  4.55070	  1.35985	  3.08375	  4.08084	  0.64728	 -0.19464	  4.95319	707.93402	 23.60	
 13.611	122.431	  4.54130	  1.15585	  3.31235	  3.93814	  0.74424	 -0.19194	  4.94629	707.94800	 23.60	
 13.596	129.640	  4.54848	  0.97750	  3.53379	  3.77939	  0.87116	 -0.18426	  4.95256	708.03302	 23.60	
 13.601	136.825	  4.54991	  0.81651	  3.73490	  3.59077	  1.01736	 -0.17968	  4.95325	708.01599	 23.60	
 13.611	143.999	  4.54976	  0.67612	  3.91006	  3.38491	  1.17903	 -0.17726	  4.95474	708.04999	 23.60	
 13.609	151.210	  4.53704	  0.56270	  4.04660	  3.14868	  1.36386	 -0.17527	  4.94463	708.00403	 23.60	
 13.601	158.353	  4.53770	  0.47856	  4.16143	  2.90885	  1.57077	 -0.17354	  4.94691	707.94299	 23.60	
 13.611	165.583	  4.53877	  0.41235	  4.24917	  2.65932	  1.79087	 -0.17912	  4.95012	708.04999	 23.60	
 13.608	172.853	  4.53554	  0.37386	  4.29733	  2.40488	  2.02497	 -0.18655	  4.95263	708.09100	 23.60	
 15.298	173.587	  4.40927	  0.08644	  4.44713	  2.29858	  1.91679	 -0.22340	  4.95634	707.98499	 23.60	
 15.291	167.167	  4.40596	  0.12004	  4.39978	  2.54559	  1.68446	 -0.21756	  4.94749	708.09998	 23.60	
 15.307	160.676	  4.40908	  0.17237	  4.32764	  2.80147	  1.45975	 -0.21342	  4.94787	707.99799	 23.60	
 15.300	154.261	  4.41513	  0.24923	  4.22813	  3.05142	  1.25132	 -0.20968	  4.95189	707.88800	 23.60	
 15.288	147.854	  4.40741	  0.34693	  4.08610	  3.27776	  1.06003	 -0.20830	  4.94009	708.01599	 23.60	
 15.293	141.428	  4.41793	  0.46646	  3.93971	  3.50645	  0.88733	 -0.21041	  4.95292	707.88000	 23.60	
 15.299	134.985	  4.42113	  0.60774	  3.75864	  3.71665	  0.72852	 -0.21656	  4.95592	708.04102	 23.60	
 15.305	128.583	  4.41493	  0.76694	  3.54992	  3.89556	  0.58939	 -0.21834	  4.94953	708.05298	 23.60	
 15.309	122.142	  4.41959	  0.94859	  3.33178	  4.06132	  0.47381	 -0.22198	  4.95639	708.03802	 23.60	
 15.304	115.711	  4.42769	  1.15005	  3.10049	  4.19920	  0.38306	 -0.22560	  4.96190	708.03497	 23.60	
 15.297	109.291	  4.43242	  1.36526	  2.86056	  4.30875	  0.30997	 -0.22770	  4.96913	707.87701	 23.60	
 15.293	102.897	  4.41927	  1.58829	  2.60118	  4.37319	  0.25510	 -0.22729	  4.95471	707.90601	 23.60	
 15.293	 96.458	  4.43414	  1.83327	  2.35546	  4.43320	  0.22366	 -0.22537	  4.97139	707.96698	 23.60	
 15.300	 90.000	  4.42168	  2.07771	  2.09651	  4.43849	  0.20940	 -0.22155	  4.96041	707.94598	 23.60	
 15.293	 83.542	  4.41723	  2.33218	  1.84694	  4.41481	  0.22496	 -0.21667	  4.95238	707.99597	 23.60	
 15.293	 77.103	  4.40988	  2.58374	  1.60534	  4.35991	  0.25385	 -0.20710	  4.94489	707.90601	 23.60	
 15.297	 70.709	  4.40768	  2.83255	  1.38171	  4.28114	  0.30772	 -0.19718	  4.94459	707.89203	 23.60	
 15.304	 64.289	  4.41702	  3.08740	  1.17018	  4.18283	  0.38266	 -0.19302	  4.95462	707.91901	 23.60	
 15.309	 57.858	  4.40360	  3.31475	  0.96945	  4.03906	  0.47241	 -0.19191	  4.94288	707.88397	 23.60	
 15.305	 51.417	  4.41409	  3.54503	  0.79425	  3.88793	  0.58914	 -0.19426	  4.95434	707.84100	 23.60	
 15.299	 45.015	  4.40911	  3.74508	  0.63550	  3.69594	  0.72723	 -0.19531	  4.95202	707.75897	 23.60	
 15.293	 38.572	  4.41217	  3.93110	  0.49992	  3.48834	  0.88735	 -0.19716	  4.95481	707.87701	 23.60	
 15.288	 32.146	  4.41958	  4.09623	  0.38372	  3.27196	  1.06457	 -0.19814	  4.96430	707.81299	 23.60	
 15.300	 25.739	  4.40156	  4.21173	  0.28579	  3.02503	  1.25030	 -0.19288	  4.94867	707.90900	 23.60	
 15.307	 19.324	  4.39761	  4.31279	  0.21140	  2.77749	  1.46126	 -0.19633	  4.94458	707.94299	 23.60	
 15.291	 12.833	  4.40866	  4.39753	  0.16015	  2.52921	  1.69219	 -0.19780	  4.95760	707.83301	 23.60	
 15.298	  6.413	  4.40952	  4.44310	  0.12681	  2.27966	  1.92411	 -0.19738	  4.96115	707.90802	 23.60	
 15.300	  0.000	  4.40582	  4.45365	  0.11599	  2.02716	  2.16752	 -0.19289	  4.95859	707.84100	 23.60	
 15.298	 -6.413	  4.40110	  4.43239	  0.12511	  1.78200	  2.41308	 -0.19052	  4.95494	707.88599	 23.60	
 15.291	-12.833	  4.39609	  4.37739	  0.15941	  1.54869	  2.65673	 -0.19005	  4.95307	707.91699	 23.60	
 15.307	-19.324	  4.39507	  4.30097	  0.21070	  1.31871	  2.91301	 -0.19339	  4.95889	707.90601	 23.60	
 15.300	-25.739	  4.39187	  4.18990	  0.28580	  1.11311	  3.15156	 -0.19450	  4.95631	707.91498	 23.60	
 15.288	-32.146	  4.39141	  4.05332	  0.38249	  0.92421	  3.38147	 -0.19946	  4.95710	707.78198	 23.60	
 15.293	-38.572	  4.38987	  3.89069	  0.49847	  0.74683	  3.60280	 -0.20058	  4.96032	707.82397	 23.60	
 15.299	-45.015	  4.38256	  3.69844	  0.63306	  0.58516	  3.80268	 -0.20369	  4.95639	707.77399	 23.60	
 15.305	-51.417	  4.38101	  3.49110	  0.79068	  0.45403	  3.97932	 -0.20066	  4.95601	707.85498	 23.60	
 15.309	-57.858	  4.38338	  3.26737	  0.96561	  0.33798	  4.13749	 -0.20204	  4.96090	707.84399	 23.60	
 15.304	-64.289	  4.37688	  3.02456	  1.15989	  0.24432	  4.26115	 -0.20302	  4.95158	707.89203	 23.60	
 15.297	-70.709	  4.38000	  2.77814	  1.37154	  0.16977	  4.36741	 -0.20414	  4.95478	707.70398	 23.60	
 15.293	-77.103	  4.37164	  2.51974	  1.58956	  0.11467	  4.43233	 -0.20872	  4.94618	707.83301	 23.60	
 15.293	-83.542	  4.38200	  2.27041	  1.82844	  0.08236	  4.48553	 -0.21281	  4.95574	707.81598	 23.60	
 15.300	-90.000	  4.37351	  2.01176	  2.06955	  0.06936	  4.49281	 -0.21773	  4.94755	707.70599	 23.60	
 15.293	-96.458	  4.38367	  1.77135	  2.32340	  0.08140	  4.48407	 -0.22429	  4.95821	707.77301	 23.60	
 15.293	-102.897	  4.37827	  1.53451	  2.57200	  0.11398	  4.43366	 -0.22425	  4.94906	707.81598	 23.60	
 15.297	-109.291	  4.39947	  1.31737	  2.83348	  0.16807	  4.37718	 -0.22095	  4.97032	707.67297	 23.60	
 15.304	-115.711	  4.38628	  1.10544	  3.06987	  0.24252	  4.26003	 -0.21761	  4.95591	707.87799	 23.60	
 15.309	-122.142	  4.39357	  0.91393	  3.30919	  0.33921	  4.13549	 -0.21247	  4.96455	707.81799	 23.60	
 15.305	-128.583	  4.39654	  0.74002	  3.53276	  0.45798	  3.97920	 -0.21213	  4.96573	707.62500	 23.60	
 15.299	-134.985	  4.38221	  0.58207	  3.72374	  0.59131	  3.78953	 -0.21400	  4.94789	707.78699	 23.60	
 15.293	-141.428	  4.40052	  0.45004	  3.92250	  0.75508	  3.59930	 -0.22119	  4.96764	707.77698	 23.60	
 15.288	-147.854	  4.38518	  0.33567	  4.06810	  0.93121	  3.36480	 -0.22386	  4.94422	707.72900	 23.60	
 15.300	-154.261	  4.39000	  0.24040	  4.20582	  1.12359	  3.14004	 -0.22618	  4.95093	707.81500	 23.60	
 15.307	-160.676	  4.40032	  0.16783	  4.31927	  1.33500	  2.90584	 -0.23135	  4.95774	707.81500	 23.60	
 15.291	-167.167	  4.40617	  0.11793	  4.39799	  1.56665	  2.65480	 -0.23485	  4.95737	707.79102	 23.60	
 15.298	-173.587	  4.41026	  0.08724	  4.44793	  1.80382	  2.40850	 -0.23305	  4.96178	707.73102	 23.60	
 15.300	180.000	  4.40527	  0.07930	  4.45597	  2.04324	  2.16076	 -0.22936	  4.95089	707.70599	 23.60	
 17.000	180.000	  4.25788	 -0.20007	  4.58561	  1.92675	  2.03934	 -0.25335	  4.95260	707.67297	 23.60	
 16.990	-174.179	  4.25636	 -0.19234	  4.57126	  1.68583	  2.28307	 -0.25955	  4.95459	707.64398	 23.60	
 17.009	-168.383	  4.24856	 -0.16813	  4.52524	  1.45007	  2.52532	 -0.25977	  4.94706	707.69501	 23.60	
 17.000	-162.596	  4.25307	 -0.12224	  4.46156	  1.22613	  2.77787	 -0.25771	  4.95904	707.62799	 23.60	
 16.990	-156.759	  4.25826	 -0.06095	  4.37252	  1.01715	  3.02500	 -0.25646	  4.96707	707.68298	 23.60	
 16.995	-150.919	  4.24336	  0.02266	  4.23541	  0.81552	  3.25257	 -0.25168	  4.95301	707.78497	 23.60	
 16.988	-145.161	  4.25427	  0.12211	  4.10028	  0.63344	  3.48848	 -0.25315	  4.96935	707.66400	 23.60	
 17.014	-139.343	  4.24890	  0.23788	  3.92990	  0.46542	  3.70192	 -0.24604	  4.96478	707.71198	 23.60	
 17.007	-133.546	  4.23397	  0.37476	  3.72748	  0.31938	  3.88120	 -0.24248	  4.94699	707.77399	 23.60	
 17.001	-127.699	  4.23383	  0.52833	  3.51969	  0.18979	  4.05865	 -0.23706	  4.95001	707.83600	 23.60	
 17.006	-121.937	  4.23564	  0.69907	  3.29896	  0.07747	  4.21673	 -0.23102	  4.95398	707.84601	 23.60	
 17.002	-116.134	  4.23069	  0.88699	  3.06310	 -0.01622	  4.34483	 -0.23232	  4.94884	707.78998	 23.60	
 17.001	-110.310	  4.23233	  1.08839	  2.82146	 -0.09284	  4.45429	 -0.23106	  4.95209	707.75403	 23.60	
 16.988	-104.517	  4.24388	  1.31023	  2.58113	 -0.14205	  4.54342	 -0.22853	  4.96339	707.76202	 23.60	
 17.008	-98.662	  4.24717	  1.54011	  2.32958	 -0.18208	  4.60341	 -0.22040	  4.97157	707.71997	 23.60	
 16.996	-92.909	  4.23063	  1.77111	  2.07740	 -0.19783	  4.61284	 -0.21033	  4.95093	707.77399	 23.60	
 16.996	-87.091	  4.23840	  2.02106	  1.83508	 -0.19770	  4.62171	 -0.20689	  4.96109	707.86700	 23.60	
 17.012	-81.253	  4.23177	  2.27251	  1.59472	 -0.18148	  4.59436	 -0.20350	  4.95831	707.78198	 23.60	
 16.988	-75.483	  4.22059	  2.51577	  1.36500	 -0.14261	  4.52952	 -0.19776	  4.94221	707.76001	 23.60	
 17.001	-69.690	  4.23340	  2.77604	  1.15139	 -0.09336	  4.47081	 -0.19532	  4.96223	707.64203	 23.60	
 17.002	-63.866	  4.22969	  3.02187	  0.94776	 -0.01719	  4.36054	 -0.19667	  4.95954	707.70599	 23.60	
 17.006	-58.063	  4.22976	  3.26029	  0.75763	  0.07576	  4.22943	 -0.19658	  4.95638	707.75098	 23.60	
 17.001	-52.301	  4.24065	  3.49338	  0.58873	  0.18609	  4.08388	 -0.19753	  4.96732	707.73401	 23.60	
 17.007	-46.454	  4.24063	  3.70621	  0.43070	  0.31617	  3.90482	 -0.19598	  4.96290	707.80103	 23.60	
 17.014	-40.657	  4.22936	  3.88912	  0.28809	  0.45424	  3.70271	 -0.19697	  4.95406	707.84100	 23.60	
 16.988	-34.839	  4.23037	  4.05785	  0.17338	  0.62129	  3.48665	 -0.19674	  4.94674	707.75897	 23.60	
 16.995	-29.081	  4.23815	  4.21388	  0.07298	  0.80150	  3.26503	 -0.19769	  4.95123	707.67999	 23.60	
 16.990	-23.241	  4.24473	  4.34345	 -0.01183	  0.99945	  3.02961	 -0.19825	  4.95506	707.75403	 23.60	
 17.000	-17.404	  4.24704	  4.44396	 -0.07763	  1.20668	  2.78655	 -0.19689	  4.95556	707.74902	 23.60	
 17.009	-11.617	  4.25642	  4.52420	 -0.12473	  1.43196	  2.54264	 -0.19239	  4.96193	707.57001	 23.60	
 16.990	 -5.821	  4.24934	  4.55578	 -0.14953	  1.66203	  2.29140	 -0.18590	  4.94997	707.62097	 23.60	
 17.000	  0.000	  4.25031	  4.57506	 -0.15977	  1.90111	  2.04697	 -0.18643	  4.94884	707.73102	 23.60	
 16.990	  5.821	  4.25226	  4.56351	 -0.14948	  2.15186	  1.80247	 -0.18910	  4.94661	707.87201	 23.60	
 17.009	 11.617	  4.25127	  4.52763	 -0.12621	  2.39944	  1.57235	 -0.19397	  4.94781	707.57098	 23.60	
 17.000	 17.404	  4.25334	  4.46447	 -0.07970	  2.64910	  1.35016	 -0.19271	  4.95126	707.71503	 23.60	
 16.990	 23.241	  4.25009	  4.36631	 -0.01543	  2.89881	  1.13599	 -0.19427	  4.94452	707.53699	 23.60	
 16.995	 29.081	  4.26190	  4.25697	  0.06855	  3.14669	  0.94126	 -0.20058	  4.95364	707.63898	 23.60	
 16.988	 34.839	  4.26497	  4.11471	  0.17078	  3.37596	  0.76371	 -0.20467	  4.95397	707.60999	 23.60	
 17.014	 40.657	  4.25993	  3.94572	  0.28710	  3.59586	  0.59229	 -0.20855	  4.95396	707.59399	 23.60	
 17.007	 46.454	  4.26860	  3.76312	  0.42563	  3.80421	  0.44672	 -0.21315	  4.96160	707.63300	 23.60	
 17.001	 52.301	  4.27222	  3.55346	  0.58650	  3.98974	  0.31668	 -0.21426	  4.96244	707.65503	 23.60	
 17.006	 58.063	  4.26638	  3.32580	  0.75967	  4.14555	  0.20550	 -0.21437	  4.95483	707.60400	 23.60	
 17.002	 63.866	  4.26391	  3.08702	  0.94846	  4.27974	  0.11239	 -0.21436	  4.95307	707.62701	 23.60	
 17.001	 69.690	  4.26203	  2.83968	  1.15450	  4.39114	  0.03577	 -0.22002	  4.95134	707.71399	 23.60	
 16.988	 75.483	  4.26914	  2.59221	  1.37690	  4.48121	 -0.01840	 -0.22563	  4.95906	707.63501	 23.60	
 17.012	 81.253	  4.26706	  2.33737	  1.60222	  4.53860	 -0.05945	 -0.23037	  4.95780	707.58502	 23.60	
 16.996	 87.091	  4.26692	  2.08300	  1.84606	  4.55954	 -0.07139	 -0.23144	  4.95233	707.45599	 23.60	
 16.996	 92.909	  4.25996	  1.82934	  2.09224	  4.55378	 -0.06885	 -0.23148	  4.94217	707.50702	 23.60	
 17.008	 98.662	  4.26356	  1.59141	  2.34245	  4.53169	 -0.05211	 -0.23417	  4.94578	707.60797	 23.60	
 16.988	104.517	  4.27741	  1.36194	  2.60478	  4.48821	 -0.01184	 -0.23615	  4.95985	707.52100	 23.60	
 17.001	110.310	  4.27184	  1.13671	  2.85201	  4.40022	  0.04329	 -0.23795	  4.95407	707.51801	 23.60	
 17.002	116.134	  4.27191	  0.93234	  3.09534	  4.29074	  0.11965	 -0.23905	  4.95264	707.53198	 23.60	
 17.006	121.937	  4.27489	  0.74024	  3.33125	  4.15945	  0.21054	 -0.24106	  4.95802	707.59399	 23.60	
 17.001	127.699	  4.27906	  0.56387	  3.55749	  4.00485	  0.32099	 -0.23992	  4.95847	707.59003	 23.60	
 17.007	133.546	  4.27686	  0.40310	  3.76466	  3.82355	  0.44797	 -0.24282	  4.95740	707.51398	 23.70	
 17.014	139.343	  4.28152	  0.26163	  3.95899	  3.62867	  0.59570	 -0.23915	  4.96295	707.60797	 23.70	
 16.988	145.161	  4.27456	  0.14135	  4.11767	  3.40125	  0.76393	 -0.23798	  4.95354	707.43103	 23.70	
 16.995	150.919	  4.27505	  0.03684	  4.26336	  3.17527	  0.94029	 -0.24014	  4.95880	707.41101	 23.70	
 16.990	156.759	  4.26893	 -0.04677	  4.37819	  2.93296	  1.13665	 -0.24184	  4.95167	707.49799	 23.70	
 17.000	162.596	  4.27811	 -0.11508	  4.48491	  2.68873	  1.35196	 -0.24599	  4.96563	707.53400	 23.70	
 17.009	168.383	  4.27370	 -0.16152	  4.54773	  2.43633	  1.57377	 -0.24836	  4.96405	707.62097	 23.70	
 16.990	174.179	  4.27644	 -0.18797	  4.58936	  2.18874	  1.80593	 -0.25196	  4.96856	707.48602	 23.70	
 18.709	174.675	  4.10738	 -0.46253	  4.69375	  2.05817	  1.67594	 -0.26359	  4.96182	707.52600	 23.70	
 18.703	169.441	  4.11088	 -0.43851	  4.66242	  2.30401	  1.45324	 -0.26881	  4.96181	707.52502	 23.70	
 18.691	164.085	  4.10722	 -0.39078	  4.59349	  2.55446	  1.23034	 -0.26672	  4.95172	707.50702	 23.70	
 18.706	158.818	  4.11061	 -0.33987	  4.51668	  2.80491	  1.01778	 -0.27006	  4.95888	707.47998	 23.70	
 18.695	153.537	  4.11794	 -0.26288	  4.41390	  3.04814	  0.82550	 -0.26350	  4.96314	707.51501	 23.70	
 18.704	148.255	  4.12025	 -0.17139	  4.28382	  3.28344	  0.64224	 -0.25928	  4.96549	707.56500	 23.70	
 18.698	142.952	  4.10971	 -0.06355	  4.11744	  3.50014	  0.46996	 -0.26021	  4.94912	707.64899	 23.70	
 18.699	137.625	  4.11072	  0.06278	  3.94290	  3.71269	  0.31564	 -0.25779	  4.94913	707.61102	 23.70	
 18.705	132.343	  4.11612	  0.19880	  3.75486	  3.90939	  0.17736	 -0.25414	  4.95662	707.65198	 23.70	
 18.713	127.067	  4.12015	  0.35476	  3.55061	  4.09272	  0.05470	 -0.25144	  4.96527	707.71503	 23.70	
 18.700	121.794	  4.12719	  0.52967	  3.33295	  4.25574	 -0.04850	 -0.24853	  4.97327	707.71503	 23.70	
 18.698	116.504	  4.13633	  0.71875	  3.10414	  4.40102	 -0.13935	 -0.24132	  4.98221	707.69501	 23.70	
 18.707	111.165	  4.10275	  0.91627	  2.83677	  4.47845	 -0.20876	 -0.23325	  4.94493	707.74500	 23.70	
 18.690	105.863	  4.12650	  1.13600	  2.60327	  4.58859	 -0.26427	 -0.23006	  4.97271	707.60999	 23.70	
 18.696	100.583	  4.12374	  1.36048	  2.35167	  4.64641	 -0.30632	 -0.22794	  4.97180	707.64398	 23.70	
 18.700	 95.309	  4.12177	  1.59668	  2.10048	  4.67819	 -0.32986	 -0.22224	  4.96764	707.56299	 23.70	
 18.700	 90.000	  4.10970	  1.83662	  1.84798	  4.67795	 -0.33641	 -0.22492	  4.95363	707.60101	 23.70	
 18.700	 84.691	  4.11808	  2.09071	  1.61000	  4.67551	 -0.32950	 -0.22875	  4.96449	707.51099	 23.70	
 18.696	 79.417	  4.10782	  2.33640	  1.37560	  4.62647	 -0.30394	 -0.23194	  4.95620	707.65601	 23.70	
 18.690	 74.137	  4.09185	  2.57625	  1.14709	  4.54627	 -0.26276	 -0.23324	  4.93799	707.66302	 23.70	
 18.707	 68.835	  4.10068	  2.83204	  0.93637	  4.47829	 -0.21476	 -0.23158	  4.96164	707.69501	 23.70	
 18.698	 63.496	  4.10001	  3.07820	  0.73683	  4.36377	 -0.13775	 -0.22919	  4.95891	707.70599	 23.70	
 18.700	 58.206	  4.09643	  3.31193	  0.55151	  4.22260	 -0.04932	 -0.22840	  4.95840	707.64697	 23.70	
 18.713	 52.933	  4.10475	  3.54280	  0.38015	  4.07128	  0.05624	 -0.22568	  4.96709	707.70801	 23.70	
 18.705	 47.657	  4.10827	  3.75793	  0.22815	  3.89089	  0.18427	 -0.22139	  4.97084	707.73901	 23.70	
 18.699	 42.375	  4.09736	  3.94156	  0.08771	  3.68770	  0.31721	 -0.21338	  4.96051	707.78699	 23.70	
 18.698	 37.048	  4.10324	  4.12377	 -0.03083	  3.47918	  0.47596	 -0.20529	  4.96769	707.75897	 23.70	
 18.704	 31.745	  4.09422	  4.27131	 -0.13961	  3.24286	  0.64656	 -0.19789	  4.95813	707.65802	 23.70	
 18.695	 26.463	  4.10121	  4.40904	 -0.22763	  3.01314	  0.83118	 -0.19004	  4.96819	707.72803	 23.70	
 18.706	 21.182	  4.09417	  4.51174	 -0.30031	  2.76946	  1.02305	 -0.18578	  4.96253	707.71399	 23.70	
 18.691	 15.915	  4.10294	  4.60213	 -0.35584	  2.52695	  1.23878	 -0.18380	  4.97111	707.73401	 23.70	
 18.703	 10.559	  4.09090	  4.65119	 -0.39855	  2.26752	  1.45816	 -0.18027	  4.96346	707.75403	 23.70	
 18.709	  5.325	  4.08583	  4.67942	 -0.42178	  2.02157	  1.68086	 -0.17735	  4.95619	707.77600	 23.70	
 18.700	  0.000	  4.08920	  4.69179	 -0.42768	  1.77708	  1.92516	 -0.18381	  4.96130	707.75702	 23.70	
 18.709	 -5.325	  4.09038	  4.68026	 -0.42111	  1.53988	  2.16883	 -0.17785	  4.96742	707.61902	 23.70	
 18.703	-10.559	  4.08192	  4.63233	 -0.39573	  1.31182	  2.40463	 -0.18614	  4.95441	707.52899	 23.70	
 18.691	-15.915	  4.08145	  4.56828	 -0.35552	  1.08645	  2.65768	 -0.18671	  4.96071	707.60999	 23.70	
 18.706	-21.182	  4.07402	  4.47314	 -0.29690	  0.88021	  2.89614	 -0.19088	  4.95288	707.60400	 23.70	
 18.695	-26.463	  4.07676	  4.36444	 -0.22530	  0.68644	  3.13683	 -0.19220	  4.96080	707.65802	 23.70	
 18.704	-31.745	  4.06877	  4.21989	 -0.13634	  0.50203	  3.36483	 -0.18959	  4.95468	707.65503	 23.70	
 18.698	-37.048	  4.06207	  4.05427	 -0.02986	  0.33342	  3.57969	 -0.18995	  4.94997	707.66699	 23.70	
 18.699	-42.375	  4.06699	  3.88119	  0.09044	  0.18209	  3.79171	 -0.19022	  4.96024	707.73102	 23.70	
 18.705	-47.657	  4.06230	  3.68109	  0.22622	  0.04447	  3.98012	 -0.19068	  4.95694	707.73401	 23.70	
 18.713	-52.933	  4.06730	  3.47510	  0.37695	 -0.07976	  4.16063	 -0.18814	  4.96813	707.78998	 23.70	
 18.700	-58.206	  4.06367	  3.24391	  0.54976	 -0.18080	  4.30722	 -0.18597	  4.96204	707.76202	 23.70	
 18.698	-63.496	  4.06430	  3.00754	  0.73005	 -0.26732	  4.43486	 -0.17953	  4.96372	707.71997	 23.70	
 18.707	-68.835	  4.05286	  2.75330	  0.92785	 -0.33949	  4.52867	 -0.18147	  4.94894	707.64899	 23.70	
 18.690	-74.137	  4.06768	  2.51203	  1.14235	 -0.39161	  4.62148	 -0.18249	  4.96018	707.71503	 23.70	
 18.696	-79.417	  4.07315	  2.26407	  1.36493	 -0.43459	  4.68568	 -0.18604	  4.96947	707.69501	 23.70	
 18.700	-84.691	  4.07082	  2.01165	  1.58956	 -0.46180	  4.71924	 -0.18904	  4.96619	707.65198	 23.70	
 18.700	-90.000	  4.05862	  1.75668	  1.82401	 -0.46987	  4.71418	 -0.18990	  4.94998	707.64203	 23.70	
 18.700	-95.309	  4.06118	  1.51842	  2.06891	 -0.46339	  4.70537	 -0.20033	  4.95216	707.68701	 23.70	
 18.696	-100.583	  4.07196	  1.29406	  2.32136	 -0.43965	  4.67863	 -0.21368	  4.95969	707.53101	 23.70	
 18.690	-105.863	  4.06843	  1.07152	  2.56661	 -0.39799	  4.61231	 -0.22481	  4.95780	707.58801	 23.70	
 18.707	-111.165	  4.06609	  0.86097	  2.80918	 -0.34470	  4.52833	 -0.23381	  4.95390	707.66302	 23.70	
 18.698	-116.504	  4.06841	  0.66684	  3.05186	 -0.26997	  4.42212	 -0.24509	  4.95704	707.69501	 23.70	
 18.700	-121.794	  4.05913	  0.48045	  3.27779	 -0.18404	  4.28422	 -0.24878	  4.94666	707.51703	 23.70	
 18.713	-127.067	  4.05910	  0.31203	  3.50105	 -0.07827	  4.13366	 -0.25437	  4.94893	707.52899	 23.80	
 18.705	-132.343	  4.07220	  0.16491	  3.71892	  0.04856	  3.96848	 -0.26135	  4.95944	707.61798	 23.80	
 18.699	-137.625	  4.07466	  0.02959	  3.91439	  0.18962	  3.77742	 -0.26468	  4.96169	707.64203	 23.80	
 18.698	-142.952	  4.08008	 -0.09184	  4.09573	  0.34359	  3.57569	 -0.26983	  4.96458	707.65601	 23.80	
 18.704	-148.255	  4.08295	 -0.19308	  4.25375	  0.51384	  3.35596	 -0.26592	  4.96786	707.70300	 23.80	
 18.695	-153.537	  4.09531	 -0.28028	  4.39790	  0.70073	  3.13078	 -0.26740	  4.97702	707.57001	 23.80	
 18.706	-158.818	  4.08332	 -0.34852	  4.49412	  0.90113	  2.88485	 -0.26776	  4.95949	707.63501	 23.80	
 18.691	-164.085	  4.08493	 -0.40030	  4.57869	  1.10905	  2.64453	 -0.26751	  4.95540	707.56299	 23.80	
 18.703	-169.441	  4.09292	 -0.44472	  4.65079	  1.33718	  2.39757	 -0.26975	  4.96224	707.59698	 23.80	
 18.709	-174.675	  4.08871	 -0.46555	  4.68066	  1.56237	  2.15346	 -0.26774	  4.95518	707.44702	 23.80	
 18.700	180.000	  4.10169	 -0.47267	  4.70510	  1.80927	  1.91737	 -0.26842	  4.96490	707.45898	 23.80	
 20.400	180.000	  3.91414	 -0.75967	  4.78810	  1.66238	  1.76728	 -0.26082	  4.95450	707.57300	 23.80	
 20.401	-175.153	  3.91711	 -0.75871	  4.78607	  1.42680	  2.00493	 -0.25911	  4.96605	707.62097	 23.80	
 20.407	-170.264	  3.91108	 -0.73810	  4.74751	  1.19458	  2.24551	 -0.25827	  4.96347	707.64203	 23.80	
 20.410	-165.423	  3.90273	 -0.70454	  4.68360	  0.97099	  2.48581	 -0.25808	  4.95760	707.55902	 23.80	
 20.392	-160.496	  3.90937	 -0.65563	  4.61215	  0.76275	  2.73474	 -0.25787	  4.96766	707.49500	 23.80	
 20.401	-155.705	  3.90178	 -0.59228	  4.50654	  0.56425	  2.96581	 -0.25665	  4.96086	707.61102	 23.80	
 20.405	-150.835	  3.88795	 -0.51745	  4.36945	  0.36980	  3.19363	 -0.26238	  4.95059	707.67499	 23.80	
 20.397	-145.903	  3.90173	 -0.42711	  4.24051	  0.19706	  3.43361	 -0.26663	  4.96766	707.69202	 23.80	
 20.392	-141.062	  3.88681	 -0.32109	  4.06099	  0.03903	  3.63256	 -0.26682	  4.94989	707.48297	 23.80	
 20.396	-136.227	  3.88563	 -0.20248	  3.88143	 -0.10861	  3.83624	 -0.26739	  4.95370	707.51501	 23.80	
 20.408	-131.372	  3.88255	 -0.07340	  3.68298	 -0.24623	  4.02669	 -0.25994	  4.95551	707.45898	 23.80	
 20.410	-126.511	  3.88296	  0.07668	  3.47271	 -0.36263	  4.19555	 -0.25723	  4.95467	707.39099	 23.80	
 20.400	-121.604	  3.89348	  0.24202	  3.25708	 -0.46328	  4.35721	 -0.24961	  4.96965	707.45898	 23.80	
 20.403	-116.741	  3.89293	  0.42112	  3.02258	 -0.55189	  4.49012	 -0.23746	  4.96799	707.50702	 23.80	
 20.413	-111.900	  3.88402	  0.60852	  2.77779	 -0.62592	  4.59129	 -0.22759	  4.96164	707.52301	 23.80	
 20.398	-107.004	  3.87982	  0.81217	  2.52933	 -0.68240	  4.67326	 -0.20816	  4.95430	707.40002	 23.80	
 20.394	-102.132	  3.87250	  1.02636	  2.27817	 -0.72372	  4.73045	 -0.19630	  4.94569	707.53699	 23.80	
 20.403	-97.332	  3.87661	  1.24740	  2.04026	 -0.75591	  4.78126	 -0.18810	  4.95408	707.50598	 23.80	
 20.392	-92.440	  3.87802	  1.48066	  1.79725	 -0.76800	  4.80592	 -0.17496	  4.95628	707.55603	 23.80	
 20.392	-87.560	  3.87957	  1.72593	  1.55767	 -0.76833	  4.81004	 -0.17213	  4.96077	707.61603	 23.80	
 20.403	-82.668	  3.87819	  1.97283	  1.32282	 -0.75643	  4.79317	 -0.17119	  4.96249	707.52301	 23.80	
 20.394	-77.868	  3.87476	  2.21628	  1.10506	 -0.72401	  4.74921	 -0.17003	  4.96043	707.58502	 23.80	
 20.398	-72.996	  3.87574	  2.47068	  0.88783	 -0.68160	  4.68859	 -0.17084	  4.96211	707.46899	 23.80	
 20.413	-68.100	  3.88118	  2.72411	  0.68188	 -0.62456	  4.60883	 -0.16656	  4.96915	707.60101	 23.80	
 20.403	-63.259	  3.87158	  2.95922	  0.49217	 -0.55097	  4.48897	 -0.16829	  4.95462	707.45203	 23.80	
 20.400	-58.396	  3.87638	  3.20257	  0.31667	 -0.46090	  4.36441	 -0.17409	  4.95907	707.56299	 23.80	
 20.410	-53.489	  3.87673	  3.43253	  0.14580	 -0.36601	  4.21563	 -0.17511	  4.96128	707.43799	 23.80	
 20.408	-48.628	  3.88363	  3.65339	 -0.00460	 -0.25117	  4.05512	 -0.17541	  4.96965	707.50702	 23.80	
 20.396	-43.773	  3.88035	  3.84871	 -0.13675	 -0.11947	  3.86210	 -0.17860	  4.96058	707.63202	 23.80	
 20.392	-38.938	  3.88613	  4.03710	 -0.25472	  0.02787	  3.66167	 -0.17957	  4.96292	707.63501	 23.80	
 20.397	-34.097	  3.88024	  4.19776	 -0.36485	  0.18136	  3.44216	 -0.18039	  4.95181	707.54901	 23.80	
 20.405	-29.165	  3.88531	  4.35157	 -0.45652	  0.35555	  3.21821	 -0.18664	  4.95407	707.61298	 23.80	
 20.401	-24.295	  3.89161	  4.48149	 -0.53765	  0.54238	  2.98373	 -0.18594	  4.95621	707.59302	 23.80	
 20.392	-19.504	  3.90083	  4.59279	 -0.59884	  0.73918	  2.75279	 -0.18015	  4.96478	707.55402	 23.80	
 20.410	-14.577	  3.89163	  4.66571	 -0.64986	  0.94463	  2.50164	 -0.17732	  4.95131	707.52301	 23.80	
 20.407	 -9.736	  3.90122	  4.73320	 -0.68580	  1.16368	  2.25902	 -0.17529	  4.96072	707.45502	 23.80	
 20.401	 -4.847	  3.90550	  4.77322	 -0.70813	  1.39309	  2.01582	 -0.17086	  4.96204	707.63898	 23.80	
 20.400	  0.000	  3.90512	  4.78380	 -0.71339	  1.62439	  1.78081	 -0.16892	  4.96033	707.60999	 23.80	
 20.401	  4.847	  3.90178	  4.77178	 -0.70602	  1.86722	  1.54298	 -0.16772	  4.95374	707.62097	 23.80	
 20.407	  9.736	  3.90773	  4.75247	 -0.68720	  2.11387	  1.31580	 -0.16603	  4.96058	707.49799	 23.80	
 20.410	 14.577	  3.90946	  4.69990	 -0.65023	  2.36182	  1.09908	 -0.17278	  4.96207	707.58002	 23.80	
 20.392	 19.504	  3.91144	  4.62395	 -0.59760	  2.61484	  0.88630	 -0.17204	  4.96360	707.58197	 23.80	
 20.401	 24.295	  3.90935	  4.52481	 -0.53465	  2.85302	  0.69132	 -0.17640	  4.95668	707.60199	 23.80	
 20.405	 29.165	  3.91027	  4.40613	 -0.45819	  3.09174	  0.50414	 -0.18495	  4.95734	707.45502	 23.80	
 20.397	 34.097	  3.91282	  4.26290	 -0.36215	  3.32901	  0.32906	 -0.18926	  4.95917	707.42499	 23.80	
 20.392	 38.938	  3.92156	  4.10831	 -0.25503	  3.55452	  0.17256	 -0.19951	  4.96907	707.48999	 23.80	
 20.396	 43.773	  3.92457	  3.92864	 -0.13093	  3.76281	  0.02947	 -0.21324	  4.96613	707.50000	 23.80	
 20.408	 48.628	  3.92335	  3.73131	  0.00369	  3.95977	 -0.10457	 -0.22423	  4.96869	707.50000	 23.80	
 20.410	 53.489	  3.91241	  3.50890	  0.15400	  4.12905	 -0.22243	 -0.22622	  4.95618	707.44897	 23.80	
 20.400	 58.396	  3.92029	  3.28734	  0.32496	  4.29483	 -0.32387	 -0.22880	  4.96487	707.59601	 23.80	
 20.403	 63.259	  3.91230	  3.04347	  0.50492	  4.42091	 -0.40709	 -0.23567	  4.95122	707.57098	 23.80	
 20.413	 68.100	  3.92288	  2.81218	  0.69892	  4.54511	 -0.47595	 -0.23562	  4.96189	707.56500	 23.80	
 20.398	 72.996	  3.92636	  2.56567	  0.91061	  4.64019	 -0.53163	 -0.23569	  4.96701	707.45898	 23.80	
 20.394	 77.868	  3.92837	  2.31377	  1.12738	  4.71148	 -0.57659	 -0.22986	  4.96793	707.55701	 23.80	
 20.403	 82.668	  3.92220	  2.06481	  1.34693	  4.74868	 -0.60144	 -0.22200	  4.96017	707.55103	 23.80	
 20.392	 87.560	  3.91987	  1.81678	  1.58293	  4.76690	 -0.61320	 -0.21232	  4.95431	707.53802	 23.80	
 20.392	 92.440	  3.94386	  1.57944	  1.83817	  4.79344	 -0.61186	 -0.20630	  4.98287	707.56598	 23.80	
 20.403	 97.332	  3.91653	  1.33030	  2.07339	  4.74094	 -0.59743	 -0.20171	  4.94843	707.67200	 23.80	
 20.394	102.132	  3.92945	  1.10898	  2.32431	  4.71028	 -0.56894	 -0.20842	  4.96267	707.45502	 23.80	
 20.398	107.004	  3.92890	  0.89013	  2.57546	  4.64290	 -0.52548	 -0.21750	  4.95767	707.61603	 23.80	
 20.413	111.900	  3.92945	  0.68065	  2.82053	  4.55603	 -0.47176	 -0.22626	  4.95746	707.51099	 23.80	
 20.403	116.741	  3.93242	  0.48498	  3.05845	  4.44688	 -0.40430	 -0.23160	  4.96280	707.55902	 23.80	
 20.400	121.604	  3.93085	  0.29998	  3.29391	  4.31333	 -0.32002	 -0.23774	  4.96025	707.55103	 23.80	
 20.410	126.511	  3.92034	  0.12966	  3.50994	  4.14738	 -0.22028	 -0.24500	  4.94986	707.50598	 23.80	
 20.408	131.372	  3.93227	 -0.02122	  3.73137	  3.98354	 -0.10235	 -0.25506	  4.96148	707.59601	 23.80	
 20.396	136.227	  3.93026	 -0.15980	  3.92417	  3.78636	  0.02991	 -0.25856	  4.95517	707.50897	 23.80	
 20.392	141.062	  3.93846	 -0.28341	  4.11163	  3.59112	  0.17180	 -0.26343	  4.96678	707.61902	 23.80	
 20.397	145.903	  3.92905	 -0.39578	  4.26600	  3.36966	  0.32444	 -0.26616	  4.95724	707.48999	 23.80	
 20.405	150.835	  3.93308	 -0.49450	  4.41450	  3.13706	  0.49935	 -0.26836	  4.96385	707.49200	 23.80	
 20.401	155.705	  3.92024	 -0.57322	  4.52114	  2.88890	  0.68509	 -0.27182	  4.94967	707.50702	 23.80	
 20.392	160.496	  3.92924	 -0.63815	  4.62652	  2.65803	  0.87650	 -0.27548	  4.96010	707.62097	 23.80	
 20.410	165.423	  3.92494	 -0.69318	  4.70479	  2.40427	  1.09036	 -0.27361	  4.96067	707.56201	 23.80	
 20.407	170.264	  3.92813	 -0.73453	  4.76393	  2.15850	  1.30660	 -0.27014	  4.96705	707.49200	 23.80	
 20.401	175.153	  3.90651	 -0.74905	  4.76780	  1.90419	  1.52702	 -0.26353	  4.94393	707.51099	 23.80	
  0.141	 45.000	  4.96970	  2.63399	  2.64364	  2.62252	  2.71491	  0.03099	  4.96340	707.52899	 23.80	
  4.001	128.691	  4.94855	  2.22085	  2.96309	  3.00654	  2.25416	  0.00973	  4.95522	707.51398	 23.80	
  4.002	 76.995	  4.94262	  2.69225	  2.47284	  3.11192	  2.15594	  0.00855	  4.94896	707.51703	 23.80	
  4.002	 25.892	  4.94893	  3.09678	  2.11152	  2.79896	  2.43055	  0.00601	  4.95974	707.44501	 23.80	
  4.002	-25.892	  4.95418	  3.09713	  2.10847	  2.30820	  2.92542	  0.00016	  4.96747	707.54602	 23.80	
  4.002	-76.995	  4.93595	  2.68014	  2.46243	  2.01425	  3.23508	 -0.00393	  4.95081	707.40503	 23.80	
  4.001	-128.691	  4.94396	  2.20702	  2.96115	  2.11999	  3.12329	  0.00245	  4.95861	707.56201	 23.80	
  4.000	180.000	  4.95519	  2.02179	  3.19823	  2.55749	  2.67620	  0.01091	  4.96592	707.64899	 23.80	
  8.000	180.000	  4.84071	  1.32886	  3.71434	  2.42725	  2.55292	 -0.05884	  4.95521	707.60498	 23.80	
  7.991	-152.370	  4.84161	  1.44402	  3.56948	  1.89878	  3.10732	 -0.05918	  4.96215	707.63501	 23.80	
  7.997	-124.550	  4.83540	  1.77806	  3.16332	  1.50303	  3.55329	 -0.06583	  4.96000	707.66302	 23.80	
  8.006	-96.837	  4.83766	  2.28684	  2.61912	  1.32614	  3.77178	 -0.08251	  4.96498	707.58197	 23.80	
  7.988	-69.228	  4.83477	  2.85644	  2.06639	  1.38857	  3.69550	 -0.08138	  4.96265	707.47198	 23.80	
  7.997	-41.563	  4.83787	  3.35697	  1.63276	  1.67231	  3.36027	 -0.07959	  4.96013	707.57703	 23.80	
  8.008	-13.821	  4.85639	  3.66234	  1.40319	  2.15371	  2.84431	 -0.06687	  4.97222	707.57898	 23.80	
  8.008	 13.821	  4.83738	  3.65059	  1.39961	  2.70615	  2.27538	 -0.06245	  4.94849	707.50598	 23.80	
  7.997	 41.563	  4.84701	  3.37238	  1.63916	  3.23271	  1.81337	 -0.05416	  4.95334	707.51501	 23.80	
  7.988	 69.228	  4.85709	  2.88336	  2.07626	  3.58799	  1.53215	 -0.04817	  4.96193	707.48700	 23.80	
  8.006	 96.837	  4.85237	  2.31317	  2.62548	  3.66375	  1.47135	 -0.05944	  4.95797	707.55603	 23.80	
  7.997	124.550	  4.86227	  1.80773	  3.17804	  3.45556	  1.64802	 -0.05957	  4.96577	707.37402	 23.80	
  7.991	152.370	  4.86736	  1.46138	  3.58669	  3.00233	  2.03959	 -0.05022	  4.97820	707.57703	 23.80	
 12.009	161.059	  4.64593	  0.71791	  4.06285	  2.83326	  1.81878	 -0.13968	  4.95758	707.69098	 23.80	
 12.013	142.081	  4.65546	  0.95403	  3.76989	  3.38773	  1.34929	 -0.14449	  4.96327	707.52899	 23.80	
 12.006	123.113	  4.64787	  1.33938	  3.30001	  3.80893	  1.01046	 -0.15404	  4.95399	707.56201	 23.80	
 12.007	104.200	  4.65698	  1.84756	  2.74384	  4.07425	  0.81581	 -0.16150	  4.96286	707.50299	 23.80	
 11.989	 85.301	  4.66588	  2.42990	  2.16176	  4.13018	  0.78069	 -0.15410	  4.97434	707.53101	 23.80	
 12.013	 66.294	  4.64449	  3.00541	  1.60848	  3.95335	  0.89332	 -0.13131	  4.95317	707.50299	 23.80	
 12.012	 47.388	  4.65293	  3.53412	  1.16740	  3.60498	  1.16662	 -0.13912	  4.96035	707.38202	 23.90	
 11.990	 28.440	  4.63609	  3.90974	  0.85521	  3.10120	  1.56835	 -0.14896	  4.94807	707.43103	 23.90	
 11.991	  9.464	  4.64692	  4.12416	  0.69872	  2.53332	  2.08653	 -0.15455	  4.96088	707.52301	 23.90	
 11.991	 -9.464	  4.63387	  4.11002	  0.69737	  1.94898	  2.65765	 -0.15301	  4.95534	707.57703	 23.90	
 11.990	-28.440	  4.62406	  3.88948	  0.85343	  1.42760	  3.22523	 -0.15633	  4.95082	707.39899	 23.90	
 12.012	-47.388	  4.61965	  3.49467	  1.15743	  1.01864	  3.71070	 -0.16930	  4.95463	707.45502	 23.90	
 12.013	-66.294	  4.61244	  2.96063	  1.59514	  0.74620	  4.05110	 -0.17483	  4.95095	707.47498	 23.90	
 11.989	-85.301	  4.62770	  2.38066	  2.14203	  0.63728	  4.20809	 -0.18575	  4.96193	707.46399	 23.90	
 12.007	-104.200	  4.62595	  1.80602	  2.72400	  0.67270	  4.15383	 -0.17423	  4.95977	707.30603	 23.90	
 12.006	-123.113	  4.62315	  1.30843	  3.28246	  0.86421	  3.90088	 -0.15334	  4.95787	707.39899	 23.90	
 12.013	-142.081	  4.62107	  0.93503	  3.74210	  1.21114	  3.47327	 -0.15211	  4.94941	707.48602	 23.90	
 12.009	-161.059	  4.63450	  0.70783	  4.05736	  1.68611	  2.94357	 -0.15558	  4.95928	707.39301	 23.90	
 16.000	180.000	  4.34793	 -0.03903	  4.51926	  1.99927	  2.11548	 -0.24216	  4.96177	707.47601	 23.90	
 15.990	-165.604	  4.34692	  0.01143	  4.44134	  1.44368	  2.69345	 -0.24924	  4.96724	707.37402	 23.90	
 16.002	-151.165	  4.33374	  0.17627	  4.19456	  0.94859	  3.25518	 -0.24111	  4.96091	707.47198	 23.90	
 16.002	-136.836	  4.33175	  0.43776	  3.81739	  0.53870	  3.76312	 -0.23036	  4.96777	707.37598	 23.90	
 15.995	-122.439	  4.32540	  0.81242	  3.32260	  0.24052	  4.16037	 -0.22191	  4.96020	707.44501	 23.90	
 15.993	-107.966	  4.32887	  1.28724	  2.76151	  0.04468	  4.43792	 -0.22747	  4.96792	707.55402	 23.90	
 16.005	-93.629	  4.31489	  1.81888	  2.17044	 -0.04159	  4.54598	 -0.22465	  4.95819	707.53400	 23.90	
 15.992	-79.234	  4.30873	  2.39970	  1.60583	 -0.01221	  4.50468	 -0.21149	  4.95048	707.63599	 23.90	
 16.009	-64.774	  4.31817	  2.99687	  1.09727	  0.12235	  4.32738	 -0.20052	  4.96365	707.52502	 23.90	
 15.997	-50.364	  4.31663	  3.53592	  0.67319	  0.37155	  3.98364	 -0.20327	  4.95955	707.56299	 23.90	
 15.997	-36.045	  4.31782	  3.98182	  0.34574	  0.71953	  3.52322	 -0.20163	  4.95435	707.56299	 23.90	
 16.000	-21.597	  4.33640	  4.31531	  0.12723	  1.16728	  2.99143	 -0.19955	  4.96700	707.41400	 23.90	
 16.003	 -7.169	  4.33483	  4.47600	  0.01632	  1.69417	  2.40299	 -0.19125	  4.95611	707.49500	 23.90	
 16.003	  7.169	  4.34138	  4.48851	  0.01574	  2.27067	  1.83762	 -0.19408	  4.95907	707.44897	 23.90	
 16.000	 21.597	  4.32660	  4.31809	  0.12543	  2.84727	  1.30551	 -0.20087	  4.93967	707.45599	 23.90	
 15.997	 36.045	  4.34041	  4.02518	  0.34417	  3.40632	  0.86057	 -0.20264	  4.95019	707.42401	 23.90	
 15.997	 50.364	  4.36004	  3.60374	  0.67281	  3.89692	  0.50794	 -0.20633	  4.97147	707.46198	 23.80	
 16.009	 64.774	  4.34436	  3.05512	  1.10055	  4.23319	  0.25887	 -0.20699	  4.95252	707.37299	 23.80	
 15.992	 79.234	  4.36143	  2.47484	  1.62282	  4.45520	  0.12046	 -0.22533	  4.97007	707.44702	 23.80	
 16.005	 93.629	  4.35187	  1.87775	  2.19183	  4.48544	  0.09505	 -0.23250	  4.95873	707.39899	 23.80	
 15.993	107.966	  4.36964	  1.33629	  2.78994	  4.38181	  0.18178	 -0.23613	  4.97414	707.36798	 23.90	
 15.995	122.439	  4.35173	  0.85127	  3.34275	  4.08534	  0.37398	 -0.23224	  4.95142	707.41302	 23.90	
 16.002	136.836	  4.35881	  0.46190	  3.84049	  3.68337	  0.67011	 -0.22862	  4.96088	707.42102	 23.90	
 16.002	151.165	  4.35221	  0.18391	  4.20888	  3.16692	  1.07125	 -0.22589	  4.95420	707.36200	 23.90	
 15.990	165.604	  4.35224	  0.01734	  4.44429	  2.58883	  1.56571	 -0.23410	  4.95927	707.43298	 23.90	
 20.003	168.362	  3.96854	 -0.64618	  4.71856	  2.28004	  1.26979	 -0.27510	  4.96236	707.49402	 23.90	
 20.008	156.764	  3.97154	 -0.52366	  4.53870	  2.85755	  0.77888	 -0.27320	  4.96052	707.46997	 23.90	
 20.000	145.147	  3.97208	 -0.31648	  4.23088	  3.40537	  0.35618	 -0.26675	  4.95670	707.36902	 23.90	
 19.995	133.545	  3.98203	 -0.02051	  3.82179	  3.89606	  0.02028	 -0.25792	  4.96303	707.43597	 23.90	
 20.009	121.926	  3.96586	  0.34266	  3.30867	  4.28231	 -0.25106	 -0.24241	  4.95088	707.41901	 23.90	
 20.005	110.327	  3.97199	  0.79645	  2.75836	  4.56497	 -0.42445	 -0.22755	  4.95884	707.27802	 23.90	
 19.989	 98.733	  3.96576	  1.30815	  2.17528	  4.71174	 -0.52012	 -0.20953	  4.95066	707.37701	 23.90	
 19.999	 87.075	  3.96609	  1.87330	  1.60209	  4.74387	 -0.54199	 -0.21894	  4.95769	707.37598	 23.80	
 19.992	 75.457	  3.97034	  2.45870	  1.07039	  4.65069	 -0.48125	 -0.23456	  4.96031	707.42798	 23.80	
 20.009	 63.844	  3.97184	  3.03809	  0.58637	  4.43469	 -0.34762	 -0.23695	  4.96869	707.41400	 23.80	
 19.989	 52.269	  3.97327	  3.57449	  0.18104	  4.08582	 -0.12253	 -0.22812	  4.96910	707.38800	 23.80	
 19.999	 40.602	  3.96395	  4.03707	 -0.14838	  3.62513	  0.18295	 -0.21038	  4.96163	707.45300	 23.80	
 20.004	 29.051	  3.95711	  4.39617	 -0.39161	  3.09808	  0.56471	 -0.18569	  4.95963	707.49500	 23.80	
 20.005	 17.433	  3.95070	  4.63506	 -0.55474	  2.52757	  1.01835	 -0.17660	  4.95571	707.55603	 23.90	
 20.006	  5.780	  3.96068	  4.76474	 -0.63620	  1.95528	  1.54259	 -0.16992	  4.97154	707.44702	 23.90	
 20.006	 -5.780	  3.95943	  4.75744	 -0.63451	  1.39551	  2.10137	 -0.17180	  4.97466	707.40399	 23.90	
 20.005	-17.433	  3.93744	  4.60445	 -0.55336	  0.87090	  2.66566	 -0.18331	  4.95435	707.41101	 23.90	
 20.004	-29.051	  3.93974	  4.35309	 -0.39461	  0.41786	  3.22883	 -0.19034	  4.96713	707.41400	 23.90	
 19.999	-40.602	  3.92135	  3.96203	 -0.15257	  0.03961	  3.72411	 -0.18426	  4.95286	707.40002	 23.90	
 19.989	-52.269	  3.92066	  3.48744	  0.17029	 -0.26939	  4.16381	 -0.17909	  4.95721	707.50702	 23.90	
 20.009	-63.844	  3.93599	  2.95948	  0.57177	 -0.48960	  4.50906	 -0.17063	  4.97776	707.39301	 23.90	
 19.992	-75.457	  3.93005	  2.37564	  1.04777	 -0.62909	  4.70857	 -0.16808	  4.96678	707.39099	 23.90	
 19.999	-87.075	  3.93776	  1.79463	  1.57782	 -0.69235	  4.79995	 -0.17738	  4.97204	707.36603	 23.90	
 19.989	-98.733	  3.92988	  1.23083	  2.14313	 -0.67429	  4.75754	 -0.20110	  4.95759	707.36499	 23.90	
 20.005	-110.327	  3.93730	  0.73120	  2.72263	 -0.57441	  4.61419	 -0.22362	  4.96881	707.35199	 23.90	
 20.009	-121.926	  3.93797	  0.29425	  3.27780	 -0.38904	  4.33840	 -0.24840	  4.96652	707.30701	 23.90	
 19.995	-133.545	  3.92734	 -0.06432	  3.76976	 -0.12054	  3.93829	 -0.26622	  4.95057	707.44397	 23.90	
 20.000	-145.147	  3.94675	 -0.34467	  4.20480	  0.22841	  3.47469	 -0.27028	  4.96756	707.45898	 23.90	
 20.008	-156.764	  3.94418	 -0.53908	  4.51202	  0.65750	  2.92942	 -0.26089	  4.95990	707.42798	 23.90	
 20.003	-168.362	  3.95496	 -0.65339	  4.70555	  1.15331	  2.36794	 -0.26410	  4.96159	707.44098	 23.90	
 20.000	180.000	  3.95400	 -0.68564	  4.76356	  1.69653	  1.80055	 -0.26131	  4.95171	707.43298	 23.90	
