FileType=PCF
NHL=14
Date=08/28/17	16:07:09
Facility=APL
Serial=16328-12
Customer=NASA
NP=6
Mach=0.050000
Calibration=1:1
CalPts=490
TstPts=95
PortNumbering=AP Standard
Units=Torr C m/s kg/m^3 deg mm 
Theta[deg]	Phi[deg]	P1[Torr]	P2[Torr]	P3[Torr]	P4[Torr]	P5[Torr]	P6[Torr]	Pt[Torr]	Ps[Abs,Torr]	Ts[C]	
  0.000	  0.000	  1.27853	  0.68552	  0.69668	  0.69119	  0.70528	  0.00784	  1.27087	707.68103	 24.50	
  1.691	128.401	  1.27575	  0.65093	  0.72147	  0.71729	  0.66846	  0.00774	  1.26810	707.73102	 24.50	
  1.692	 77.194	  1.27297	  0.69074	  0.67772	  0.72586	  0.65876	  0.00748	  1.26527	707.68298	 24.50	
  1.699	 26.182	  1.27726	  0.73095	  0.64412	  0.69913	  0.68335	  0.00720	  1.26955	707.63599	 24.50	
  1.699	-26.182	  1.27033	  0.72748	  0.63710	  0.64837	  0.72696	  0.00578	  1.26368	707.68701	 24.50	
  1.692	-77.194	  1.27199	  0.68801	  0.67246	  0.62089	  0.75946	  0.00518	  1.26473	707.64203	 24.50	
  1.691	-128.401	  1.27623	  0.64477	  0.72182	  0.63191	  0.75026	  0.00516	  1.27020	707.74902	 24.50	
  1.700	180.000	  1.27467	  0.62744	  0.74363	  0.67494	  0.70441	  0.00645	  1.26721	707.78400	 24.50	
  3.400	180.000	  1.27216	  0.55871	  0.80491	  0.66605	  0.69945	  0.00403	  1.26662	707.75299	 24.50	
  3.388	-152.325	  1.27086	  0.56981	  0.78933	  0.61156	  0.75526	  0.00248	  1.26713	707.70801	 24.50	
  3.397	-124.529	  1.28123	  0.60874	  0.75432	  0.57562	  0.80667	  0.00066	  1.27650	707.65601	 24.50	
  3.399	-96.763	  1.27694	  0.65886	  0.69659	  0.55542	  0.82582	  0.00032	  1.27299	707.77600	 24.50	
  3.394	-69.283	  1.28342	  0.72011	  0.64347	  0.56464	  0.82214	  0.00039	  1.27844	707.84100	 24.50	
  3.400	-41.398	  1.28238	  0.77026	  0.59797	  0.59442	  0.78672	  0.00029	  1.27776	707.80103	 24.50	
  3.401	-14.021	  1.28041	  0.79881	  0.57391	  0.64045	  0.73435	  0.00092	  1.27469	707.68298	 24.50	
  3.401	 14.021	  1.27718	  0.79731	  0.57310	  0.69741	  0.67395	  0.00337	  1.27052	707.68298	 24.50	
  3.400	 41.398	  1.27936	  0.77033	  0.59897	  0.75070	  0.62749	  0.00524	  1.27330	707.77698	 24.50	
  3.394	 69.283	  1.27639	  0.71838	  0.64264	  0.78325	  0.59778	  0.00546	  1.27046	707.77600	 24.50	
  3.399	 96.763	  1.27209	  0.65943	  0.69584	  0.78880	  0.59065	  0.00538	  1.26617	707.69702	 24.50	
  3.397	124.529	  1.27608	  0.61100	  0.75123	  0.76961	  0.60895	  0.00474	  1.27030	707.64099	 24.50	
  3.388	152.325	  1.27877	  0.57749	  0.79341	  0.72688	  0.64871	  0.00529	  1.27322	707.83197	 24.50	
  5.099	161.165	  1.27182	  0.50132	  0.85757	  0.72171	  0.63521	 -0.00085	  1.27166	707.71997	 24.50	
  5.109	142.013	  1.26986	  0.52808	  0.82454	  0.77616	  0.58422	 -0.00017	  1.26963	707.77002	 24.50	
  5.095	123.033	  1.27205	  0.57127	  0.77830	  0.82027	  0.54901	  0.00109	  1.27063	707.65601	 24.50	
  5.105	104.191	  1.27021	  0.62264	  0.72018	  0.84581	  0.52677	  0.00240	  1.26907	707.75897	 24.50	
  5.093	 85.207	  1.27233	  0.68419	  0.66006	  0.85186	  0.52339	  0.00256	  1.26993	707.61798	 24.50	
  5.104	 66.290	  1.27250	  0.74510	  0.60311	  0.83586	  0.53598	  0.00117	  1.27094	707.76001	 24.50	
  5.094	 47.331	  1.27208	  0.79789	  0.55529	  0.79940	  0.56543	  0.00115	  1.26979	707.73700	 24.50	
  5.089	 28.397	  1.27269	  0.83807	  0.52112	  0.74901	  0.60976	  0.00011	  1.27118	707.79102	 24.50	
  5.096	  9.576	  1.27295	  0.86000	  0.50279	  0.69057	  0.66390	 -0.00238	  1.27286	707.74902	 24.50	
  5.096	 -9.576	  1.26763	  0.85609	  0.50019	  0.62612	  0.72355	 -0.00248	  1.26865	707.72803	 24.50	
  5.089	-28.397	  1.26719	  0.83284	  0.51773	  0.57238	  0.78091	 -0.00488	  1.26764	707.71198	 24.50	
  5.094	-47.331	  1.26514	  0.79102	  0.55061	  0.52598	  0.83018	 -0.00628	  1.26702	707.81799	 24.50	
  5.104	-66.290	  1.26673	  0.73809	  0.59868	  0.49575	  0.86719	 -0.00674	  1.26881	707.68103	 24.50	
  5.093	-85.207	  1.26723	  0.67714	  0.65655	  0.48253	  0.88335	 -0.00648	  1.27073	707.73901	 24.50	
  5.105	-104.191	  1.26706	  0.61634	  0.71826	  0.48646	  0.87877	 -0.00631	  1.26989	707.97302	 24.40	
  5.095	-123.033	  1.26328	  0.56218	  0.77302	  0.50786	  0.84933	 -0.00498	  1.26552	707.81000	 24.40	
  5.109	-142.013	  1.26711	  0.52208	  0.82354	  0.54764	  0.80787	 -0.00309	  1.26817	707.82202	 24.40	
  5.099	-161.165	  1.26453	  0.49572	  0.85359	  0.59851	  0.74956	 -0.00271	  1.26617	707.80200	 24.50	
  5.100	180.000	  1.26833	  0.48926	  0.86677	  0.65862	  0.69211	 -0.00168	  1.26878	707.82898	 24.50	
  6.800	180.000	  1.26185	  0.41814	  0.92652	  0.64805	  0.68252	 -0.00799	  1.27379	707.81000	 24.50	
  6.796	-166.229	  1.25778	  0.42204	  0.91497	  0.58731	  0.73935	 -0.00869	  1.26958	707.86102	 24.50	
  6.808	-152.311	  1.25543	  0.43907	  0.89092	  0.53223	  0.79663	 -0.00981	  1.26886	707.73401	 24.50	
  6.795	-138.383	  1.25537	  0.46992	  0.85357	  0.48510	  0.84969	 -0.01145	  1.26931	707.78003	 24.40	
  6.792	-124.591	  1.25203	  0.50922	  0.80245	  0.44708	  0.88938	 -0.01247	  1.26504	707.72803	 24.40	
  6.787	-110.754	  1.25409	  0.56007	  0.74808	  0.42288	  0.92095	 -0.01350	  1.26862	707.77301	 24.40	
  6.800	-96.985	  1.25565	  0.61721	  0.68950	  0.41037	  0.93829	 -0.01577	  1.27016	707.80200	 24.50	
  6.800	-83.015	  1.25385	  0.67815	  0.62768	  0.40969	  0.93636	 -0.01548	  1.26834	707.88300	 24.40	
  6.787	-69.246	  1.25361	  0.73816	  0.57126	  0.42286	  0.92101	 -0.01520	  1.26790	707.86102	 24.40	
  6.792	-55.409	  1.25219	  0.79389	  0.52125	  0.44768	  0.89024	 -0.01437	  1.26648	707.87500	 24.40	
  6.795	-41.617	  1.25623	  0.84513	  0.48187	  0.48546	  0.85093	 -0.01403	  1.26953	707.77698	 24.50	
  6.808	-27.689	  1.25560	  0.88276	  0.44992	  0.53175	  0.79681	 -0.01193	  1.26869	707.82202	 24.50	
  6.796	-13.771	  1.25763	  0.90819	  0.43285	  0.58683	  0.73992	 -0.01125	  1.26781	707.75702	 24.50	
  6.800	  0.000	  1.25520	  0.91536	  0.42625	  0.64415	  0.67978	 -0.01037	  1.26591	707.83301	 24.50	
  6.796	 13.771	  1.25693	  0.90911	  0.43344	  0.70512	  0.62164	 -0.00922	  1.26663	707.81500	 24.50	
  6.808	 27.689	  1.26507	  0.89208	  0.45451	  0.76843	  0.57185	 -0.00687	  1.27470	707.74500	 24.50	
  6.795	 41.617	  1.25940	  0.85029	  0.48446	  0.81639	  0.52437	 -0.00561	  1.26694	707.71198	 24.50	
  6.792	 55.409	  1.25988	  0.80277	  0.52604	  0.86026	  0.48835	 -0.00493	  1.26753	707.82501	 24.50	
  6.787	 69.246	  1.25945	  0.74645	  0.57648	  0.89090	  0.46436	 -0.00319	  1.26687	707.84399	 24.40	
  6.800	 83.015	  1.25888	  0.68675	  0.63221	  0.90733	  0.45083	 -0.00340	  1.26649	707.84100	 24.50	
  6.800	 96.985	  1.26215	  0.62745	  0.69431	  0.90967	  0.45249	 -0.00451	  1.26971	707.75098	 24.50	
  6.787	110.754	  1.26325	  0.57137	  0.75442	  0.89408	  0.46565	 -0.00454	  1.27102	707.82397	 24.50	
  6.792	124.591	  1.26168	  0.52025	  0.80871	  0.86252	  0.48891	 -0.00550	  1.26939	707.92499	 24.50	
  6.795	138.383	  1.26255	  0.47804	  0.85825	  0.82064	  0.52514	 -0.00573	  1.27166	707.80200	 24.50	
  6.808	152.311	  1.26586	  0.44715	  0.89803	  0.77026	  0.57176	 -0.00620	  1.27496	707.68103	 24.50	
  6.796	166.229	  1.25847	  0.42511	  0.91565	  0.70807	  0.62207	 -0.00656	  1.26833	707.67297	 24.50	
  8.491	168.704	  1.24359	  0.35007	  0.97077	  0.69479	  0.60420	 -0.01543	  1.26938	707.65198	 24.50	
  8.502	157.493	  1.24335	  0.36599	  0.95057	  0.75462	  0.54915	 -0.01372	  1.26785	707.73499	 24.50	
  8.494	146.194	  1.24555	  0.39392	  0.92066	  0.81244	  0.50035	 -0.01320	  1.26926	707.73700	 24.50	
  8.495	135.039	  1.25279	  0.43087	  0.88378	  0.86852	  0.45921	 -0.01442	  1.27587	707.79901	 24.50	
  8.487	123.723	  1.24839	  0.47464	  0.82906	  0.90837	  0.42316	 -0.01244	  1.27152	707.78003	 24.50	
  8.492	112.575	  1.24732	  0.52500	  0.77210	  0.93870	  0.39824	 -0.01162	  1.26906	707.85602	 24.50	
  8.510	101.220	  1.24834	  0.58255	  0.71140	  0.95979	  0.38319	 -0.01156	  1.27037	707.90601	 24.50	
  8.500	 90.000	  1.24697	  0.64274	  0.64892	  0.96507	  0.37774	 -0.01230	  1.26880	707.87701	 24.50	
  8.510	 78.780	  1.24697	  0.70559	  0.58735	  0.95867	  0.38183	 -0.01171	  1.26912	707.71399	 24.50	
  8.492	 67.425	  1.24165	  0.76308	  0.52902	  0.93450	  0.39568	 -0.01172	  1.26418	707.78198	 24.50	
  8.487	 56.277	  1.24676	  0.82329	  0.48064	  0.90669	  0.42231	 -0.01257	  1.26901	707.78497	 24.50	
  8.495	 44.961	  1.24551	  0.87433	  0.43548	  0.86254	  0.45616	 -0.01354	  1.26813	707.72900	 24.50	
  8.494	 33.806	  1.24570	  0.91677	  0.40131	  0.81170	  0.49995	 -0.01443	  1.26875	707.75702	 24.50	
  8.502	 22.507	  1.24763	  0.94996	  0.37516	  0.75529	  0.55109	 -0.01510	  1.27084	707.66602	 24.50	
  8.491	 11.296	  1.24396	  0.96624	  0.35894	  0.69224	  0.60540	 -0.01787	  1.26880	707.85199	 24.50	
  8.500	  0.000	  1.24384	  0.97252	  0.35333	  0.62988	  0.66588	 -0.01962	  1.26978	707.79797	 24.50	
  8.491	-11.296	  1.24790	  0.96755	  0.35973	  0.57115	  0.73020	 -0.01887	  1.27512	707.79303	 24.50	
  8.502	-22.507	  1.24270	  0.94363	  0.37284	  0.51261	  0.78773	 -0.02009	  1.27013	707.60400	 24.50	
  8.494	-33.806	  1.24396	  0.91139	  0.39874	  0.46160	  0.84606	 -0.02206	  1.27273	707.74500	 24.50	
  8.495	-44.961	  1.24739	  0.87140	  0.43424	  0.41879	  0.89928	 -0.02535	  1.27668	707.72803	 24.50	
  8.487	-56.277	  1.24579	  0.81786	  0.47795	  0.38414	  0.93977	 -0.02536	  1.27586	707.72198	 24.50	
  8.492	-67.425	  1.23681	  0.75499	  0.52426	  0.35607	  0.96367	 -0.02466	  1.26658	707.75897	 24.40	
  8.510	-78.780	  1.23786	  0.69365	  0.58167	  0.33987	  0.98495	 -0.02686	  1.26933	707.80200	 24.50	
  8.500	-90.000	  1.23921	  0.63127	  0.64298	  0.33551	  0.99146	 -0.02619	  1.26947	707.90100	 24.50	
  8.510	-101.220	  1.24157	  0.57141	  0.70615	  0.34090	  0.98690	 -0.02487	  1.27205	707.83600	 24.50	
  8.492	-112.575	  1.24030	  0.51418	  0.76673	  0.35719	  0.96536	 -0.02228	  1.27002	707.76801	 24.50	
  8.487	-123.723	  1.24239	  0.46461	  0.82485	  0.38372	  0.93564	 -0.02159	  1.27186	707.80798	 24.50	
  8.495	-135.039	  1.24067	  0.42002	  0.87531	  0.41715	  0.89351	 -0.02044	  1.27006	707.76501	 24.50	
  8.494	-146.194	  1.23997	  0.38609	  0.91665	  0.46080	  0.84264	 -0.01839	  1.26901	707.76703	 24.50	
  8.502	-157.493	  1.23967	  0.36054	  0.94882	  0.51266	  0.78431	 -0.01720	  1.26813	707.82098	 24.50	
  8.491	-168.704	  1.24167	  0.34730	  0.96883	  0.56978	  0.72547	 -0.01652	  1.26927	707.74200	 24.50	
  8.500	180.000	  1.24017	  0.34243	  0.97452	  0.62949	  0.66259	 -0.01727	  1.26669	707.80701	 24.50	
 10.200	180.000	  1.21809	  0.26740	  1.02277	  0.60988	  0.64312	 -0.02611	  1.26495	707.82501	 24.50	
 10.191	-170.497	  1.22074	  0.27120	  1.01834	  0.55005	  0.70652	 -0.02618	  1.26796	707.89398	 24.50	
 10.210	-161.034	  1.22264	  0.28366	  1.00391	  0.49266	  0.76980	 -0.02636	  1.27101	707.77399	 24.50	
 10.194	-151.526	  1.21817	  0.30423	  0.97214	  0.43638	  0.82688	 -0.02660	  1.26663	707.88599	 24.50	
 10.190	-142.105	  1.21782	  0.33246	  0.93511	  0.38836	  0.88264	 -0.02875	  1.26864	707.85303	 24.50	
 10.215	-132.646	  1.22313	  0.37097	  0.89385	  0.34909	  0.93514	 -0.03027	  1.27391	707.78400	 24.50	
 10.203	-123.092	  1.22060	  0.41438	  0.83799	  0.31445	  0.97474	 -0.03036	  1.27202	707.90601	 24.50	
 10.192	-113.678	  1.22146	  0.46552	  0.78040	  0.28842	  1.00766	 -0.03287	  1.27321	707.71100	 24.50	
 10.208	-104.249	  1.21923	  0.52001	  0.71786	  0.26980	  1.02863	 -0.03530	  1.27152	707.77301	 24.50	
 10.210	-94.801	  1.21760	  0.57858	  0.65482	  0.26027	  1.03920	 -0.03664	  1.26996	707.77002	 24.50	
 10.210	-85.199	  1.21917	  0.64427	  0.59226	  0.26136	  1.04041	 -0.03702	  1.27207	707.71997	 24.50	
 10.208	-75.751	  1.21619	  0.70575	  0.53179	  0.26966	  1.02720	 -0.03588	  1.26840	707.82397	 24.50	
 10.192	-66.322	  1.22069	  0.76974	  0.47802	  0.28899	  1.00792	 -0.03589	  1.27221	707.78998	 24.50	
 10.203	-56.908	  1.22002	  0.82883	  0.42726	  0.31463	  0.97551	 -0.03602	  1.27136	707.77399	 24.50	
 10.215	-47.354	  1.22600	  0.88744	  0.38409	  0.34982	  0.93836	 -0.03554	  1.27708	707.66302	 24.50	
 10.190	-37.895	  1.22208	  0.93037	  0.34579	  0.38967	  0.88660	 -0.03325	  1.27208	707.81299	 24.50	
 10.194	-28.474	  1.21993	  0.96681	  0.31635	  0.43640	  0.82988	 -0.03139	  1.26926	707.83197	 24.50	
 10.210	-18.966	  1.22298	  0.99809	  0.29572	  0.49183	  0.77100	 -0.03037	  1.27153	707.75702	 24.50	
 10.191	 -9.503	  1.22549	  1.01684	  0.28412	  0.55028	  0.71136	 -0.02802	  1.27268	707.71198	 24.50	
 10.200	  0.000	  1.22612	  1.02414	  0.27938	  0.61247	  0.64900	 -0.02922	  1.27244	707.74200	 24.50	
 10.191	  9.503	  1.22386	  1.01719	  0.28455	  0.67473	  0.58585	 -0.02825	  1.26867	707.79901	 24.50	
 10.210	 18.966	  1.22403	  1.00094	  0.29635	  0.73656	  0.52843	 -0.02464	  1.26824	707.82898	 24.50	
 10.194	 28.474	  1.22910	  0.97764	  0.32028	  0.80008	  0.47743	 -0.02230	  1.27302	707.76801	 24.50	
 10.190	 37.895	  1.22698	  0.93856	  0.34906	  0.85472	  0.42901	 -0.02198	  1.27002	707.76801	 24.50	
 10.215	 47.354	  1.22925	  0.89510	  0.38687	  0.90649	  0.38822	 -0.02203	  1.27119	707.65198	 24.50	
 10.203	 56.908	  1.22966	  0.84130	  0.43292	  0.94899	  0.35594	 -0.02006	  1.27146	707.72601	 24.50	
 10.192	 66.322	  1.23030	  0.78326	  0.48475	  0.98148	  0.33206	 -0.01911	  1.27207	707.72900	 24.50	
 10.208	 75.751	  1.22997	  0.72173	  0.53998	  1.00398	  0.31368	 -0.02019	  1.27143	707.88800	 24.50	
 10.210	 85.199	  1.23006	  0.65886	  0.60017	  1.01643	  0.30468	 -0.02006	  1.27229	707.63501	 24.50	
 10.210	 94.801	  1.23290	  0.59600	  0.66525	  1.01877	  0.30627	 -0.02150	  1.27443	707.84399	 24.50	
 10.208	104.249	  1.22958	  0.53400	  0.72610	  1.00487	  0.31377	 -0.02019	  1.27209	707.78198	 24.50	
 10.192	113.678	  1.22714	  0.47697	  0.78538	  0.97983	  0.33087	 -0.02044	  1.26838	707.72601	 24.50	
 10.203	123.092	  1.22868	  0.42596	  0.84489	  0.95010	  0.35537	 -0.02196	  1.27078	707.74200	 24.50	
 10.215	132.646	  1.22572	  0.37894	  0.89619	  0.90626	  0.38706	 -0.02216	  1.26730	707.92297	 24.50	
 10.190	142.105	  1.22599	  0.34243	  0.94106	  0.85684	  0.42873	 -0.02268	  1.26876	707.79303	 24.50	
 10.194	151.526	  1.22880	  0.31208	  0.98066	  0.80241	  0.47709	 -0.02223	  1.27256	707.71802	 24.50	
 10.210	161.034	  1.22926	  0.28865	  1.00896	  0.74241	  0.52982	 -0.02348	  1.27384	707.71503	 24.50	
 10.191	170.497	  1.21756	  0.27291	  1.01621	  0.67327	  0.58217	 -0.02445	  1.26232	707.60199	 24.50	
 11.899	171.783	  1.19970	  0.19958	  1.06830	  0.65607	  0.56265	 -0.03485	  1.27039	707.71399	 24.50	
 11.890	163.610	  1.20498	  0.21231	  1.05760	  0.72170	  0.50720	 -0.03432	  1.27524	707.79102	 24.50	
 11.889	155.445	  1.20214	  0.23082	  1.03085	  0.78145	  0.45140	 -0.03177	  1.27060	707.69800	 24.50	
 11.909	147.299	  1.20238	  0.25613	  0.99907	  0.84103	  0.40069	 -0.03210	  1.27048	707.74500	 24.50	
 11.902	139.148	  1.19911	  0.28834	  0.95450	  0.89274	  0.35517	 -0.03229	  1.26667	707.86401	 24.50	
 11.894	130.867	  1.20661	  0.33121	  0.91179	  0.94645	  0.32043	 -0.03280	  1.27334	707.85602	 24.50	
 11.897	122.732	  1.20334	  0.37533	  0.85581	  0.98548	  0.28777	 -0.03148	  1.26881	707.79303	 24.50	
 11.903	114.597	  1.20619	  0.42723	  0.79976	  1.02102	  0.26303	 -0.03038	  1.27278	707.89203	 24.50	
 11.893	106.346	  1.20244	  0.48250	  0.73509	  1.04282	  0.24426	 -0.03005	  1.26770	707.82501	 24.50	
 11.892	 98.155	  1.20498	  0.54332	  0.67297	  1.05910	  0.23407	 -0.03109	  1.27064	707.89502	 24.50	
 11.900	 90.000	  1.20596	  0.60578	  0.61035	  1.06531	  0.22925	 -0.03088	  1.27199	707.75702	 24.50	
 11.892	 81.845	  1.20416	  0.66833	  0.54799	  1.05803	  0.23340	 -0.02894	  1.26945	707.79303	 24.50	
 11.893	 73.654	  1.20636	  0.73294	  0.48918	  1.04426	  0.24428	 -0.02852	  1.27163	707.87701	 24.50	
 11.903	 65.403	  1.20533	  0.79529	  0.43304	  1.01947	  0.26262	 -0.02828	  1.27228	707.87201	 24.50	
 11.897	 57.268	  1.20355	  0.85270	  0.38169	  0.98412	  0.28702	 -0.02919	  1.26985	707.88300	 24.50	
 11.894	 49.133	  1.20497	  0.90801	  0.33739	  0.94320	  0.32042	 -0.03070	  1.27183	707.86401	 24.50	
 11.902	 40.852	  1.19884	  0.95194	  0.29558	  0.89036	  0.35639	 -0.03128	  1.26599	707.80701	 24.60	
 11.909	 32.701	  1.20136	  0.99499	  0.26361	  0.83806	  0.40089	 -0.03124	  1.26884	707.90100	 24.60	
 11.889	 24.555	  1.20009	  1.02649	  0.23924	  0.77789	  0.45151	 -0.03241	  1.26870	707.74597	 24.50	
 11.890	 16.390	  1.19990	  1.04976	  0.22052	  0.71517	  0.50604	 -0.03489	  1.26802	707.85498	 24.60	
 11.899	  8.217	  1.19933	  1.06396	  0.20936	  0.65332	  0.56380	 -0.03734	  1.26883	707.96997	 24.60	
 11.900	  0.000	  1.19833	  1.06787	  0.20485	  0.58855	  0.62556	 -0.03856	  1.26974	707.78198	 24.60	
 11.899	 -8.217	  1.20031	  1.06355	  0.20945	  0.52798	  0.68949	 -0.03761	  1.27151	707.85199	 24.60	
 11.890	-16.390	  1.19530	  1.04330	  0.21963	  0.46767	  0.74839	 -0.03702	  1.26693	707.95898	 24.60	
 11.889	-24.555	  1.19564	  1.01869	  0.23723	  0.41233	  0.81035	 -0.03807	  1.26835	707.75702	 24.60	
 11.909	-32.701	  1.19692	  0.98694	  0.26169	  0.36262	  0.86954	 -0.04094	  1.27158	707.76001	 24.60	
 11.902	-40.852	  1.19465	  0.94316	  0.29324	  0.31730	  0.92091	 -0.04380	  1.26980	707.78198	 24.60	
 11.894	-49.133	  1.19027	  0.89067	  0.33110	  0.27737	  0.96642	 -0.04653	  1.26618	707.85602	 24.60	
 11.897	-57.268	  1.19285	  0.83808	  0.37597	  0.24522	  1.00946	 -0.04602	  1.26958	707.70599	 24.60	
 11.903	-65.403	  1.19316	  0.77824	  0.42592	  0.21887	  1.04305	 -0.04503	  1.27034	707.90302	 24.60	
 11.893	-73.654	  1.19500	  0.71686	  0.48257	  0.20219	  1.06750	 -0.04626	  1.27307	707.85303	 24.60	
 11.892	-81.845	  1.19360	  0.65222	  0.54053	  0.19100	  1.07936	 -0.04574	  1.27053	707.85303	 24.60	
 11.900	-90.000	  1.19350	  0.58834	  0.60187	  0.18723	  1.08462	 -0.04691	  1.27122	707.85498	 24.60	
 11.892	-98.155	  1.19306	  0.52705	  0.66441	  0.19114	  1.07913	 -0.04571	  1.27101	707.84900	 24.60	
 11.893	-106.346	  1.19742	  0.46949	  0.72973	  0.20233	  1.06845	 -0.04485	  1.27528	707.78699	 24.60	
 11.903	-114.597	  1.19650	  0.41258	  0.79107	  0.21976	  1.04347	 -0.04359	  1.27440	707.76001	 24.60	
 11.897	-122.732	  1.19230	  0.36224	  0.84692	  0.24592	  1.00681	 -0.04167	  1.26907	707.71503	 24.60	
 11.894	-130.867	  1.19854	  0.31960	  0.90515	  0.27977	  0.97097	 -0.03994	  1.27521	707.79401	 24.60	
 11.902	-139.148	  1.19450	  0.28063	  0.95132	  0.31950	  0.91904	 -0.03934	  1.26955	707.77301	 24.60	
 11.909	-147.299	  1.19544	  0.24894	  0.99287	  0.36349	  0.86701	 -0.03792	  1.27066	707.71802	 24.60	
 11.889	-155.445	  1.19557	  0.22502	  1.02506	  0.41437	  0.80887	 -0.03566	  1.26996	707.64398	 24.60	
 11.890	-163.610	  1.20017	  0.20874	  1.05333	  0.47202	  0.75019	 -0.03605	  1.27291	707.79901	 24.60	
 11.899	-171.783	  1.19649	  0.19764	  1.06494	  0.52911	  0.68548	 -0.03653	  1.26812	707.84900	 24.60	
 11.900	180.000	  1.19457	  0.19429	  1.06781	  0.58948	  0.62194	 -0.03597	  1.26511	707.73401	 24.60	
 13.600	180.000	  1.16997	  0.12254	  1.11255	  0.56790	  0.59952	 -0.04614	  1.26964	707.93597	 24.60	
 13.608	-172.853	  1.17136	  0.12390	  1.11047	  0.50713	  0.66186	 -0.04562	  1.27334	707.82098	 24.60	
 13.611	-165.583	  1.17138	  0.13246	  1.09726	  0.44720	  0.72516	 -0.04696	  1.27366	707.74298	 24.60	
 13.601	-158.353	  1.16454	  0.14706	  1.06929	  0.38849	  0.78398	 -0.04588	  1.26682	707.69702	 24.60	
 13.609	-151.210	  1.16964	  0.16847	  1.04463	  0.33860	  0.84660	 -0.04626	  1.27418	707.84900	 24.60	
 13.611	-143.999	  1.16445	  0.19472	  1.00370	  0.28978	  0.89953	 -0.04821	  1.26921	707.83002	 24.60	
 13.601	-136.825	  1.16681	  0.22811	  0.96191	  0.24778	  0.95337	 -0.04930	  1.27322	707.82397	 24.60	
 13.596	-129.640	  1.16695	  0.26691	  0.91106	  0.21031	  1.00062	 -0.04995	  1.27344	707.91498	 24.60	
 13.611	-122.431	  1.16767	  0.31220	  0.85648	  0.18041	  1.04124	 -0.05127	  1.27412	707.86102	 24.60	
 13.604	-115.211	  1.15970	  0.35873	  0.79249	  0.15316	  1.06711	 -0.05295	  1.26611	707.87000	 24.60	
 13.595	-108.042	  1.16380	  0.41363	  0.73407	  0.13554	  1.09582	 -0.05479	  1.27103	707.80200	 24.60	
 13.607	-100.793	  1.16249	  0.47091	  0.67048	  0.12341	  1.11184	 -0.05544	  1.26902	707.86102	 24.60	
 13.601	-93.617	  1.16591	  0.53257	  0.60958	  0.11648	  1.12431	 -0.05566	  1.27302	708.00897	 24.60	
 13.601	-86.383	  1.16323	  0.59490	  0.54579	  0.11665	  1.12206	 -0.05558	  1.27041	707.96997	 24.60	
 13.607	-79.207	  1.16222	  0.65687	  0.48460	  0.12115	  1.11362	 -0.05330	  1.27012	707.83600	 24.60	
 13.595	-71.958	  1.16331	  0.72175	  0.42802	  0.13424	  1.09740	 -0.05183	  1.27054	707.78998	 24.60	
 13.604	-64.789	  1.16376	  0.78496	  0.37361	  0.15265	  1.07296	 -0.05347	  1.27086	707.88397	 24.60	
 13.611	-57.569	  1.16427	  0.84554	  0.32433	  0.17750	  1.04143	 -0.05441	  1.27176	707.84399	 24.60	
 13.596	-50.360	  1.16451	  0.90053	  0.28030	  0.20827	  1.00162	 -0.05419	  1.27060	707.82098	 24.60	
 13.601	-43.175	  1.16561	  0.95283	  0.24135	  0.24557	  0.95529	 -0.05319	  1.27045	707.98102	 24.60	
 13.611	-36.001	  1.16728	  0.99902	  0.20803	  0.28769	  0.90384	 -0.04851	  1.27186	707.92603	 24.60	
 13.609	-28.790	  1.16640	  1.03550	  0.18100	  0.33444	  0.84688	 -0.04608	  1.26938	707.93402	 24.60	
 13.601	-21.647	  1.16521	  1.06430	  0.16013	  0.38501	  0.78712	 -0.04561	  1.26705	707.77399	 24.60	
 13.611	-14.417	  1.16787	  1.08987	  0.14388	  0.44260	  0.72564	 -0.04593	  1.26965	707.89398	 24.60	
 13.608	 -7.147	  1.17224	  1.10679	  0.13556	  0.50330	  0.66453	 -0.04596	  1.27283	707.88000	 24.60	
 13.600	  0.000	  1.17104	  1.11086	  0.13230	  0.56380	  0.60241	 -0.04607	  1.27084	707.86102	 24.60	
 13.608	  7.147	  1.17143	  1.10756	  0.13567	  0.62716	  0.54080	 -0.04471	  1.27075	707.97302	 24.60	
 13.611	 14.417	  1.17385	  1.09770	  0.14564	  0.69330	  0.48312	 -0.04325	  1.27299	707.82397	 24.60	
 13.601	 21.647	  1.17350	  1.07612	  0.16077	  0.75570	  0.42672	 -0.03962	  1.27193	707.78003	 24.60	
 13.609	 28.790	  1.16991	  1.04394	  0.18169	  0.81362	  0.37334	 -0.03831	  1.26765	707.83899	 24.60	
 13.611	 36.001	  1.17527	  1.01121	  0.21124	  0.87520	  0.32784	 -0.03820	  1.27189	707.84399	 24.60	
 13.601	 43.175	  1.17161	  0.96367	  0.24489	  0.92394	  0.28626	 -0.04001	  1.26652	707.82501	 24.60	
 13.596	 50.360	  1.17463	  0.91634	  0.28519	  0.97504	  0.24966	 -0.03912	  1.26940	707.78699	 24.60	
 13.611	 57.569	  1.17130	  0.85899	  0.32818	  1.01482	  0.21732	 -0.03773	  1.26629	707.79797	 24.60	
 13.604	 64.789	  1.17681	  0.80383	  0.38077	  1.05299	  0.19385	 -0.03758	  1.27131	707.80200	 24.60	
 13.595	 71.958	  1.17385	  0.73976	  0.43451	  1.07556	  0.17544	 -0.03760	  1.26850	707.85199	 24.60	
 13.607	 79.207	  1.17488	  0.67652	  0.49209	  1.09401	  0.16282	 -0.03910	  1.26959	707.91998	 24.60	
 13.601	 86.383	  1.17714	  0.61453	  0.55477	  1.10509	  0.15804	 -0.04134	  1.27213	707.95697	 24.60	
 13.601	 93.617	  1.17675	  0.55002	  0.61752	  1.10474	  0.15787	 -0.03998	  1.27033	708.00500	 24.60	
 13.607	100.793	  1.17355	  0.48822	  0.67946	  1.09383	  0.16345	 -0.03989	  1.26768	707.92603	 24.60	
 13.595	108.042	  1.17628	  0.42997	  0.74448	  1.07914	  0.17513	 -0.03859	  1.27172	707.98700	 24.60	
 13.604	115.211	  1.17175	  0.37317	  0.80276	  1.05030	  0.19280	 -0.04016	  1.26582	707.90100	 24.60	
 13.611	122.431	  1.17599	  0.32427	  0.86386	  1.02026	  0.21862	 -0.04074	  1.27076	707.92603	 24.60	
 13.596	129.640	  1.17152	  0.27816	  0.91518	  0.97487	  0.24891	 -0.04259	  1.26530	707.88000	 24.60	
 13.601	136.825	  1.17393	  0.23766	  0.96820	  0.92949	  0.28535	 -0.04216	  1.26919	707.86700	 24.60	
 13.611	143.999	  1.17583	  0.20262	  1.01342	  0.87896	  0.32664	 -0.04076	  1.27136	707.90601	 24.60	
 13.609	151.210	  1.17227	  0.17433	  1.04678	  0.81907	  0.37311	 -0.04096	  1.26852	707.80200	 24.60	
 13.601	158.353	  1.17284	  0.15250	  1.07635	  0.75918	  0.42547	 -0.04248	  1.26970	707.91901	 24.60	
 13.611	165.583	  1.17631	  0.13558	  1.10164	  0.69775	  0.48171	 -0.04429	  1.27461	707.86102	 24.60	
 13.608	172.853	  1.17651	  0.12511	  1.11476	  0.63423	  0.54044	 -0.04467	  1.27601	707.94299	 24.60	
 15.298	173.587	  1.14065	  0.05581	  1.14887	  0.60688	  0.51360	 -0.05272	  1.27280	707.86401	 24.60	
 15.291	167.167	  1.13877	  0.06609	  1.13430	  0.66881	  0.45587	 -0.05344	  1.26966	707.88599	 24.60	
 15.307	160.676	  1.14234	  0.07774	  1.11963	  0.73365	  0.39892	 -0.05259	  1.27275	707.89203	 24.60	
 15.300	154.261	  1.14006	  0.09764	  1.09131	  0.79412	  0.34618	 -0.04904	  1.26902	707.82501	 24.60	
 15.288	147.854	  1.14087	  0.12371	  1.05813	  0.85280	  0.29946	 -0.04859	  1.26875	707.80200	 24.60	
 15.293	141.428	  1.14092	  0.15364	  1.01827	  0.90823	  0.25579	 -0.05034	  1.26808	707.76001	 24.60	
 15.299	134.985	  1.14182	  0.18826	  0.97375	  0.96115	  0.21574	 -0.05102	  1.26901	707.73700	 24.60	
 15.305	128.583	  1.14421	  0.22851	  0.92461	  1.00941	  0.18170	 -0.05162	  1.27202	707.75897	 24.60	
 15.309	122.142	  1.14762	  0.27565	  0.87256	  1.05316	  0.15407	 -0.04958	  1.27535	707.71997	 24.60	
 15.304	115.711	  1.14064	  0.32329	  0.80768	  1.07949	  0.12893	 -0.04816	  1.26653	707.79401	 24.70	
 15.297	109.291	  1.14578	  0.37752	  0.74981	  1.11071	  0.11103	 -0.04720	  1.27260	707.84698	 24.70	
 15.293	102.897	  1.14699	  0.43472	  0.68792	  1.13088	  0.09724	 -0.04653	  1.27384	707.83002	 24.70	
 15.293	 96.458	  1.14664	  0.49502	  0.62404	  1.14189	  0.08878	 -0.04699	  1.27359	707.80701	 24.60	
 15.300	 90.000	  1.14249	  0.55584	  0.55868	  1.14169	  0.08567	 -0.04833	  1.26971	707.87000	 24.70	
 15.293	 83.542	  1.14598	  0.62110	  0.49864	  1.14071	  0.08920	 -0.04706	  1.27298	707.95398	 24.70	
 15.293	 77.103	  1.14871	  0.68732	  0.44070	  1.13179	  0.09751	 -0.04648	  1.27598	707.92798	 24.70	
 15.297	 70.709	  1.14226	  0.74623	  0.38258	  1.10600	  0.11158	 -0.04505	  1.26908	707.93903	 24.60	
 15.304	 64.289	  1.14010	  0.80635	  0.32785	  1.07770	  0.12901	 -0.04382	  1.26749	707.94000	 24.60	
 15.309	 57.858	  1.14609	  0.86964	  0.28123	  1.04945	  0.15362	 -0.04679	  1.27391	707.83801	 24.60	
 15.305	 51.417	  1.14250	  0.92305	  0.23562	  1.00588	  0.18193	 -0.04755	  1.27151	707.75403	 24.60	
 15.299	 45.015	  1.13893	  0.97145	  0.19415	  0.95595	  0.21535	 -0.04836	  1.26768	707.82898	 24.60	
 15.293	 38.572	  1.13433	  1.01265	  0.16024	  0.89964	  0.25540	 -0.04573	  1.26220	707.92798	 24.60	
 15.288	 32.146	  1.14248	  1.05986	  0.13037	  0.84984	  0.30045	 -0.04369	  1.27177	707.84601	 24.60	
 15.300	 25.739	  1.14287	  1.09346	  0.10848	  0.79213	  0.34994	 -0.04499	  1.27268	707.82098	 24.60	
 15.307	 19.324	  1.14195	  1.11854	  0.08832	  0.72912	  0.40173	 -0.04546	  1.27255	707.96997	 24.60	
 15.291	 12.833	  1.14001	  1.13480	  0.07587	  0.66511	  0.45813	 -0.04722	  1.27137	707.98798	 24.60	
 15.298	  6.413	  1.14171	  1.14784	  0.06563	  0.60238	  0.51620	 -0.04839	  1.27433	707.84399	 24.60	
 15.300	  0.000	  1.13613	  1.14520	  0.06453	  0.53730	  0.57527	 -0.04963	  1.26788	707.91901	 24.60	
 15.298	 -6.413	  1.13660	  1.14050	  0.06717	  0.47654	  0.63704	 -0.05063	  1.26921	707.77600	 24.60	
 15.291	-12.833	  1.14008	  1.13169	  0.07614	  0.42050	  0.70176	 -0.04938	  1.27323	707.67999	 24.60	
 15.307	-19.324	  1.13213	  1.10499	  0.08738	  0.36030	  0.75987	 -0.05056	  1.26684	707.79797	 24.60	
 15.300	-25.739	  1.13631	  1.08219	  0.10634	  0.30983	  0.82269	 -0.05185	  1.27228	707.82501	 24.60	
 15.288	-32.146	  1.13861	  1.05041	  0.13089	  0.26280	  0.88264	 -0.05262	  1.27596	707.82202	 24.60	
 15.293	-38.572	  1.13430	  1.00533	  0.16094	  0.21885	  0.93496	 -0.05559	  1.27216	707.66400	 24.60	
 15.299	-45.015	  1.13336	  0.95786	  0.19260	  0.17768	  0.98557	 -0.05665	  1.27288	707.86102	 24.60	
 15.305	-51.417	  1.13138	  0.90453	  0.23245	  0.14458	  1.02833	 -0.05823	  1.27057	707.84698	 24.60	
 15.309	-57.858	  1.13051	  0.84777	  0.27634	  0.11516	  1.06699	 -0.05822	  1.27034	707.75897	 24.60	
 15.304	-64.289	  1.12884	  0.78725	  0.32483	  0.09129	  1.09859	 -0.05714	  1.26880	707.85303	 24.60	
 15.297	-70.709	  1.12698	  0.72384	  0.37504	  0.07153	  1.12244	 -0.05717	  1.26665	707.82098	 24.60	
 15.293	-77.103	  1.12745	  0.66227	  0.43229	  0.06110	  1.14083	 -0.05754	  1.26722	707.77698	 24.60	
 15.293	-83.542	  1.13224	  0.60206	  0.49275	  0.05379	  1.15648	 -0.05698	  1.27303	707.80499	 24.60	
 15.300	-90.000	  1.13202	  0.53754	  0.55305	  0.04925	  1.16004	 -0.05822	  1.27174	707.90601	 24.60	
 15.293	-96.458	  1.12782	  0.47465	  0.61270	  0.05217	  1.15135	 -0.06096	  1.26766	707.87201	 24.60	
 15.293	-102.897	  1.13035	  0.41669	  0.67651	  0.05874	  1.14273	 -0.06167	  1.27167	707.86298	 24.60	
 15.297	-109.291	  1.13162	  0.36221	  0.73967	  0.07341	  1.12505	 -0.06240	  1.27135	707.79102	 24.60	
 15.304	-115.711	  1.12894	  0.31097	  0.79818	  0.09355	  1.09591	 -0.06165	  1.26763	707.87500	 24.60	
 15.309	-122.142	  1.13301	  0.26187	  0.85950	  0.11524	  1.06673	 -0.06008	  1.27197	707.79401	 24.60	
 15.305	-128.583	  1.13079	  0.22158	  0.91192	  0.14911	  1.02455	 -0.05894	  1.26853	707.81000	 24.60	
 15.299	-134.985	  1.13050	  0.18069	  0.96264	  0.18061	  0.97998	 -0.05771	  1.26849	707.85303	 24.60	
 15.293	-141.428	  1.13593	  0.15057	  1.01267	  0.22356	  0.93338	 -0.05808	  1.27403	707.83197	 24.60	
 15.288	-147.854	  1.13842	  0.12080	  1.05476	  0.26828	  0.87936	 -0.05725	  1.27485	707.85999	 24.60	
 15.300	-154.261	  1.13959	  0.09613	  1.08976	  0.31608	  0.82290	 -0.05658	  1.27600	707.81799	 24.60	
 15.307	-160.676	  1.13908	  0.07759	  1.11603	  0.36773	  0.76192	 -0.05700	  1.27448	707.81299	 24.60	
 15.291	-167.167	  1.13683	  0.06559	  1.13217	  0.42469	  0.69699	 -0.05725	  1.27043	707.87500	 24.60	
 15.298	-173.587	  1.14173	  0.05766	  1.14844	  0.48493	  0.63766	 -0.05741	  1.27571	707.79401	 24.60	
 15.300	180.000	  1.14107	  0.05547	  1.15117	  0.54515	  0.57552	 -0.05479	  1.27297	707.88397	 24.60	
 17.000	180.000	  1.10863	  0.00251	  1.18510	  0.52569	  0.55440	 -0.05714	  1.27542	707.77301	 24.60	
 16.990	-174.179	  1.10698	  0.00255	  1.17968	  0.46487	  0.61348	 -0.06061	  1.27469	707.80701	 24.60	
 17.009	-168.383	  1.10137	  0.00975	  1.16383	  0.40586	  0.67111	 -0.06070	  1.27010	707.87799	 24.60	
 17.000	-162.596	  1.10091	  0.02078	  1.14660	  0.35061	  0.73223	 -0.05992	  1.27004	707.76202	 24.60	
 16.990	-156.759	  1.09759	  0.03368	  1.12075	  0.29666	  0.78988	 -0.06034	  1.26698	707.84698	 24.60	
 16.995	-150.919	  1.10090	  0.05608	  1.09313	  0.25093	  0.85094	 -0.06050	  1.27242	707.83197	 24.60	
 16.988	-145.161	  1.10074	  0.08006	  1.05703	  0.20553	  0.90651	 -0.06175	  1.27216	707.85999	 24.60	
 17.014	-139.343	  1.09793	  0.10816	  1.01433	  0.16277	  0.95809	 -0.06227	  1.27195	707.88300	 24.60	
 17.007	-133.546	  1.09663	  0.13983	  0.96632	  0.12550	  1.00479	 -0.06078	  1.27034	707.94299	 24.60	
 17.001	-127.699	  1.09640	  0.17893	  0.91443	  0.09336	  1.04871	 -0.06224	  1.27033	707.87000	 24.60	
 17.006	-121.937	  1.09693	  0.21857	  0.86044	  0.06314	  1.08795	 -0.06313	  1.27155	707.79797	 24.60	
 17.002	-116.134	  1.09359	  0.26478	  0.80052	  0.03986	  1.11881	 -0.06412	  1.26886	707.95898	 24.60	
 17.001	-110.310	  1.09521	  0.31528	  0.74170	  0.02180	  1.14626	 -0.06375	  1.26950	707.92297	 24.60	
 16.988	-104.517	  1.09397	  0.36916	  0.68038	  0.00919	  1.16410	 -0.06262	  1.26819	707.87701	 24.60	
 17.008	-98.662	  1.09515	  0.42545	  0.61940	 -0.00139	  1.18010	 -0.06084	  1.26983	707.92499	 24.60	
 16.996	-92.909	  1.09322	  0.48340	  0.55868	 -0.00478	  1.18382	 -0.06034	  1.26720	707.94800	 24.60	
 16.996	-87.091	  1.09258	  0.54332	  0.49830	 -0.00476	  1.18385	 -0.05559	  1.26727	707.90802	 24.60	
 17.012	-81.253	  1.09661	  0.60724	  0.44198	 -0.00033	  1.18271	 -0.05550	  1.27261	707.88800	 24.60	
 16.988	-75.483	  1.09659	  0.66849	  0.38575	  0.00746	  1.16996	 -0.05523	  1.27251	707.90302	 24.60	
 17.001	-69.690	  1.09246	  0.72808	  0.33105	  0.02142	  1.14652	 -0.05335	  1.26881	707.74298	 24.60	
 17.002	-63.866	  1.09630	  0.79140	  0.28310	  0.04119	  1.12417	 -0.05509	  1.27196	707.88000	 24.60	
 17.006	-58.063	  1.09865	  0.85185	  0.23760	  0.06489	  1.09365	 -0.05494	  1.27376	707.93402	 24.60	
 17.001	-52.301	  1.09788	  0.90709	  0.19332	  0.08939	  1.05501	 -0.05761	  1.27362	707.84100	 24.60	
 17.007	-46.454	  1.09662	  0.95844	  0.15630	  0.12344	  1.00876	 -0.05608	  1.26966	707.98798	 24.60	
 17.014	-40.657	  1.09820	  1.00775	  0.12108	  0.15749	  0.96342	 -0.05513	  1.27117	708.06897	 24.60	
 16.988	-34.839	  1.09833	  1.05004	  0.09039	  0.19790	  0.90968	 -0.05250	  1.27124	707.90002	 24.60	
 16.995	-29.081	  1.09953	  1.08753	  0.06818	  0.24449	  0.85419	 -0.05246	  1.27023	708.07501	 24.60	
 16.990	-23.241	  1.10220	  1.12149	  0.04345	  0.29046	  0.79691	 -0.04918	  1.27334	707.89502	 24.60	
 17.000	-17.404	  1.10332	  1.14734	  0.02826	  0.34332	  0.73756	 -0.05043	  1.27321	708.03302	 24.60	
 17.009	-11.617	  1.10276	  1.16431	  0.01514	  0.39730	  0.67497	 -0.04825	  1.27208	707.95001	 24.60	
 16.990	 -5.821	  1.10372	  1.17535	  0.01102	  0.45635	  0.61475	 -0.04801	  1.27148	707.83301	 24.60	
 17.000	  0.000	  1.10348	  1.18010	  0.00605	  0.51459	  0.55304	 -0.04843	  1.27104	707.91699	 24.60	
 16.990	  5.821	  1.10440	  1.17744	  0.00974	  0.57740	  0.49377	 -0.04829	  1.27111	707.97699	 24.60	
 17.009	 11.617	  1.10440	  1.16873	  0.01668	  0.63939	  0.43731	 -0.04662	  1.27109	708.01300	 24.70	
 17.000	 17.404	  1.10456	  1.15264	  0.02727	  0.70061	  0.38153	 -0.04643	  1.27122	707.93402	 24.60	
 16.990	 23.241	  1.11188	  1.13657	  0.04249	  0.76748	  0.32995	 -0.04559	  1.27883	707.84399	 24.60	
 16.995	 29.081	  1.10952	  1.10336	  0.06660	  0.82591	  0.28163	 -0.04509	  1.27491	707.91498	 24.60	
 16.988	 34.839	  1.10785	  1.06668	  0.08875	  0.88055	  0.23452	 -0.04821	  1.27209	707.89099	 24.60	
 17.014	 40.657	  1.10589	  1.02317	  0.12246	  0.93491	  0.19569	 -0.05019	  1.27004	707.91498	 24.60	
 17.007	 46.454	  1.10653	  0.97609	  0.16157	  0.98418	  0.16438	 -0.05021	  1.26787	708.01001	 24.60	
 17.001	 52.301	  1.10795	  0.92565	  0.19712	  1.03100	  0.12810	 -0.05087	  1.27003	708.05298	 24.70	
 17.006	 58.063	  1.11079	  0.87307	  0.23747	  1.07383	  0.09838	 -0.05023	  1.27459	707.91998	 24.70	
 17.002	 63.866	  1.11175	  0.81544	  0.28711	  1.10829	  0.07703	 -0.04977	  1.27472	707.93903	 24.70	
 17.001	 69.690	  1.10858	  0.75307	  0.33915	  1.13247	  0.06159	 -0.04860	  1.26979	707.89398	 24.70	
 16.988	 75.483	  1.10956	  0.69087	  0.39094	  1.15500	  0.04373	 -0.05030	  1.27207	708.09998	 24.70	
 17.012	 81.253	  1.10797	  0.62630	  0.44370	  1.16942	  0.02903	 -0.05266	  1.27181	707.93903	 24.70	
 16.996	 87.091	  1.10977	  0.56610	  0.50750	  1.17584	  0.03067	 -0.05212	  1.27152	707.90002	 24.70	
 16.996	 92.909	  1.11170	  0.50268	  0.56695	  1.17968	  0.02452	 -0.05265	  1.27357	708.07202	 24.70	
 17.008	 98.662	  1.10878	  0.44490	  0.62949	  1.16900	  0.03542	 -0.05115	  1.26982	707.95697	 24.70	
 16.988	104.517	  1.10823	  0.38504	  0.69035	  1.15423	  0.04181	 -0.04994	  1.27021	707.96698	 24.70	
 17.001	110.310	  1.11081	  0.33281	  0.75446	  1.13642	  0.05832	 -0.05180	  1.27225	707.93597	 24.70	
 17.002	116.134	  1.11109	  0.28065	  0.81421	  1.10920	  0.07520	 -0.05214	  1.27209	707.92798	 24.70	
 17.006	121.937	  1.11009	  0.23274	  0.87153	  1.07455	  0.09943	 -0.05426	  1.27123	707.90802	 24.70	
 17.001	127.699	  1.11062	  0.18889	  0.92741	  1.03642	  0.12572	 -0.05572	  1.27173	707.90601	 24.70	
 17.007	133.546	  1.11151	  0.14740	  0.98047	  0.99315	  0.15558	 -0.05704	  1.27505	707.91901	 24.70	
 17.014	139.343	  1.10595	  0.11365	  1.02191	  0.93849	  0.19325	 -0.05517	  1.26778	707.91699	 24.70	
 16.988	145.161	  1.10535	  0.08745	  1.06197	  0.88368	  0.23795	 -0.05388	  1.26627	708.04303	 24.70	
 16.995	150.919	  1.10697	  0.05883	  1.09996	  0.82876	  0.28068	 -0.05528	  1.27003	707.93903	 24.70	
 16.990	156.759	  1.10899	  0.04061	  1.13075	  0.77101	  0.33120	 -0.05642	  1.27161	708.02899	 24.70	
 17.000	162.596	  1.10919	  0.02402	  1.15502	  0.70980	  0.38439	 -0.05756	  1.27298	707.94598	 24.70	
 17.009	168.383	  1.10968	  0.01302	  1.17217	  0.64936	  0.43916	 -0.05744	  1.27436	707.85498	 24.70	
 16.990	174.179	  1.10403	  0.00017	  1.17718	  0.58302	  0.49081	 -0.05699	  1.26938	707.97400	 24.70	
 18.709	174.675	  1.06594	 -0.07294	  1.20970	  0.55175	  0.45864	 -0.05671	  1.27444	708.00098	 24.70	
 18.703	169.441	  1.06613	 -0.06609	  1.20048	  0.61243	  0.40294	 -0.05740	  1.27241	707.99500	 24.70	
 18.691	164.085	  1.06614	 -0.05358	  1.18394	  0.67438	  0.34823	 -0.05872	  1.27074	708.01801	 24.70	
 18.706	158.818	  1.06503	 -0.03949	  1.16259	  0.73513	  0.29578	 -0.05708	  1.27000	708.07397	 24.70	
 18.695	153.537	  1.06842	 -0.01858	  1.13821	  0.79714	  0.24919	 -0.05479	  1.27111	708.05701	 24.70	
 18.704	148.255	  1.06651	  0.00417	  1.10389	  0.85443	  0.20459	 -0.05226	  1.26955	707.80200	 24.70	
 18.698	142.952	  1.06966	  0.03155	  1.06849	  0.91276	  0.16283	 -0.05345	  1.27241	707.96399	 24.80	
 18.699	137.625	  1.06946	  0.06361	  1.02434	  0.96502	  0.12550	 -0.05305	  1.27176	707.91998	 24.80	
 18.705	132.343	  1.06966	  0.09852	  0.97667	  1.01297	  0.09136	 -0.05486	  1.27117	708.03497	 24.80	
 18.713	127.067	  1.06827	  0.13760	  0.92466	  1.05614	  0.06156	 -0.05418	  1.27034	707.98999	 24.80	
 18.700	121.794	  1.06731	  0.18022	  0.86804	  1.09374	  0.03498	 -0.05141	  1.26959	708.16199	 24.80	
 18.698	116.504	  1.07126	  0.22747	  0.81342	  1.13058	  0.01233	 -0.05033	  1.27354	708.07501	 24.80	
 18.707	111.165	  1.06983	  0.27700	  0.75249	  1.15777	 -0.00628	 -0.04922	  1.27225	708.03003	 24.80	
 18.690	105.863	  1.07096	  0.33098	  0.69132	  1.18003	 -0.01969	 -0.04747	  1.27318	708.06598	 24.80	
 18.696	100.583	  1.06965	  0.38636	  0.62950	  1.19336	 -0.02914	 -0.04711	  1.27153	707.95697	 24.80	
 18.700	 95.309	  1.07139	  0.44577	  0.56960	  1.20426	 -0.03390	 -0.04749	  1.27330	708.01599	 24.80	
 18.700	 90.000	  1.07010	  0.50483	  0.50793	  1.20590	 -0.03634	 -0.05048	  1.27261	707.91101	 24.80	
 18.700	 84.691	  1.07144	  0.56746	  0.44831	  1.20338	 -0.03390	 -0.05053	  1.27406	708.00201	 24.80	
 18.696	 79.417	  1.07186	  0.62925	  0.39124	  1.19506	 -0.02826	 -0.05022	  1.27429	707.96698	 24.80	
 18.690	 74.137	  1.07227	  0.69117	  0.33601	  1.18066	 -0.01935	 -0.04958	  1.27566	707.97900	 24.80	
 18.707	 68.835	  1.06924	  0.75145	  0.28183	  1.15611	 -0.00572	 -0.04882	  1.27349	707.95599	 24.80	
 18.698	 63.496	  1.07160	  0.81359	  0.23370	  1.13034	  0.01332	 -0.04577	  1.27582	708.00201	 24.80	
 18.700	 58.206	  1.06922	  0.87004	  0.18619	  1.09378	  0.03484	 -0.04773	  1.27349	708.01202	 24.80	
 18.713	 52.933	  1.07008	  0.92679	  0.14377	  1.05463	  0.06107	 -0.04789	  1.27486	708.01898	 24.80	
 18.705	 47.657	  1.06744	  0.97634	  0.10567	  1.00695	  0.09185	 -0.04835	  1.27116	707.97900	 24.80	
 18.699	 42.375	  1.06531	  1.02235	  0.07047	  0.95718	  0.12490	 -0.04906	  1.27058	707.88300	 24.80	
 18.698	 37.048	  1.06795	  1.06876	  0.03927	  0.90653	  0.16358	 -0.04673	  1.27305	707.89099	 24.80	
 18.704	 31.745	  1.06908	  1.10889	  0.01258	  0.85070	  0.20641	 -0.04418	  1.27486	707.83600	 24.80	
 18.695	 26.463	  1.06421	  1.13679	 -0.01126	  0.78826	  0.25065	 -0.04075	  1.27057	707.96198	 24.80	
 18.706	 21.182	  1.06547	  1.16509	 -0.02917	  0.73021	  0.29949	 -0.04114	  1.27264	708.13000	 24.80	
 18.691	 15.915	  1.06800	  1.18820	 -0.04278	  0.66994	  0.35308	 -0.04086	  1.27533	708.12299	 24.80	
 18.703	 10.559	  1.06446	  1.19918	 -0.05316	  0.60541	  0.40727	 -0.04237	  1.27316	708.00403	 24.80	
 18.709	  5.325	  1.06392	  1.20779	 -0.06181	  0.54434	  0.46206	 -0.04380	  1.27285	707.99298	 24.80	
 18.700	  0.000	  1.06328	  1.20938	 -0.06371	  0.48238	  0.52180	 -0.04228	  1.27226	707.98499	 24.80	
 18.709	 -5.325	  1.06091	  1.20350	 -0.06297	  0.42236	  0.58059	 -0.04355	  1.27130	708.01599	 24.80	
 18.703	-10.559	  1.06314	  1.19662	 -0.05693	  0.36666	  0.64208	 -0.04254	  1.27478	708.08099	 24.80	
 18.691	-15.915	  1.06139	  1.17793	 -0.04609	  0.31019	  0.70377	 -0.04485	  1.27261	708.05200	 24.80	
 18.706	-21.182	  1.06089	  1.15594	 -0.03318	  0.25824	  0.76330	 -0.04539	  1.27403	707.88000	 24.80	
 18.695	-26.463	  1.05962	  1.12645	 -0.01397	  0.21008	  0.82197	 -0.04864	  1.27336	707.82898	 24.80	
 18.704	-31.745	  1.05662	  1.08989	  0.00579	  0.16151	  0.87811	 -0.04971	  1.27131	707.86700	 24.80	
 18.698	-37.048	  1.06010	  1.05364	  0.03228	  0.11993	  0.93588	 -0.05113	  1.27687	707.96698	 24.80	
 18.699	-42.375	  1.05615	  1.00500	  0.06352	  0.08215	  0.98412	 -0.05171	  1.27255	707.99298	 24.80	
 18.705	-47.657	  1.05715	  0.95694	  0.09647	  0.04684	  1.03371	 -0.05194	  1.27538	707.94800	 24.80	
 18.713	-52.933	  1.05513	  0.90267	  0.13407	  0.01612	  1.07496	 -0.05266	  1.27348	707.85303	 24.80	
 18.700	-58.206	  1.05390	  0.84466	  0.17549	 -0.01140	  1.11264	 -0.05287	  1.27326	707.94800	 24.80	
 18.698	-63.496	  1.05306	  0.78506	  0.22112	 -0.03269	  1.14261	 -0.05046	  1.27106	707.94202	 24.80	
 18.707	-68.835	  1.05117	  0.72287	  0.26935	 -0.05127	  1.16746	 -0.05087	  1.26908	707.88000	 24.90	
 18.690	-74.137	  1.05414	  0.66246	  0.32274	 -0.06494	  1.19021	 -0.04889	  1.27148	707.97101	 24.90	
 18.696	-79.417	  1.05179	  0.59878	  0.37654	 -0.07533	  1.20211	 -0.05155	  1.26903	707.93903	 24.90	
 18.700	-84.691	  1.05533	  0.53859	  0.43457	 -0.08290	  1.21599	 -0.05248	  1.27406	707.86700	 24.90	
 18.700	-90.000	  1.05256	  0.47563	  0.49274	 -0.08466	  1.21479	 -0.05358	  1.27023	707.86700	 24.90	
 18.700	-95.309	  1.05342	  0.41565	  0.55313	 -0.08322	  1.21254	 -0.05684	  1.27129	707.93402	 24.90	
 18.696	-100.583	  1.05553	  0.35904	  0.61560	 -0.07752	  1.20601	 -0.05754	  1.27461	708.07703	 24.80	
 18.690	-105.863	  1.05072	  0.30314	  0.67411	 -0.06651	  1.18500	 -0.05933	  1.26833	707.90900	 24.80	
 18.707	-111.165	  1.05446	  0.25129	  0.73758	 -0.05337	  1.16910	 -0.06111	  1.27240	707.75897	 24.80	
 18.698	-116.504	  1.05262	  0.20185	  0.79601	 -0.03393	  1.13892	 -0.06290	  1.26974	707.82397	 24.80	
 18.700	-121.794	  1.05121	  0.15637	  0.85274	 -0.01176	  1.10540	 -0.06123	  1.26867	707.83301	 24.80	
 18.713	-127.067	  1.05418	  0.11507	  0.91137	  0.01481	  1.07059	 -0.06205	  1.27294	707.87201	 24.80	
 18.705	-132.343	  1.05559	  0.07861	  0.96408	  0.04709	  1.02775	 -0.06104	  1.27343	707.91699	 24.80	
 18.699	-137.625	  1.05494	  0.04575	  1.01103	  0.08347	  0.97794	 -0.06176	  1.27081	707.88300	 24.80	
 18.698	-142.952	  1.05616	  0.01610	  1.05590	  0.12251	  0.92738	 -0.06392	  1.27194	707.96399	 24.80	
 18.704	-148.255	  1.05808	 -0.01058	  1.09713	  0.16483	  0.87402	 -0.06220	  1.27453	707.82898	 24.80	
 18.695	-153.537	  1.05703	 -0.03078	  1.12774	  0.21160	  0.81483	 -0.06173	  1.27093	707.79102	 24.80	
 18.706	-158.818	  1.05687	 -0.04839	  1.15528	  0.26063	  0.75582	 -0.05956	  1.26967	707.90802	 24.80	
 18.691	-164.085	  1.05738	 -0.06064	  1.17606	  0.31292	  0.69607	 -0.05885	  1.26829	707.89502	 24.80	
 18.703	-169.441	  1.06375	 -0.06994	  1.19907	  0.37174	  0.63766	 -0.05902	  1.27485	707.95898	 24.80	
 18.709	-174.675	  1.06372	 -0.07530	  1.20755	  0.42906	  0.57793	 -0.05816	  1.27359	707.76501	 24.80	
 18.700	180.000	  1.06024	 -0.07511	  1.20615	  0.48736	  0.51639	 -0.05666	  1.26822	707.83301	 24.90	
 20.400	180.000	  1.01340	 -0.15694	  1.22962	  0.44633	  0.47440	 -0.05603	  1.26944	707.85498	 24.80	
 20.401	-175.153	  1.01385	 -0.15727	  1.22945	  0.38767	  0.53348	 -0.05428	  1.27169	707.75403	 24.90	
 20.407	-170.264	  1.01205	 -0.15359	  1.21894	  0.32891	  0.59318	 -0.05563	  1.27084	707.86700	 24.90	
 20.410	-165.423	  1.01125	 -0.14548	  1.20441	  0.27232	  0.65449	 -0.05619	  1.27140	707.97699	 24.90	
 20.392	-160.496	  1.01301	 -0.13329	  1.18647	  0.22060	  0.71737	 -0.05749	  1.27327	707.91101	 24.90	
 20.401	-155.705	  1.01265	 -0.11903	  1.16273	  0.17076	  0.77642	 -0.05911	  1.27532	707.75299	 24.90	
 20.405	-150.835	  1.01127	 -0.09978	  1.13030	  0.12214	  0.83499	 -0.05942	  1.27439	707.85602	 24.90	
 20.397	-145.903	  1.00741	 -0.07690	  1.08955	  0.07765	  0.88887	 -0.06143	  1.27007	707.88300	 24.90	
 20.392	-141.062	  1.00931	 -0.05109	  1.05136	  0.03766	  0.94356	 -0.06253	  1.27294	707.80798	 24.90	
 20.396	-136.227	  1.00916	 -0.02011	  1.00550	  0.00117	  0.99555	 -0.06297	  1.27444	707.98499	 24.90	
 20.408	-131.372	  1.00469	  0.01185	  0.95236	 -0.03436	  1.03978	 -0.06102	  1.27008	707.98798	 24.90	
 20.410	-126.511	  1.00594	  0.04876	  0.90114	 -0.06438	  1.08403	 -0.05909	  1.27268	707.84100	 24.90	
 20.400	-121.604	  1.00873	  0.09044	  0.84598	 -0.09098	  1.12473	 -0.06002	  1.27497	707.84100	 24.90	
 20.403	-116.741	  1.00773	  0.13492	  0.78704	 -0.11320	  1.15665	 -0.05761	  1.27392	707.89398	 24.90	
 20.413	-111.900	  1.00381	  0.18063	  0.72453	 -0.13262	  1.18175	 -0.05860	  1.27125	707.91199	 24.90	
 20.398	-107.004	  1.00680	  0.23374	  0.66522	 -0.14654	  1.20653	 -0.05630	  1.27449	707.82202	 24.90	
 20.394	-102.132	  1.00384	  0.28673	  0.60163	 -0.15736	  1.21968	 -0.05420	  1.27069	707.87000	 24.90	
 20.403	-97.332	  1.00411	  0.34184	  0.54113	 -0.16561	  1.23182	 -0.05329	  1.27161	707.94202	 24.90	
 20.392	-92.440	  1.00583	  0.40173	  0.48073	 -0.16919	  1.23913	 -0.05028	  1.27385	707.83801	 24.90	
 20.392	-87.560	  1.00489	  0.46237	  0.42048	 -0.16892	  1.23857	 -0.04832	  1.27340	707.87000	 24.90	
 20.403	-82.668	  1.00452	  0.52415	  0.36193	 -0.16558	  1.23393	 -0.04709	  1.27258	707.94800	 24.90	
 20.394	-77.868	  1.00670	  0.58664	  0.30795	 -0.15836	  1.22634	 -0.04644	  1.27503	707.88800	 24.90	
 20.398	-72.996	  1.00628	  0.64983	  0.25396	 -0.14612	  1.20925	 -0.04691	  1.27451	708.01599	 24.90	
 20.413	-68.100	  1.00006	  0.70848	  0.20141	 -0.12989	  1.18076	 -0.04683	  1.26650	707.90100	 24.90	
 20.403	-63.259	  1.00483	  0.77268	  0.15505	 -0.11173	  1.15881	 -0.04969	  1.27233	707.88000	 24.90	
 20.400	-58.396	  1.00112	  0.82912	  0.11085	 -0.08871	  1.12170	 -0.04818	  1.26658	707.93597	 24.90	
 20.410	-53.489	  1.00283	  0.88809	  0.06909	 -0.06433	  1.08654	 -0.04897	  1.26937	707.83197	 24.90	
 20.408	-48.628	  1.00620	  0.94543	  0.03143	 -0.03538	  1.04768	 -0.04809	  1.27292	707.91101	 24.90	
 20.396	-43.773	  1.00891	  0.99754	 -0.00168	 -0.00190	  1.00225	 -0.04825	  1.27358	707.80701	 24.90	
 20.392	-38.938	  1.01004	  1.04499	 -0.03180	  0.03589	  0.95151	 -0.04850	  1.27356	707.81000	 24.90	
 20.397	-34.097	  1.01313	  1.09061	 -0.05914	  0.07536	  0.90101	 -0.04773	  1.27820	707.89203	 24.90	
 20.405	-29.165	  1.01215	  1.12633	 -0.08312	  0.11883	  0.84249	 -0.04767	  1.27514	707.86700	 24.90	
 20.401	-24.295	  1.01135	  1.15681	 -0.10260	  0.16612	  0.78158	 -0.04383	  1.27223	707.92603	 24.90	
 20.392	-19.504	  1.01356	  1.18467	 -0.11800	  0.21555	  0.72431	 -0.04342	  1.27367	707.96503	 24.90	
 20.410	-14.577	  1.01195	  1.20358	 -0.13156	  0.26763	  0.66170	 -0.04193	  1.27223	707.83301	 24.90	
 20.407	 -9.736	  1.01238	  1.21786	 -0.13918	  0.32319	  0.60041	 -0.04127	  1.27108	707.88000	 24.90	
 20.401	 -4.847	  1.01178	  1.22561	 -0.14398	  0.38040	  0.53940	 -0.04111	  1.26847	707.90100	 24.90	
 20.400	  0.000	  1.01402	  1.23141	 -0.14551	  0.43972	  0.48074	 -0.03925	  1.27066	707.95099	 24.90	
 20.401	  4.847	  1.01663	  1.23222	 -0.14304	  0.50217	  0.42293	 -0.03779	  1.27338	708.08099	 24.90	
 20.407	  9.736	  1.01790	  1.22667	 -0.13768	  0.56383	  0.36678	 -0.03741	  1.27481	708.05798	 24.90	
 20.410	 14.577	  1.01552	  1.21032	 -0.12804	  0.62400	  0.31093	 -0.03743	  1.27073	707.92499	 24.90	
 20.392	 19.504	  1.01677	  1.19217	 -0.11411	  0.68789	  0.25856	 -0.03807	  1.27186	708.00403	 24.90	
 20.401	 24.295	  1.01865	  1.17053	 -0.09768	  0.74927	  0.21011	 -0.03639	  1.27279	707.93903	 24.90	
 20.405	 29.165	  1.02128	  1.14372	 -0.07827	  0.81163	  0.16318	 -0.04004	  1.27578	707.92603	 24.90	
 20.397	 34.097	  1.01786	  1.10293	 -0.05293	  0.86759	  0.11879	 -0.04222	  1.27085	707.88300	 24.90	
 20.392	 38.938	  1.01955	  1.06377	 -0.02516	  0.92383	  0.07984	 -0.04539	  1.27275	707.95398	 24.90	
 20.396	 43.773	  1.02461	  1.02315	  0.00657	  0.97980	  0.04440	 -0.04424	  1.27807	707.93402	 24.90	
 20.408	 48.628	  1.01859	  0.96877	  0.04039	  1.02309	  0.01119	 -0.04384	  1.27060	707.86700	 24.80	
 20.410	 53.489	  1.02473	  0.92132	  0.07917	  1.07425	 -0.01854	 -0.04475	  1.27788	707.94000	 24.80	
 20.400	 58.396	  1.02386	  0.86294	  0.12121	  1.11286	 -0.04418	 -0.04530	  1.27713	707.89502	 24.80	
 20.403	 63.259	  1.02254	  0.80337	  0.16658	  1.14566	 -0.06534	 -0.04477	  1.27476	707.95898	 24.90	
 20.413	 68.100	  1.02426	  0.74474	  0.21512	  1.17582	 -0.08289	 -0.04510	  1.27703	707.87201	 24.90	
 20.398	 72.996	  1.02493	  0.68310	  0.26693	  1.19902	 -0.09717	 -0.04452	  1.27622	707.86102	 24.90	
 20.394	 77.868	  1.02119	  0.61796	  0.32138	  1.21197	 -0.10745	 -0.04681	  1.27185	707.91699	 24.80	
 20.403	 82.668	  1.02166	  0.55748	  0.37652	  1.22441	 -0.11494	 -0.04684	  1.27196	708.00500	 24.90	
 20.392	 87.560	  1.02224	  0.49565	  0.43580	  1.22944	 -0.11776	 -0.04593	  1.27121	707.93103	 24.90	
 20.392	 92.440	  1.01975	  0.43359	  0.49543	  1.22607	 -0.11654	 -0.04566	  1.26870	707.90900	 24.90	
 20.403	 97.332	  1.02053	  0.37440	  0.55681	  1.22183	 -0.11438	 -0.04311	  1.26938	707.89502	 24.90	
 20.394	102.132	  1.02345	  0.31891	  0.61928	  1.21441	 -0.10692	 -0.04326	  1.27214	707.95001	 24.90	
 20.398	107.004	  1.02621	  0.26489	  0.68381	  1.20107	 -0.09585	 -0.04177	  1.27678	707.91199	 24.90	
 20.413	111.900	  1.02597	  0.21193	  0.74498	  1.17832	 -0.08273	 -0.04358	  1.27540	707.79797	 24.90	
 20.403	116.741	  1.02653	  0.16270	  0.80524	  1.15132	 -0.06495	 -0.04650	  1.27779	707.92499	 24.90	
 20.400	121.604	  1.02711	  0.11691	  0.86389	  1.11816	 -0.04359	 -0.04840	  1.27776	708.05701	 24.90	
 20.410	126.511	  1.02095	  0.07290	  0.91520	  1.07307	 -0.01844	 -0.05127	  1.26997	707.94000	 24.90	
 20.408	131.372	  1.02203	  0.03397	  0.96881	  1.02998	  0.01108	 -0.05161	  1.27120	707.96503	 24.90	
 20.396	136.227	  1.02349	  0.00045	  1.01889	  0.98293	  0.04456	 -0.05140	  1.27287	707.90100	 24.90	
 20.392	141.062	  1.02534	 -0.03188	  1.06609	  0.93381	  0.07974	 -0.05239	  1.27543	707.93597	 24.90	
 20.397	145.903	  1.02247	 -0.06106	  1.10424	  0.87700	  0.11796	 -0.05127	  1.27294	707.91901	 24.90	
 20.405	150.835	  1.02046	 -0.08714	  1.13854	  0.81654	  0.16059	 -0.05142	  1.27193	707.90900	 24.90	
 20.401	155.705	  1.02283	 -0.10644	  1.17153	  0.75886	  0.20805	 -0.05280	  1.27531	707.81299	 24.90	
 20.392	160.496	  1.01995	 -0.12378	  1.19254	  0.69746	  0.25464	 -0.05695	  1.27163	708.01300	 24.90	
 20.410	165.423	  1.02047	 -0.13858	  1.21294	  0.63442	  0.30791	 -0.05749	  1.27276	707.86700	 24.90	
 20.407	170.264	  1.01462	 -0.14906	  1.22083	  0.56967	  0.35981	 -0.05579	  1.26865	708.08099	 24.90	
 20.401	175.153	  1.01835	 -0.15496	  1.23282	  0.51016	  0.41767	 -0.05580	  1.27324	708.02100	 24.90	
  0.141	 45.000	  1.27842	  0.68844	  0.69544	  0.69454	  0.70299	  0.00884	  1.26833	707.92798	 24.90	
  4.001	128.691	  1.27411	  0.58790	  0.77146	  0.78031	  0.59503	  0.00397	  1.26822	707.91101	 24.90	
  4.002	 76.995	  1.27579	  0.70633	  0.65026	  0.80957	  0.57174	  0.00489	  1.27013	707.91199	 24.90	
  4.002	 25.892	  1.27774	  0.80830	  0.56002	  0.72968	  0.64103	  0.00301	  1.27200	707.99597	 24.90	
  4.002	-25.892	  1.27734	  0.80743	  0.55885	  0.60536	  0.76510	  0.00083	  1.27349	707.91498	 24.90	
  4.002	-76.995	  1.27518	  0.70310	  0.64839	  0.53333	  0.84515	 -0.00039	  1.27146	707.86298	 24.90	
  4.001	-128.691	  1.27714	  0.58468	  0.77366	  0.56004	  0.81693	  0.00083	  1.27389	708.01300	 24.90	
  4.000	180.000	  1.27692	  0.53752	  0.83097	  0.66679	  0.70155	  0.00347	  1.27167	708.11401	 24.90	
  8.000	180.000	  1.24990	  0.36529	  0.96350	  0.63688	  0.67171	 -0.01384	  1.27038	707.99298	 24.90	
  7.991	-152.370	  1.24806	  0.39255	  0.92543	  0.50352	  0.81011	 -0.01320	  1.27072	708.04999	 24.90	
  7.997	-124.550	  1.24996	  0.47759	  0.82491	  0.40533	  0.92527	 -0.01644	  1.27356	708.07703	 24.90	
  8.006	-96.837	  1.24510	  0.60162	  0.68485	  0.35931	  0.97651	 -0.02023	  1.27020	707.99298	 24.90	
  7.988	-69.228	  1.24916	  0.74721	  0.54849	  0.37629	  0.96083	 -0.02037	  1.27365	708.06097	 24.90	
  7.997	-41.563	  1.24703	  0.87185	  0.43948	  0.44609	  0.87414	 -0.02001	  1.27104	707.98798	 24.90	
  8.008	-13.821	  1.24696	  0.94522	  0.38194	  0.56455	  0.74214	 -0.01541	  1.26810	707.98499	 24.90	
  8.008	 13.821	  1.25241	  0.95068	  0.38411	  0.70876	  0.60452	 -0.01449	  1.27253	708.02600	 24.90	
  7.997	 41.563	  1.25443	  0.88010	  0.44397	  0.84105	  0.48835	 -0.01093	  1.27268	708.04401	 24.90	
  7.988	 69.228	  1.25299	  0.75539	  0.55169	  0.92895	  0.41679	 -0.00822	  1.27033	707.95697	 24.90	
  8.006	 96.837	  1.25641	  0.61435	  0.69134	  0.95150	  0.40288	 -0.00931	  1.27354	708.09698	 24.90	
  7.997	124.550	  1.25360	  0.48600	  0.82716	  0.89503	  0.44516	 -0.01097	  1.27219	708.09998	 24.90	
  7.991	152.370	  1.25096	  0.39808	  0.92633	  0.77811	  0.54106	 -0.01013	  1.26964	707.99500	 24.90	
 12.009	161.059	  1.19708	  0.21119	  1.04842	  0.73668	  0.48540	 -0.03339	  1.26702	708.01801	 24.90	
 12.013	142.081	  1.20270	  0.27302	  0.97653	  0.87908	  0.37009	 -0.03262	  1.27153	707.91199	 24.90	
 12.006	123.113	  1.20161	  0.36954	  0.85915	  0.98546	  0.28545	 -0.03285	  1.26971	707.88397	 24.90	
 12.007	104.200	  1.20029	  0.49505	  0.71773	  1.04910	  0.23617	 -0.03139	  1.26827	707.96198	 24.90	
 11.989	 85.301	  1.20527	  0.64192	  0.57366	  1.06589	  0.22798	 -0.03062	  1.27303	707.96997	 24.90	
 12.013	 66.294	  1.20180	  0.78743	  0.43556	  1.02315	  0.25642	 -0.02870	  1.26985	707.96997	 24.90	
 12.012	 47.388	  1.20451	  0.92063	  0.32482	  0.93543	  0.32484	 -0.03169	  1.27368	708.02100	 24.90	
 11.990	 28.440	  1.20541	  1.01965	  0.24719	  0.81119	  0.42754	 -0.03203	  1.27565	707.95599	 24.90	
 11.991	  9.464	  1.20322	  1.06933	  0.20703	  0.66499	  0.55584	 -0.03670	  1.27521	707.93103	 24.90	
 11.991	 -9.464	  1.19952	  1.06487	  0.20587	  0.51712	  0.69887	 -0.03823	  1.27276	707.91901	 24.90	
 11.990	-28.440	  1.19491	  1.00716	  0.24502	  0.38543	  0.84123	 -0.03948	  1.27076	707.90100	 24.90	
 12.012	-47.388	  1.19490	  0.90789	  0.32013	  0.28267	  0.96414	 -0.04478	  1.27220	707.99799	 24.90	
 12.013	-66.294	  1.19202	  0.77281	  0.42915	  0.21310	  1.04936	 -0.04546	  1.27076	708.12000	 24.90	
 11.989	-85.301	  1.19040	  0.62372	  0.56410	  0.18476	  1.08443	 -0.04454	  1.26817	708.08801	 24.90	
 12.007	-104.200	  1.19425	  0.48137	  0.71216	  0.19463	  1.07540	 -0.04488	  1.27205	708.07202	 24.90	
 12.006	-123.113	  1.19204	  0.35724	  0.85135	  0.24349	  1.00956	 -0.04095	  1.26960	708.04602	 24.90	
 12.013	-142.081	  1.19488	  0.26435	  0.97008	  0.33087	  0.90394	 -0.03710	  1.27159	708.01001	 24.90	
 12.009	-161.059	  1.19429	  0.20747	  1.04602	  0.44901	  0.76776	 -0.03660	  1.26876	708.03497	 24.90	
 16.000	180.000	  1.12953	  0.02834	  1.16841	  0.53594	  0.56760	 -0.05813	  1.27655	707.99597	 24.90	
 15.990	-165.604	  1.12502	  0.04439	  1.14346	  0.39802	  0.71015	 -0.05919	  1.27312	708.04999	 24.90	
 16.002	-151.165	  1.12431	  0.08805	  1.08398	  0.27804	  0.85187	 -0.05902	  1.27430	708.00897	 24.90	
 16.002	-136.836	  1.12184	  0.15211	  0.98872	  0.17488	  0.97727	 -0.05928	  1.27403	707.86700	 24.90	
 15.995	-122.439	  1.12179	  0.24898	  0.86699	  0.10493	  1.07656	 -0.06029	  1.27298	707.97101	 24.90	
 15.993	-107.966	  1.11838	  0.35818	  0.72468	  0.04759	  1.14330	 -0.06272	  1.27225	707.98102	 24.90	
 16.005	-93.629	  1.11626	  0.49090	  0.57858	  0.02440	  1.17203	 -0.05955	  1.27106	707.94598	 24.90	
 15.992	-79.234	  1.11779	  0.63818	  0.44135	  0.03531	  1.16368	 -0.05604	  1.27148	708.02100	 24.90	
 16.009	-64.774	  1.11855	  0.78438	  0.31366	  0.06743	  1.11762	 -0.05639	  1.27374	707.98102	 24.90	
 15.997	-50.364	  1.12008	  0.91967	  0.20773	  0.12846	  1.03372	 -0.05865	  1.27337	708.03601	 24.90	
 15.997	-36.045	  1.11983	  1.03143	  0.12274	  0.21208	  0.91854	 -0.05313	  1.27295	708.06403	 24.90	
 16.000	-21.597	  1.12147	  1.11192	  0.06922	  0.32510	  0.78344	 -0.05042	  1.27182	708.03497	 24.90	
 16.003	 -7.169	  1.12411	  1.15632	  0.04071	  0.45749	  0.63921	 -0.04943	  1.27271	708.06097	 24.90	
 16.003	  7.169	  1.12382	  1.15684	  0.04187	  0.60035	  0.49681	 -0.04925	  1.26980	708.12799	 24.90	
 16.000	 21.597	  1.12718	  1.12168	  0.06941	  0.74866	  0.36568	 -0.04677	  1.27294	708.06403	 24.90	
 15.997	 36.045	  1.12757	  1.04496	  0.12449	  0.88676	  0.25369	 -0.04866	  1.27145	708.03802	 24.90	
 15.997	 50.364	  1.12990	  0.93793	  0.20810	  1.00755	  0.16617	 -0.05160	  1.27343	708.00500	 24.90	
 16.009	 64.774	  1.12719	  0.80238	  0.31317	  1.09323	  0.10220	 -0.04835	  1.26936	707.97699	 24.90	
 15.992	 79.234	  1.12745	  0.65635	  0.44346	  1.14429	  0.06915	 -0.05112	  1.26935	708.05798	 24.90	
 16.005	 93.629	  1.12870	  0.50874	  0.58517	  1.15642	  0.05959	 -0.05064	  1.27111	707.96198	 24.90	
 15.993	107.966	  1.13151	  0.37272	  0.73317	  1.12892	  0.08170	 -0.05055	  1.27327	708.03302	 24.90	
 15.995	122.439	  1.12649	  0.25109	  0.87089	  1.05459	  0.13005	 -0.05365	  1.26767	708.07501	 24.90	
 16.002	136.836	  1.13041	  0.15428	  0.99698	  0.95589	  0.20445	 -0.05478	  1.27451	707.91101	 24.90	
 16.002	151.165	  1.12904	  0.08583	  1.08951	  0.82681	  0.30551	 -0.05316	  1.27254	707.97900	 24.90	
 15.990	165.604	  1.12773	  0.04390	  1.14702	  0.68105	  0.42902	 -0.05646	  1.27265	708.02600	 24.90	
 20.003	168.362	  1.02996	 -0.12579	  1.21464	  0.60234	  0.35278	 -0.05923	  1.27248	707.88800	 24.90	
 20.008	156.764	  1.02894	 -0.09338	  1.16807	  0.74641	  0.23078	 -0.05234	  1.26894	707.97101	 24.90	
 20.000	145.147	  1.03304	 -0.03908	  1.09493	  0.88629	  0.12744	 -0.05133	  1.27212	708.01202	 24.90	
 19.995	133.545	  1.03415	  0.03547	  0.99074	  1.00746	  0.04307	 -0.05370	  1.27168	708.03003	 24.90	
 20.009	121.926	  1.03367	  0.12844	  0.86610	  1.10788	 -0.02376	 -0.04968	  1.27191	708.06403	 24.90	
 20.005	110.327	  1.03232	  0.24175	  0.72632	  1.17513	 -0.06722	 -0.04565	  1.27018	707.93103	 24.90	
 19.989	 98.733	  1.04099	  0.37251	  0.58784	  1.22378	 -0.09226	 -0.04594	  1.27965	707.99500	 24.90	
 19.999	 87.075	  1.03701	  0.51167	  0.44206	  1.22655	 -0.09748	 -0.04809	  1.27529	707.85498	 24.90	
 19.992	 75.457	  1.03556	  0.65598	  0.30851	  1.19998	 -0.08138	 -0.04723	  1.27354	708.03003	 24.90	
 20.009	 63.844	  1.03352	  0.79875	  0.18752	  1.14360	 -0.04768	 -0.04558	  1.27341	708.15399	 25.00	
 19.989	 52.269	  1.03272	  0.93128	  0.08686	  1.05592	  0.00905	 -0.04746	  1.27242	707.98798	 24.90	
 19.999	 40.602	  1.02907	  1.04482	  0.00320	  0.94030	  0.08442	 -0.04696	  1.26967	708.01898	 25.00	
 20.004	 29.051	  1.03091	  1.13752	 -0.05953	  0.81047	  0.18037	 -0.03985	  1.27377	707.89398	 25.00	
 20.005	 17.433	  1.02360	  1.19129	 -0.10100	  0.66445	  0.29261	 -0.03790	  1.26650	707.97101	 25.00	
 20.006	  5.780	  1.02661	  1.22432	 -0.12338	  0.52117	  0.42236	 -0.03918	  1.27166	708.02399	 25.00	
 20.006	 -5.780	  1.02463	  1.22103	 -0.12426	  0.38114	  0.56035	 -0.04080	  1.27054	708.01599	 25.00	
 20.005	-17.433	  1.02061	  1.18411	 -0.10402	  0.25006	  0.70157	 -0.04186	  1.26780	708.04602	 25.00	
 20.004	-29.051	  1.02347	  1.12300	 -0.06453	  0.13608	  0.84327	 -0.04693	  1.27443	708.01001	 25.00	
 19.999	-40.602	  1.02165	  1.02808	 -0.00455	  0.03986	  0.96999	 -0.04977	  1.27491	707.88000	 25.00	
 19.989	-52.269	  1.01675	  0.90468	  0.07619	 -0.03809	  1.07627	 -0.04791	  1.27039	708.05701	 25.00	
 20.009	-63.844	  1.01953	  0.77215	  0.17649	 -0.09400	  1.16167	 -0.04876	  1.27580	707.83600	 25.00	
 19.992	-75.457	  1.01676	  0.62498	  0.29447	 -0.13012	  1.21081	 -0.04574	  1.27143	707.92603	 25.00	
 19.999	-87.075	  1.01809	  0.47996	  0.42654	 -0.14680	  1.23376	 -0.04866	  1.27221	708.02899	 24.90	
 19.989	-98.733	  1.02018	  0.34066	  0.56965	 -0.14286	  1.22841	 -0.05566	  1.27526	707.96503	 25.00	
 20.005	-110.327	  1.02068	  0.21415	  0.71329	 -0.11759	  1.19068	 -0.05774	  1.27610	707.97400	 24.90	
 20.009	-121.926	  1.01842	  0.10419	  0.85145	 -0.06986	  1.11898	 -0.06050	  1.27405	708.08801	 24.90	
 19.995	-133.545	  1.02069	  0.01534	  0.97841	 -0.00114	  1.02281	 -0.05989	  1.27468	708.02600	 24.90	
 20.000	-145.147	  1.02148	 -0.05365	  1.08349	  0.08825	  0.90240	 -0.06133	  1.27304	708.02399	 24.90	
 20.008	-156.764	  1.02347	 -0.10357	  1.16308	  0.19545	  0.76777	 -0.05895	  1.27323	708.01202	 24.90	
 20.003	-168.362	  1.02796	 -0.13130	  1.21403	  0.32069	  0.62824	 -0.05721	  1.27562	708.01801	 24.90	
 20.000	180.000	  1.03131	 -0.13947	  1.23250	  0.45886	  0.48792	 -0.05604	  1.27639	707.99500	 24.90	
