FileType=PCF
NHL=14
Date=08/28/17	17:21:15
Facility=APL
Serial=16328-12
Customer=NASA
NP=6
Mach=0.150000
Calibration=1:1
CalPts=490
TstPts=95
PortNumbering=AP Standard
Units=Torr C m/s kg/m^3 deg mm 
Theta[deg]	Phi[deg]	P1[Torr]	P2[Torr]	P3[Torr]	P4[Torr]	P5[Torr]	P6[Torr]	Pt[Torr]	Ps[Abs,Torr]	Ts[C]	
  0.000	  0.000	 11.11763	  5.78017	  5.86619	  5.74683	  6.04306	  0.07474	 11.10348	707.37598	 24.00	
  1.691	128.401	 11.11292	  5.41933	  6.19713	  6.17026	  5.59857	  0.07356	 11.10308	707.38202	 24.00	
  1.692	 77.194	 11.11984	  5.89763	  5.72791	  6.28698	  5.49113	  0.07205	 11.10830	707.30603	 24.00	
  1.699	 26.182	 11.12095	  6.27986	  5.35812	  5.98899	  5.78113	  0.06976	 11.10756	707.45502	 24.00	
  1.699	-26.182	 11.13278	  6.28505	  5.36347	  5.50154	  6.27572	  0.06569	 11.12113	707.37402	 24.00	
  1.692	-77.194	 11.14751	  5.90559	  5.74470	  5.22187	  6.57839	  0.06260	 11.13772	707.32001	 24.00	
  1.691	-128.401	 11.11653	  5.42344	  6.19670	  5.30607	  6.45991	  0.06462	 11.10627	707.30603	 24.00	
  1.700	180.000	 11.12686	  5.21810	  6.41843	  5.73835	  6.03505	  0.06851	 11.11541	707.26501	 23.90	
  3.400	180.000	 11.10472	  4.64113	  6.94507	  5.68669	  5.98451	  0.04851	 11.11071	707.24103	 24.00	
  3.388	-152.325	 11.10770	  4.76753	  6.79777	  5.19105	  6.49380	  0.02880	 11.11809	707.36200	 23.90	
  3.397	-124.529	 11.09393	  5.08867	  6.43058	  4.80514	  6.88862	  0.02450	 11.10592	707.24402	 23.90	
  3.399	-96.763	 11.11431	  5.58360	  5.93857	  4.63421	  7.09748	  0.01629	 11.12459	707.35199	 24.00	
  3.394	-69.283	 11.09731	  6.09592	  5.41153	  4.68906	  7.01268	  0.01612	 11.11038	707.43298	 23.90	
  3.400	-41.398	 11.08588	  6.55538	  4.98073	  4.96919	  6.69213	  0.01929	 11.09561	707.30402	 23.90	
  3.401	-14.021	 11.09928	  6.83229	  4.76002	  5.42511	  6.23984	  0.03881	 11.10291	707.23901	 23.90	
  3.401	 14.021	 11.09016	  6.81217	  4.75953	  5.95886	  5.69675	  0.03328	 11.09355	707.35901	 23.90	
  3.400	 41.398	 11.10751	  6.56727	  5.00214	  6.43645	  5.26887	  0.04682	 11.10919	707.40399	 23.90	
  3.394	 69.283	 11.11171	  6.13592	  5.41731	  6.72592	  4.99535	  0.04539	 11.11155	707.36603	 23.90	
  3.399	 96.763	 11.10935	  5.58295	  5.95361	  6.80063	  4.92977	  0.04499	 11.10883	707.45300	 23.90	
  3.397	124.529	 11.10344	  5.10503	  6.44350	  6.61895	  5.10162	  0.05220	 11.10471	707.50000	 23.90	
  3.388	152.325	 11.10117	  4.76723	  6.80574	  6.21137	  5.48034	  0.04997	 11.10585	707.42499	 23.90	
  5.099	161.165	 11.05706	  4.11250	  7.37005	  6.15256	  5.37320	  0.00119	 11.11369	707.49799	 23.90	
  5.109	142.013	 11.05237	  4.35375	  7.08942	  6.65778	  4.90645	 -0.00162	 11.10470	707.48602	 23.90	
  5.095	123.033	 11.07635	  4.74809	  6.67795	  7.05323	  4.58151	 -0.00248	 11.12757	707.43298	 23.90	
  5.105	104.191	 11.06346	  5.23285	  6.13979	  7.29080	  4.36375	 -0.00283	 11.11359	707.25598	 23.90	
  5.093	 85.207	 11.05973	  5.77571	  5.59010	  7.32803	  4.32395	  0.00287	 11.10830	707.39697	 23.90	
  5.104	 66.290	 11.06235	  6.33543	  5.06074	  7.18406	  4.44131	  0.00571	 11.10866	707.37598	 23.90	
  5.094	 47.331	 11.04511	  6.80182	  4.61628	  6.85559	  4.70921	  0.00116	 11.09741	707.38800	 23.90	
  5.089	 28.397	 11.06469	  7.17954	  4.30816	  6.41545	  5.11761	 -0.00182	 11.12289	707.33698	 23.90	
  5.096	  9.576	 11.04688	  7.36548	  4.13033	  5.87882	  5.60424	 -0.01082	 11.10533	707.35901	 23.90	
  5.096	 -9.576	 11.05245	  7.36572	  4.13053	  5.31179	  6.17256	 -0.01718	 11.11129	707.28998	 23.90	
  5.089	-28.397	 11.04643	  7.16482	  4.29378	  4.81777	  6.69148	 -0.02328	 11.10948	707.35699	 23.80	
  5.094	-47.331	 11.01923	  6.78548	  4.59417	  4.39646	  7.13192	 -0.03393	 11.09047	707.41400	 23.80	
  5.104	-66.290	 11.00758	  6.29082	  5.02954	  4.10462	  7.45462	 -0.04060	 11.08206	707.44098	 23.80	
  5.093	-85.207	 11.03628	  5.75679	  5.56793	  3.99232	  7.61812	 -0.04195	 11.11281	707.45203	 23.80	
  5.105	-104.191	 11.02439	  5.19752	  6.12095	  4.02664	  7.56269	 -0.03394	 11.10116	707.40802	 23.80	
  5.095	-123.033	 11.06218	  4.72969	  6.66103	  4.24906	  7.35120	 -0.02587	 11.13437	707.43103	 23.80	
  5.109	-142.013	 11.03755	  4.33647	  7.07546	  4.58995	  6.94297	 -0.01813	 11.10743	707.41101	 23.80	
  5.099	-161.165	 11.04975	  4.10129	  7.36370	  5.06959	  6.44040	 -0.00912	 11.11754	707.36200	 23.80	
  5.100	180.000	 11.03555	  4.02211	  7.45417	  5.59636	  5.89046	  0.00430	 11.09559	707.42200	 23.80	
  6.800	180.000	 10.94752	  3.37386	  7.95741	  5.48324	  5.78717	 -0.07305	 11.10504	707.42798	 23.80	
  6.796	-166.229	 10.96661	  3.43263	  7.90308	  4.96574	  6.33225	 -0.07512	 11.12908	707.44702	 23.80	
  6.808	-152.311	 10.93769	  3.59081	  7.67955	  4.46191	  6.83879	 -0.07930	 11.10474	707.53400	 23.80	
  6.795	-138.383	 10.94658	  3.87389	  7.35296	  4.03743	  7.31622	 -0.09444	 11.11766	707.57001	 23.80	
  6.792	-124.591	 10.93741	  4.25028	  6.91498	  3.70034	  7.69261	 -0.09600	 11.10960	707.56201	 23.80	
  6.787	-110.754	 10.92932	  4.70661	  6.40808	  3.46972	  7.95722	 -0.10209	 11.10308	707.57397	 23.80	
  6.800	-96.985	 10.94105	  5.22610	  5.87780	  3.35571	  8.10548	 -0.12310	 11.11863	707.45502	 23.80	
  6.800	-83.015	 10.94030	  5.78225	  5.32306	  3.36002	  8.10151	 -0.12490	 11.11543	707.37598	 23.80	
  6.787	-69.246	 10.91496	  6.30919	  4.80039	  3.47074	  7.94398	 -0.12456	 11.09069	707.47601	 23.80	
  6.792	-55.409	 10.94017	  6.83193	  4.35099	  3.70290	  7.69667	 -0.12081	 11.11431	707.52301	 23.80	
  6.795	-41.617	 10.93432	  7.26302	  3.97030	  4.03415	  7.30763	 -0.11037	 11.10610	707.46198	 23.80	
  6.808	-27.689	 10.91852	  7.59816	  3.67646	  4.45247	  6.81949	 -0.09739	 11.08301	707.47803	 23.80	
  6.796	-13.771	 10.96701	  7.84037	  3.52359	  4.96035	  6.32695	 -0.08776	 11.12937	707.47601	 23.80	
  6.800	  0.000	 10.95030	  7.90080	  3.46170	  5.47977	  5.77909	 -0.08711	 11.10398	707.46899	 23.80	
  6.796	 13.771	 10.95649	  7.83514	  3.52466	  6.03026	  5.25180	 -0.07855	 11.11057	707.34497	 23.80	
  6.808	 27.689	 10.96308	  7.63124	  3.69629	  6.56105	  4.76420	 -0.07239	 11.11545	707.35101	 23.80	
  6.795	 41.617	 10.96644	  7.28998	  3.99030	  7.02551	  4.35691	 -0.06751	 11.10891	707.46399	 23.80	
  6.792	 55.409	 10.96447	  6.85133	  4.36817	  7.40803	  4.03030	 -0.06399	 11.10858	707.32800	 23.80	
  6.787	 69.246	 10.94671	  6.33897	  4.82142	  7.67017	  3.80406	 -0.05856	 11.08729	707.34497	 23.80	
  6.800	 83.015	 10.95895	  5.80645	  5.33486	  7.82778	  3.68849	 -0.06720	 11.10310	707.33099	 23.80	
  6.800	 96.985	 10.96322	  5.25141	  5.88817	  7.83905	  3.68951	 -0.06925	 11.10677	707.34497	 23.80	
  6.787	110.754	 10.96242	  4.73875	  6.42380	  7.68937	  3.80889	 -0.06943	 11.10228	707.38501	 23.80	
  6.792	124.591	 10.97932	  4.28869	  6.93456	  7.42934	  4.04117	 -0.06720	 11.11950	707.48297	 23.80	
  6.795	138.383	 10.98994	  3.91398	  7.37125	  7.05079	  4.37413	 -0.06628	 11.13529	707.44098	 23.80	
  6.808	152.311	 10.98216	  3.62027	  7.70535	  6.58036	  4.78266	 -0.05933	 11.13020	707.31500	 23.80	
  6.796	166.229	 10.94546	  3.43857	  7.88407	  6.03269	  5.25549	 -0.06364	 11.10134	707.35699	 23.80	
  8.491	168.704	 10.81679	  2.75998	  8.37456	  5.91489	  5.09951	 -0.14821	 11.10632	707.28699	 23.80	
  8.502	157.493	 10.83997	  2.90276	  8.22478	  6.47151	  4.60363	 -0.13589	 11.12614	707.34900	 23.80	
  8.494	146.194	 10.83290	  3.13890	  7.93255	  6.97818	  4.14659	 -0.14274	 11.11215	707.30701	 23.80	
  8.495	135.039	 10.83879	  3.45922	  7.56164	  7.43982	  3.75681	 -0.15137	 11.11411	707.34601	 23.80	
  8.487	123.723	 10.84561	  3.86576	  7.10328	  7.82784	  3.44212	 -0.15987	 11.12224	707.45300	 23.80	
  8.492	112.575	 10.83390	  4.32590	  6.58502	  8.09917	  3.21068	 -0.15776	 11.10838	707.43799	 23.80	
  8.510	101.220	 10.84256	  4.84847	  6.03964	  8.28506	  3.07039	 -0.16809	 11.12098	707.47998	 23.80	
  8.500	 90.000	 10.82391	  5.39186	  5.47110	  8.31965	  3.02470	 -0.16599	 11.09706	707.46899	 23.80	
  8.510	 78.780	 10.83555	  5.96096	  4.92697	  8.27258	  3.06476	 -0.15629	 11.11041	707.35199	 23.80	
  8.492	 67.425	 10.83766	  6.51854	  4.41064	  8.09089	  3.21263	 -0.13882	 11.11373	707.35999	 23.80	
  8.487	 56.277	 10.82491	  7.02090	  3.94618	  7.80191	  3.43020	 -0.14084	 11.10261	707.47601	 23.80	
  8.495	 44.961	 10.82476	  7.49109	  3.53870	  7.42104	  3.74391	 -0.14860	 11.10498	707.27899	 23.80	
  8.494	 33.806	 10.81672	  7.86344	  3.22155	  6.95616	  4.13576	 -0.14902	 11.10122	707.39697	 23.80	
  8.502	 22.507	 10.82210	  8.15968	  2.98316	  6.44911	  4.59286	 -0.15653	 11.11346	707.39001	 23.80	
  8.491	 11.296	 10.81456	  8.32640	  2.84530	  5.90451	  5.09225	 -0.16634	 11.10718	707.35199	 23.80	
  8.500	  0.000	 10.79501	  8.37182	  2.78950	  5.33007	  5.63331	 -0.17079	 11.09109	707.25800	 23.80	
  8.491	-11.296	 10.80384	  8.31515	  2.83780	  4.78916	  6.19286	 -0.16852	 11.10135	707.30603	 23.80	
  8.502	-22.507	 10.81410	  8.14828	  2.97581	  4.28284	  6.73862	 -0.17613	 11.11978	707.42798	 23.80	
  8.494	-33.806	 10.78934	  7.83841	  3.20698	  3.80689	  7.24233	 -0.19087	 11.10229	707.47998	 23.80	
  8.495	-44.961	 10.78314	  7.45119	  3.52137	  3.40983	  7.69232	 -0.20263	 11.10200	707.47998	 23.80	
  8.487	-56.277	 10.78209	  6.98240	  3.92567	  3.09901	  8.06478	 -0.21590	 11.09967	707.23602	 23.80	
  8.492	-67.425	 10.80376	  6.48228	  4.39257	  2.87331	  8.36103	 -0.22135	 11.13004	707.36902	 23.80	
  8.510	-78.780	 10.79117	  5.91439	  4.90563	  2.72136	  8.53190	 -0.22289	 11.11765	707.39301	 23.80	
  8.500	-90.000	 10.81367	  5.35714	  5.46649	  2.67803	  8.60308	 -0.22140	 11.13820	707.36499	 23.80	
  8.510	-101.220	 10.77387	  4.78799	  6.00206	  2.70756	  8.51800	 -0.20839	 11.09399	707.39697	 23.80	
  8.492	-112.575	 10.79066	  4.28056	  6.56600	  2.86655	  8.34791	 -0.18439	 11.11046	707.39600	 23.80	
  8.487	-123.723	 10.79453	  3.82509	  7.07767	  3.09924	  8.07161	 -0.17393	 11.11347	707.40802	 23.80	
  8.495	-135.039	 10.78329	  3.42175	  7.52853	  3.40597	  7.69650	 -0.17085	 11.10278	707.28998	 23.80	
  8.494	-146.194	 10.79204	  3.11470	  7.90662	  3.80988	  7.24830	 -0.16442	 11.10407	707.30701	 23.80	
  8.502	-157.493	 10.79367	  2.88153	  8.19133	  4.28169	  6.72965	 -0.15672	 11.09749	707.35999	 23.80	
  8.491	-168.704	 10.81587	  2.75390	  8.37474	  4.79952	  6.20277	 -0.15745	 11.11422	707.33698	 23.80	
  8.500	180.000	 10.81176	  2.70459	  8.43284	  5.34281	  5.64885	 -0.15322	 11.10158	707.46997	 23.80	
 10.200	180.000	 10.64678	  2.04062	  8.88636	  5.18456	  5.48707	 -0.25128	 11.11921	707.38501	 23.80	
 10.191	-170.497	 10.63048	  2.07329	  8.82507	  4.62633	  6.03603	 -0.25224	 11.10771	707.34900	 23.80	
 10.210	-161.034	 10.64304	  2.18692	  8.69169	  4.10600	  6.59809	 -0.24725	 11.12834	707.34497	 23.80	
 10.194	-151.526	 10.63407	  2.38437	  8.43477	  3.61060	  7.13667	 -0.25250	 11.12679	707.34100	 23.80	
 10.190	-142.105	 10.61213	  2.64350	  8.08836	  3.16767	  7.61638	 -0.25686	 11.10874	707.30603	 23.80	
 10.215	-132.646	 10.61060	  2.97449	  7.68619	  2.79526	  8.05036	 -0.25466	 11.11343	707.35199	 23.80	
 10.203	-123.092	 10.61657	  3.38231	  7.21312	  2.49209	  8.42521	 -0.26061	 11.12211	707.37598	 23.80	
 10.192	-113.678	 10.60160	  3.83720	  6.67919	  2.25571	  8.70251	 -0.27274	 11.10632	707.37299	 23.80	
 10.208	-104.249	 10.60528	  4.34115	  6.13423	  2.09155	  8.90806	 -0.29921	 11.11377	707.27197	 23.80	
 10.210	-94.801	 10.61212	  4.88760	  5.57216	  2.01348	  9.01725	 -0.31473	 11.12501	707.37598	 23.80	
 10.210	-85.199	 10.59159	  5.45479	  4.99141	  2.01236	  9.00177	 -0.33089	 11.10340	707.35101	 23.80	
 10.208	-75.751	 10.59461	  6.02810	  4.45327	  2.09187	  8.90794	 -0.33174	 11.10774	707.28302	 23.80	
 10.192	-66.322	 10.59588	  6.58300	  3.95328	  2.25861	  8.70336	 -0.32219	 11.10858	707.43597	 23.80	
 10.203	-56.908	 10.60839	  7.11980	  3.49515	  2.48992	  8.43039	 -0.31643	 11.11970	707.35901	 23.80	
 10.215	-47.354	 10.59931	  7.60027	  3.07978	  2.79060	  8.05137	 -0.30248	 11.10763	707.46399	 23.80	
 10.190	-37.895	 10.60778	  8.01350	  2.74632	  3.16450	  7.61607	 -0.28434	 11.11128	707.42499	 23.80	
 10.194	-28.474	 10.61437	  8.35694	  2.47815	  3.59430	  7.12603	 -0.27138	 11.10642	707.32599	 23.80	
 10.210	-18.966	 10.63904	  8.63313	  2.28106	  4.09327	  6.59695	 -0.26537	 11.13220	707.44501	 23.80	
 10.191	 -9.503	 10.62083	  8.76712	  2.16332	  4.60982	  6.03189	 -0.26025	 11.10349	707.36499	 23.80	
 10.200	  0.000	 10.64675	  8.84282	  2.12931	  5.17195	  5.48371	 -0.26428	 11.12772	707.38300	 23.80	
 10.191	  9.503	 10.63886	  8.79177	  2.16337	  5.73846	  4.92011	 -0.27097	 11.11245	707.41302	 23.80	
 10.210	 18.966	 10.63607	  8.64354	  2.27435	  6.29432	  4.39846	 -0.25688	 11.10951	707.32800	 23.80	
 10.194	 28.474	 10.66860	  8.41027	  2.48811	  6.85226	  3.93092	 -0.24536	 11.13722	707.34100	 23.80	
 10.190	 37.895	 10.64923	  8.06017	  2.75378	  7.34143	  3.49299	 -0.23929	 11.10952	707.30402	 23.80	
 10.215	 47.354	 10.63946	  7.64769	  3.08413	  7.78819	  3.10998	 -0.23093	 11.10245	707.25000	 23.80	
 10.203	 56.908	 10.63055	  7.16139	  3.49546	  8.14730	  2.81602	 -0.22094	 11.08307	707.29999	 23.80	
 10.192	 66.322	 10.65085	  6.64793	  3.96822	  8.44798	  2.59964	 -0.21540	 11.09970	707.25500	 23.80	
 10.208	 75.751	 10.67399	  6.11035	  4.47988	  8.67300	  2.44506	 -0.23622	 11.12834	707.35199	 23.80	
 10.210	 85.199	 10.65184	  5.52880	  5.01276	  8.76211	  2.36147	 -0.25601	 11.10462	707.38000	 23.80	
 10.210	 94.801	 10.66564	  4.95578	  5.59618	  8.77545	  2.36414	 -0.27062	 11.11965	707.31000	 23.80	
 10.208	104.249	 10.66541	  4.40752	  6.16130	  8.67344	  2.44802	 -0.26711	 11.11429	707.32098	 23.80	
 10.192	113.678	 10.66533	  3.89487	  6.71326	  8.47219	  2.60576	 -0.25845	 11.11518	707.43799	 23.80	
 10.203	123.092	 10.66382	  3.42118	  7.23452	  8.18614	  2.82740	 -0.25288	 11.11495	707.37598	 23.80	
 10.215	132.646	 10.65673	  3.00404	  7.70996	  7.81022	  3.12539	 -0.24693	 11.11095	707.43298	 23.80	
 10.190	142.105	 10.65553	  2.67001	  8.11191	  7.36204	  3.49927	 -0.23747	 11.10616	707.47498	 23.80	
 10.194	151.526	 10.65322	  2.39636	  8.44464	  6.85869	  3.93105	 -0.22486	 11.10991	707.41901	 23.80	
 10.210	161.034	 10.65201	  2.19556	  8.69403	  6.31934	  4.41281	 -0.22672	 11.11340	707.45898	 23.80	
 10.191	170.497	 10.65547	  2.08531	  8.84101	  5.76468	  4.93399	 -0.24129	 11.12264	707.40698	 23.80	
 11.899	171.783	 10.42506	  1.41146	  9.24484	  5.56723	  4.72845	 -0.33200	 11.11171	707.48602	 23.80	
 11.890	163.610	 10.44742	  1.51481	  9.13278	  6.14095	  4.21430	 -0.31770	 11.12677	707.52600	 23.80	
 11.889	155.445	 10.44436	  1.68022	  8.91590	  6.69081	  3.72069	 -0.31108	 11.11899	707.52301	 23.80	
 11.909	147.299	 10.44417	  1.90065	  8.62853	  7.22277	  3.25828	 -0.31929	 11.12135	707.48401	 23.80	
 11.902	139.148	 10.44971	  2.19677	  8.26231	  7.71324	  2.85826	 -0.32842	 11.12046	707.53802	 23.80	
 11.894	130.867	 10.45290	  2.56396	  7.82131	  8.14187	  2.51741	 -0.33583	 11.11861	707.53101	 23.80	
 11.897	122.732	 10.45937	  2.97875	  7.34273	  8.51639	  2.22803	 -0.35057	 11.12366	707.46997	 23.80	
 11.903	114.597	 10.44506	  3.43050	  6.81305	  8.80800	  1.99260	 -0.36369	 11.11336	707.48401	 23.80	
 11.893	106.346	 10.44898	  3.95411	  6.25214	  9.02932	  1.82783	 -0.37560	 11.11919	707.45300	 23.80	
 11.892	 98.155	 10.43135	  4.49123	  5.67231	  9.14248	  1.73052	 -0.37641	 11.09896	707.25000	 23.80	
 11.900	 90.000	 10.42807	  5.05189	  5.10263	  9.18565	  1.69018	 -0.36651	 11.10061	707.41901	 23.80	
 11.892	 81.845	 10.42278	  5.62225	  4.54210	  9.13108	  1.72524	 -0.34439	 11.09289	707.46100	 23.80	
 11.893	 73.654	 10.43121	  6.19489	  4.01096	  9.00603	  1.82029	 -0.31922	 11.10241	707.50098	 23.80	
 11.903	 65.403	 10.45316	  6.77334	  3.51044	  8.80474	  1.98646	 -0.29969	 11.12891	707.55701	 23.80	
 11.897	 57.268	 10.44403	  7.29839	  3.04730	  8.49373	  2.21573	 -0.30018	 11.11985	707.47498	 23.80	
 11.894	 49.133	 10.43411	  7.77279	  2.64476	  8.11351	  2.50704	 -0.30773	 11.10925	707.25598	 23.80	
 11.902	 40.852	 10.43947	  8.21516	  2.28626	  7.68754	  2.85390	 -0.32294	 11.12238	707.35400	 23.80	
 11.909	 32.701	 10.42043	  8.56940	  1.98974	  7.18992	  3.24864	 -0.33540	 11.10442	707.24200	 23.80	
 11.889	 24.555	 10.42528	  8.86365	  1.76532	  6.66211	  3.70864	 -0.34648	 11.11676	707.42102	 23.80	
 11.890	 16.390	 10.42679	  9.08278	  1.60249	  6.11123	  4.20419	 -0.35488	 11.12107	707.42999	 23.80	
 11.899	  8.217	 10.42814	  9.21673	  1.50217	  5.54936	  4.72833	 -0.35486	 11.12641	707.44098	 23.80	
 11.900	  0.000	 10.42262	  9.25375	  1.46936	  4.96926	  5.28854	 -0.35579	 11.12395	707.36603	 23.80	
 11.899	 -8.217	 10.41952	  9.20522	  1.49872	  4.41393	  5.84968	 -0.34896	 11.12844	707.39899	 23.80	
 11.890	-16.390	 10.40311	  9.05471	  1.60034	  3.88368	  6.40047	 -0.34831	 11.10956	707.53101	 23.80	
 11.889	-24.555	 10.39607	  8.82800	  1.76377	  3.38121	  6.95187	 -0.35087	 11.11142	707.42499	 23.80	
 11.909	-32.701	 10.38594	  8.52496	  1.98552	  2.92483	  7.46937	 -0.36531	 11.11263	707.42200	 23.80	
 11.902	-40.852	 10.39149	  8.15718	  2.28065	  2.52903	  7.94838	 -0.36954	 11.12299	707.53101	 23.80	
 11.894	-49.133	 10.38193	  7.70562	  2.63443	  2.17305	  8.37650	 -0.38739	 11.11887	707.62500	 23.80	
 11.897	-57.268	 10.37774	  7.21500	  3.03647	  1.87847	  8.73921	 -0.40608	 11.11583	707.54797	 23.80	
 11.903	-65.403	 10.36646	  6.67419	  3.48879	  1.65010	  9.02323	 -0.41121	 11.10650	707.45898	 23.80	
 11.893	-73.654	 10.37773	  6.11539	  3.99456	  1.49061	  9.24181	 -0.41487	 11.11491	707.56299	 23.80	
 11.892	-81.845	 10.38040	  5.54270	  4.52751	  1.39476	  9.36823	 -0.41882	 11.11549	707.51703	 23.80	
 11.900	-90.000	 10.37555	  4.96719	  5.07779	  1.35736	  9.40785	 -0.41565	 11.11137	707.51398	 23.80	
 11.892	-98.155	 10.38411	  4.41117	  5.64735	  1.39464	  9.36634	 -0.40598	 11.11322	707.50702	 23.80	
 11.893	-106.346	 10.37389	  3.87128	  6.21039	  1.48613	  9.22964	 -0.38770	 11.10443	707.39001	 23.80	
 11.903	-114.597	 10.38076	  3.36779	  6.77215	  1.64575	  9.02701	 -0.36018	 11.11522	707.53699	 23.80	
 11.897	-122.732	 10.37541	  2.91697	  7.29152	  1.87780	  8.72697	 -0.34615	 11.10283	707.45300	 23.80	
 11.894	-130.867	 10.37859	  2.52240	  7.77294	  2.17216	  8.36164	 -0.33271	 11.10365	707.39301	 23.80	
 11.902	-139.148	 10.37506	  2.16889	  8.20934	  2.52823	  7.92459	 -0.33514	 11.09305	707.41101	 23.80	
 11.909	-147.299	 10.41803	  1.88898	  8.61106	  2.93932	  7.48490	 -0.34446	 11.13840	707.24200	 23.80	
 11.889	-155.445	 10.41708	  1.67259	  8.89297	  3.39795	  6.95966	 -0.35064	 11.12539	707.36798	 23.80	
 11.890	-163.610	 10.38019	  1.50596	  9.07574	  3.88958	  6.38405	 -0.34864	 11.08019	707.37402	 23.80	
 11.899	-171.783	 10.42393	  1.41337	  9.24471	  4.43325	  5.85220	 -0.35127	 11.12237	707.36200	 23.80	
 11.900	180.000	 10.42446	  1.37811	  9.28907	  4.98985	  5.28730	 -0.34687	 11.11143	707.41302	 23.80	
 13.600	180.000	 10.16637	  0.71761	  9.66007	  4.76677	  5.05801	 -0.44322	 11.11495	707.24200	 23.80	
 13.608	-172.853	 10.15611	  0.74063	  9.61665	  4.21063	  5.61225	 -0.44709	 11.11660	707.28601	 23.80	
 13.611	-165.583	 10.12889	  0.81957	  9.47690	  3.66321	  6.16161	 -0.44816	 11.08810	707.46198	 23.80	
 13.601	-158.353	 10.16033	  0.96378	  9.31237	  3.15842	  6.75004	 -0.44504	 11.13148	707.33698	 23.80	
 13.609	-151.210	 10.12699	  1.14607	  9.02787	  2.68412	  7.26075	 -0.44366	 11.10398	707.39099	 23.80	
 13.611	-143.999	 10.15897	  1.39150	  8.72582	  2.26532	  7.78922	 -0.43223	 11.14763	707.42999	 23.80	
 13.601	-136.825	 10.12362	  1.68989	  8.30059	  1.87702	  8.23003	 -0.41790	 11.11126	707.49402	 23.80	
 13.596	-129.640	 10.12977	  2.04080	  7.85382	  1.54598	  8.65454	 -0.41289	 11.12394	707.49500	 23.80	
 13.611	-122.431	 10.14741	  2.44348	  7.37113	  1.26641	  9.03120	 -0.41707	 11.14121	707.46198	 23.80	
 13.604	-115.211	 10.12537	  2.88771	  6.82750	  1.04870	  9.30128	 -0.43410	 11.11948	707.54303	 23.80	
 13.595	-108.042	 10.12094	  3.37612	  6.27010	  0.88276	  9.52267	 -0.45930	 11.11539	707.49402	 23.80	
 13.607	-100.793	 10.12568	  3.90202	  5.70495	  0.76960	  9.68549	 -0.47473	 11.12014	707.48999	 23.80	
 13.601	-93.617	 10.13501	  4.45561	  5.14022	  0.71628	  9.77287	 -0.47589	 11.13772	707.42200	 23.80	
 13.601	-86.383	 10.11161	  5.01690	  4.56276	  0.71403	  9.75378	 -0.47666	 11.11314	707.49500	 23.80	
 13.607	-79.207	 10.11285	  5.59036	  4.02043	  0.76555	  9.68681	 -0.47437	 11.11754	707.47803	 23.80	
 13.595	-71.958	 10.13380	  6.17766	  3.51061	  0.88531	  9.55108	 -0.46949	 11.14236	707.49402	 23.80	
 13.604	-64.789	 10.09280	  6.71480	  3.00827	  1.04408	  9.29691	 -0.46481	 11.09858	707.46899	 23.80	
 13.611	-57.569	 10.12091	  7.27498	  2.56366	  1.25952	  9.03269	 -0.45316	 11.13251	707.56299	 23.80	
 13.596	-50.360	 10.10475	  7.76215	  2.15937	  1.53532	  8.65995	 -0.44641	 11.11134	707.50897	 23.80	
 13.601	-43.175	 10.12392	  8.23309	  1.81045	  1.86927	  8.25427	 -0.43277	 11.12268	707.47998	 23.80	
 13.611	-36.001	 10.10786	  8.62451	  1.49939	  2.24490	  7.77006	 -0.42715	 11.10183	707.56500	 23.80	
 13.609	-28.790	 10.14774	  8.99350	  1.25508	  2.67534	  7.28887	 -0.42500	 11.13642	707.52502	 23.80	
 13.601	-21.647	 10.14098	  9.25286	  1.06078	  3.13350	  6.74901	 -0.41008	 11.12430	707.55603	 23.80	
 13.611	-14.417	 10.14181	  9.45093	  0.91888	  3.64324	  6.17992	 -0.41283	 11.11578	707.42200	 23.80	
 13.608	 -7.147	 10.14063	  9.56858	  0.83490	  4.17901	  5.60906	 -0.41112	 11.10638	707.62402	 23.80	
 13.600	  0.000	 10.14678	  9.61397	  0.81051	  4.73277	  5.05607	 -0.41124	 11.10953	707.36798	 23.80	
 13.608	  7.147	 10.15826	  9.59450	  0.83483	  5.30638	  4.50430	 -0.42184	 11.11918	707.47803	 23.80	
 13.611	 14.417	 10.17448	  9.49501	  0.91767	  5.88917	  3.97376	 -0.43170	 11.13160	707.50299	 23.80	
 13.601	 21.647	 10.17101	  9.29368	  1.05941	  6.44953	  3.47009	 -0.42872	 11.12237	707.48602	 23.80	
 13.609	 28.790	 10.16540	  9.03127	  1.24937	  6.99364	  2.99801	 -0.42017	 11.11849	707.40399	 23.80	
 13.611	 36.001	 10.15429	  8.69161	  1.49855	  7.49773	  2.57185	 -0.40982	 11.09736	707.46899	 23.80	
 13.601	 43.175	 10.19124	  8.32485	  1.81604	  7.99389	  2.21108	 -0.39223	 11.13265	707.37402	 23.80	
 13.596	 50.360	 10.16953	  7.85735	  2.16452	  8.40564	  1.87280	 -0.37665	 11.10810	707.43298	 23.80	
 13.611	 57.569	 10.17919	  7.36588	  2.56710	  8.79107	  1.58740	 -0.37690	 11.11902	707.46198	 23.80	
 13.604	 64.789	 10.17184	  6.82334	  3.01541	  9.09061	  1.36084	 -0.37497	 11.10725	707.36200	 23.80	
 13.595	 71.958	 10.18832	  6.27639	  3.51243	  9.33107	  1.20081	 -0.39762	 11.12297	707.43597	 23.80	
 13.607	 79.207	 10.18105	  5.69133	  4.04444	  9.48515	  1.09166	 -0.42089	 11.11539	707.31403	 23.80	
 13.601	 86.383	 10.18050	  5.12091	  4.59447	  9.55475	  1.04865	 -0.44856	 11.10480	707.44098	 23.80	
 13.601	 93.617	 10.18787	  4.54953	  5.17223	  9.56320	  1.05140	 -0.46592	 11.11214	707.34100	 23.80	
 13.607	100.793	 10.19949	  4.00548	  5.74684	  9.50292	  1.10605	 -0.46786	 11.13174	707.40399	 23.80	
 13.595	108.042	 10.20029	  3.47361	  6.31962	  9.34648	  1.21753	 -0.46443	 11.12481	707.39899	 23.80	
 13.604	115.211	 10.19814	  2.96868	  6.87528	  9.11910	  1.38001	 -0.45714	 11.12516	707.40503	 23.80	
 13.611	122.431	 10.20713	  2.50859	  7.41253	  8.82516	  1.60225	 -0.43896	 11.13318	707.38501	 23.80	
 13.596	129.640	 10.19643	  2.09458	  7.89726	  8.44172	  1.88706	 -0.42565	 11.11497	707.48401	 23.80	
 13.601	136.825	 10.21623	  1.73506	  8.36607	  8.03416	  2.22096	 -0.41383	 11.13896	707.39001	 23.80	
 13.611	143.999	 10.18485	  1.41930	  8.73658	  7.54463	  2.58276	 -0.40808	 11.11276	707.36603	 23.80	
 13.609	151.210	 10.18522	  1.16704	  9.06748	  7.02838	  3.01002	 -0.40191	 11.11580	707.39600	 23.80	
 13.601	158.353	 10.18205	  0.97350	  9.32563	  6.48279	  3.47613	 -0.40247	 11.11281	707.34100	 23.80	
 13.611	165.583	 10.17437	  0.82723	  9.51605	  5.91496	  3.97420	 -0.41184	 11.11271	707.42798	 23.80	
 13.608	172.853	 10.17838	  0.74790	  9.63182	  5.34367	  4.51165	 -0.42977	 11.12638	707.42798	 23.80	
 15.298	173.587	  9.88907	  0.09589	  9.96961	  5.09766	  4.25942	 -0.51328	 11.12700	707.36902	 23.80	
 15.291	167.167	  9.89223	  0.16742	  9.87303	  5.66421	  3.73656	 -0.49987	 11.12784	707.40503	 23.80	
 15.307	160.676	  9.89091	  0.28874	  9.70174	  6.23512	  3.22422	 -0.48790	 11.11865	707.41400	 23.80	
 15.300	154.261	  9.90183	  0.46234	  9.47084	  6.79969	  2.75025	 -0.48289	 11.12337	707.36902	 23.80	
 15.288	147.854	  9.90757	  0.68110	  9.17290	  7.32836	  2.32320	 -0.48232	 11.12302	707.39899	 23.80	
 15.293	141.428	  9.92381	  0.94357	  8.82917	  7.83914	  1.93032	 -0.48781	 11.14169	707.51398	 23.80	
 15.299	134.985	  9.90908	  1.25576	  8.40197	  8.29855	  1.56364	 -0.49005	 11.12509	707.44098	 23.80	
 15.305	128.583	  9.89978	  1.61836	  7.93346	  8.70976	  1.24925	 -0.49822	 11.11638	707.32800	 23.80	
 15.309	122.142	  9.88078	  2.02320	  7.41961	  9.05652	  0.98756	 -0.50956	 11.10056	707.34900	 23.80	
 15.304	115.711	  9.90370	  2.48380	  6.90283	  9.37253	  0.78204	 -0.51703	 11.11679	707.32098	 23.80	
 15.297	109.291	  9.91876	  2.97355	  6.35675	  9.62204	  0.61813	 -0.52581	 11.13519	707.41400	 23.80	
 15.293	102.897	  9.90212	  3.47692	  5.78123	  9.77816	  0.49749	 -0.52500	 11.12108	707.24103	 23.80	
 15.293	 96.458	  9.88056	  4.00950	  5.19439	  9.86109	  0.42239	 -0.52413	 11.09873	707.27502	 23.80	
 15.300	 90.000	  9.91205	  4.58547	  4.63759	  9.92739	  0.39831	 -0.52020	 11.13676	707.35101	 23.80	
 15.293	 83.542	  9.91133	  5.16311	  4.07664	  9.88939	  0.41988	 -0.51037	 11.13590	707.36603	 23.80	
 15.293	 77.103	  9.88491	  5.72657	  3.52850	  9.75446	  0.49233	 -0.48199	 11.10572	707.42798	 23.80	
 15.297	 70.709	  9.88811	  6.29969	  3.01897	  9.58300	  0.60847	 -0.45432	 11.11357	707.43298	 23.80	
 15.304	 64.289	  9.88698	  6.86268	  2.53091	  9.34457	  0.76881	 -0.43442	 11.11954	707.39899	 23.80	
 15.309	 57.858	  9.87506	  7.39414	  2.08120	  9.03580	  0.97640	 -0.43144	 11.11086	707.33502	 23.80	
 15.305	 51.417	  9.86538	  7.89124	  1.68025	  8.66460	  1.23463	 -0.43649	 11.09984	707.27002	 23.80	
 15.299	 45.015	  9.86859	  8.35407	  1.33406	  8.24389	  1.55222	 -0.44827	 11.10612	707.36902	 23.80	
 15.293	 38.572	  9.85669	  8.75954	  1.02650	  7.76290	  1.91157	 -0.45807	 11.08887	707.27002	 23.80	
 15.288	 32.146	  9.86750	  9.12608	  0.76331	  7.26970	  2.31034	 -0.45901	 11.10565	707.36200	 23.80	
 15.300	 25.739	  9.84540	  9.40823	  0.54019	  6.72854	  2.73575	 -0.46204	 11.09082	707.24200	 23.80	
 15.307	 19.324	  9.86579	  9.66219	  0.37880	  6.18831	  3.21496	 -0.45910	 11.11528	707.31500	 23.80	
 15.291	 12.833	  9.87019	  9.83318	  0.25979	  5.61859	  3.72967	 -0.45559	 11.12462	707.41400	 23.80	
 15.298	  6.413	  9.86125	  9.92994	  0.18843	  5.04943	  4.24933	 -0.45159	 11.12119	707.32898	 23.80	
 15.300	  0.000	  9.85688	  9.95399	  0.16501	  4.47893	  4.80376	 -0.44428	 11.11722	707.40802	 23.80	
 15.298	 -6.413	  9.83782	  9.90093	  0.18575	  3.92104	  5.35288	 -0.43978	 11.10417	707.42798	 23.80	
 15.291	-12.833	  9.84953	  9.80274	  0.26078	  3.39997	  5.92315	 -0.43959	 11.11832	707.39301	 23.80	
 15.307	-19.324	  9.84527	  9.62767	  0.37912	  2.87858	  6.49667	 -0.44258	 11.12511	707.27502	 23.80	
 15.300	-25.739	  9.83580	  9.37586	  0.54805	  2.41214	  7.03481	 -0.45213	 11.11960	707.27802	 23.80	
 15.288	-32.146	  9.81020	  9.04377	  0.76378	  1.97880	  7.53797	 -0.45252	 11.09429	707.20801	 23.80	
 15.293	-38.572	  9.81619	  8.68606	  1.02414	  1.57904	  8.04813	 -0.45463	 11.11321	707.30402	 23.80	
 15.299	-45.015	  9.79502	  8.24844	  1.32730	  1.21471	  8.49410	 -0.45364	 11.10137	707.33502	 23.80	
 15.305	-51.417	  9.79136	  7.77953	  1.68482	  0.91774	  8.89042	 -0.45317	 11.09591	707.35999	 23.80	
 15.309	-57.858	  9.79361	  7.27599	  2.07809	  0.65809	  9.24626	 -0.45481	 11.09848	707.33801	 23.80	
 15.304	-64.289	  9.79687	  6.73625	  2.51721	  0.44514	  9.54229	 -0.45599	 11.10710	707.21600	 23.80	
 15.297	-70.709	  9.82031	  6.18962	  3.00045	  0.28238	  9.79460	 -0.45506	 11.13270	707.26501	 23.80	
 15.293	-77.103	  9.80655	  5.61425	  3.49250	  0.16281	  9.94563	 -0.46774	 11.11267	707.32599	 23.80	
 15.293	-83.542	  9.79092	  5.02867	  4.01968	  0.09057	 10.02868	 -0.47691	 11.09449	707.29498	 23.80	
 15.300	-90.000	  9.82259	  4.46899	  4.58895	  0.06144	 10.09395	 -0.48889	 11.13059	707.12299	 23.80	
 15.293	-96.458	  9.81107	  3.90591	  5.14724	  0.08451	 10.04588	 -0.50607	 11.11066	707.22699	 23.80	
 15.293	-102.897	  9.81030	  3.37237	  5.71826	  0.15746	  9.93643	 -0.51396	 11.10950	707.18597	 23.80	
 15.297	-109.291	  9.83053	  2.87141	  6.29399	  0.27735	  9.78617	 -0.50424	 11.12488	707.30603	 23.80	
 15.304	-115.711	  9.79671	  2.38852	  6.82392	  0.44354	  9.51814	 -0.48552	 11.08343	707.27899	 23.80	
 15.309	-122.142	  9.82230	  1.95843	  7.37050	  0.66179	  9.24533	 -0.47555	 11.11609	707.30701	 23.80	
 15.305	-128.583	  9.83895	  1.56789	  7.87993	  0.92494	  8.90718	 -0.47206	 11.13006	707.14899	 23.80	
 15.299	-134.985	  9.82325	  1.21345	  8.32778	  1.22515	  8.49575	 -0.48204	 11.11491	707.17200	 23.80	
 15.293	-141.428	  9.83571	  0.91268	  8.75326	  1.58992	  8.04488	 -0.49481	 11.11756	707.19598	 23.80	
 15.288	-147.854	  9.82808	  0.65585	  9.10696	  1.99520	  7.53711	 -0.51135	 11.10340	707.33698	 23.80	
 15.300	-154.261	  9.87075	  0.44404	  9.44854	  2.43718	  7.05058	 -0.52647	 11.14515	707.20801	 23.80	
 15.307	-160.676	  9.86099	  0.28156	  9.67192	  2.90535	  6.49924	 -0.52531	 11.12298	707.19299	 23.80	
 15.291	-167.167	  9.85070	  0.17118	  9.82506	  3.42686	  5.91995	 -0.52392	 11.09911	707.14899	 23.80	
 15.298	-173.587	  9.85439	  0.10168	  9.92935	  3.95997	  5.35830	 -0.52010	 11.09549	707.21899	 23.80	
 15.300	180.000	  9.89045	  0.08145	  9.99823	  4.52604	  4.82024	 -0.51705	 11.13357	707.28699	 23.80	
 17.000	180.000	  9.54122	 -0.56179	 10.27860	  4.24372	  4.53197	 -0.58652	 11.11359	707.37598	 23.80	
 16.990	-174.179	  9.53448	 -0.54065	 10.24097	  3.69725	  5.08390	 -0.58240	 11.11357	707.25598	 23.80	
 17.009	-168.383	  9.51525	 -0.48926	 10.13662	  3.15921	  5.63081	 -0.58217	 11.10096	707.34100	 23.80	
 17.000	-162.596	  9.51949	 -0.38509	  9.98640	  2.64893	  6.19954	 -0.57788	 11.11546	707.35999	 23.80	
 16.990	-156.759	  9.52199	 -0.24416	  9.77625	  2.17098	  6.75219	 -0.57640	 11.12738	707.24200	 23.80	
 16.995	-150.919	  9.49890	 -0.06108	  9.47788	  1.71768	  7.27204	 -0.57182	 11.10330	707.18597	 23.80	
 16.988	-145.161	  9.49314	  0.16578	  9.14161	  1.30520	  7.78225	 -0.55733	 11.10418	707.25201	 23.80	
 17.014	-139.343	  9.50801	  0.42355	  8.77951	  0.92372	  8.28193	 -0.54535	 11.13573	707.21698	 23.80	
 17.007	-133.546	  9.47979	  0.73076	  8.32713	  0.60254	  8.69204	 -0.53177	 11.10461	707.25897	 23.80	
 17.001	-127.699	  9.47634	  1.07975	  7.85290	  0.31049	  9.09032	 -0.52629	 11.09901	707.26202	 23.80	
 17.006	-121.937	  9.47785	  1.46748	  7.35290	  0.05980	  9.44299	 -0.51887	 11.10169	707.30298	 23.80	
 17.002	-116.134	  9.47746	  1.89293	  6.82322	 -0.15027	  9.74229	 -0.52440	 11.10959	707.18597	 23.80	
 17.001	-110.310	  9.48732	  2.35164	  6.27673	 -0.32211	  9.99830	 -0.52630	 11.12501	707.13397	 23.80	
 16.988	-104.517	  9.49031	  2.84992	  5.71632	 -0.43534	 10.17408	 -0.50920	 11.12174	707.29303	 23.80	
 17.008	-98.662	  9.45835	  3.35699	  5.13039	 -0.51927	 10.26867	 -0.48657	 11.09035	707.34497	 23.80	
 16.996	-92.909	  9.46441	  3.89371	  4.57780	 -0.55545	 10.33106	 -0.45793	 11.09932	707.19702	 23.80	
 16.996	-87.091	  9.47456	  4.45576	  4.02713	 -0.55524	 10.35056	 -0.43827	 11.11806	707.29797	 23.80	
 17.012	-81.253	  9.47629	  5.02854	  3.48380	 -0.52705	 10.30795	 -0.42855	 11.13134	707.32800	 23.80	
 16.988	-75.483	  9.46761	  5.59124	  2.97692	 -0.43536	 10.17805	 -0.41610	 11.11576	707.32300	 23.80	
 17.001	-69.690	  9.44033	  6.14908	  2.47452	 -0.32056	  9.98400	 -0.40822	 11.09493	707.39899	 23.80	
 17.002	-63.866	  9.45303	  6.71684	  2.01856	 -0.15733	  9.75905	 -0.41198	 11.10792	707.22699	 23.80	
 17.006	-58.063	  9.44510	  7.25031	  1.59025	  0.05102	  9.45522	 -0.42881	 11.09736	707.29602	 23.80	
 17.001	-52.301	  9.46027	  7.77056	  1.20910	  0.29938	  9.11840	 -0.43230	 11.10983	707.45599	 23.80	
 17.007	-46.454	  9.47920	  8.26827	  0.85515	  0.59013	  8.73239	 -0.44368	 11.13267	707.42798	 23.80	
 17.014	-40.657	  9.46011	  8.68805	  0.53912	  0.90741	  8.27865	 -0.44148	 11.10558	707.35101	 23.80	
 16.988	-34.839	  9.48761	  9.09295	  0.27951	  1.28521	  7.80884	 -0.44308	 11.12325	707.39001	 23.80	
 16.995	-29.081	  9.50037	  9.44031	  0.05415	  1.69447	  7.30114	 -0.44246	 11.12566	707.20801	 23.80	
 16.990	-23.241	  9.50961	  9.73128	 -0.13251	  2.14017	  6.76531	 -0.44503	 11.12952	707.28900	 23.80	
 17.000	-17.404	  9.50177	  9.94288	 -0.27934	  2.61208	  6.20514	 -0.44498	 11.11371	707.32001	 23.80	
 17.009	-11.617	  9.50047	 10.10050	 -0.38634	  3.11566	  5.63624	 -0.43189	 11.10215	707.28101	 23.80	
 16.990	 -5.821	  9.50913	 10.19615	 -0.44140	  3.64464	  5.08193	 -0.42568	 11.10441	707.18903	 23.80	
 17.000	  0.000	  9.51588	 10.24125	 -0.46452	  4.19040	  4.52785	 -0.42934	 11.10882	707.27802	 23.80	
 16.990	  5.821	  9.51357	 10.21042	 -0.44528	  4.75515	  3.97235	 -0.42908	 11.10189	707.25500	 23.80	
 17.009	 11.617	  9.51027	 10.12798	 -0.39243	  5.31316	  3.44997	 -0.43029	 11.10425	707.26398	 23.80	
 17.000	 17.404	  9.53010	  9.99683	 -0.28939	  5.88738	  2.95499	 -0.43556	 11.12229	707.13702	 23.80	
 16.990	 23.241	  9.50387	  9.75592	 -0.14214	  6.43172	  2.46914	 -0.43878	 11.08555	707.14001	 23.80	
 16.995	 29.081	  9.53663	  9.51398	  0.04953	  6.99952	  2.03667	 -0.45341	 11.11297	707.15698	 23.80	
 16.988	 34.839	  9.53186	  9.18028	  0.28021	  7.50899	  1.63269	 -0.46388	 11.09947	707.17700	 23.80	
 17.014	 40.657	  9.54686	  8.82049	  0.53595	  8.02522	  1.24688	 -0.47738	 11.12770	707.26501	 23.80	
 17.007	 46.454	  9.52949	  8.37110	  0.84163	  8.46989	  0.90472	 -0.48081	 11.10483	707.25800	 23.80	
 17.001	 52.301	  9.54268	  7.90090	  1.20134	  8.89038	  0.62024	 -0.48091	 11.10827	707.21100	 23.80	
 17.006	 58.063	  9.54575	  7.39778	  1.59256	  9.25568	  0.37050	 -0.47681	 11.11253	707.30603	 23.80	
 17.002	 63.866	  9.53127	  6.85126	  2.01991	  9.55476	  0.15696	 -0.47930	 11.09981	707.22498	 23.80	
 17.001	 69.690	  9.55433	  6.30763	  2.49116	  9.82907	 -0.00729	 -0.49635	 11.12267	707.24103	 23.80	
 16.988	 75.483	  9.55485	  5.73583	  2.99427	 10.01708	 -0.12884	 -0.51138	 11.12255	707.31500	 23.80	
 17.012	 81.253	  9.53030	  5.14946	  3.50015	 10.12703	 -0.22233	 -0.52845	 11.09854	707.35901	 23.80	
 16.996	 87.091	  9.54210	  4.57928	  4.05607	 10.18937	 -0.24647	 -0.53157	 11.10088	707.31403	 23.80	
 16.996	 92.909	  9.56674	  4.01852	  4.63123	 10.21434	 -0.24265	 -0.53342	 11.12216	707.49799	 23.80	
 17.008	 98.662	  9.56540	  3.47526	  5.19609	 10.15881	 -0.20436	 -0.52905	 11.12627	707.25800	 23.80	
 16.988	104.517	  9.55466	  2.94284	  5.76498	 10.01516	 -0.11243	 -0.53496	 11.10943	707.31201	 23.80	
 17.001	110.310	  9.57665	  2.44722	  6.34543	  9.85901	  0.00514	 -0.54058	 11.13316	707.24799	 23.80	
 17.002	116.134	  9.55965	  1.97547	  6.88938	  9.59112	  0.17393	 -0.54570	 11.10984	707.28601	 23.80	
 17.006	121.937	  9.57377	  1.54309	  7.42913	  9.29749	  0.37816	 -0.54620	 11.12175	707.29999	 23.80	
 17.001	127.699	  9.57133	  1.14756	  7.93144	  8.93610	  0.63111	 -0.55156	 11.11706	707.38300	 23.80	
 17.007	133.546	  9.54979	  0.77500	  8.38651	  8.51260	  0.91417	 -0.55466	 11.09620	707.27899	 23.80	
 17.014	139.343	  9.56419	  0.45868	  8.82830	  8.07434	  1.24603	 -0.55008	 11.11512	707.32599	 23.80	
 16.988	145.161	  9.57283	  0.20465	  9.21033	  7.57932	  1.63517	 -0.55556	 11.11233	707.39099	 23.80	
 16.995	150.919	  9.56938	 -0.02705	  9.53801	  7.06713	  2.03660	 -0.55416	 11.11790	707.28101	 23.80	
 16.990	156.759	  9.55605	 -0.21532	  9.79922	  6.51927	  2.47458	 -0.55331	 11.10867	707.22803	 23.80	
 17.000	162.596	  9.55860	 -0.36730	 10.02100	  5.95336	  2.95448	 -0.56309	 11.11642	707.24799	 23.80	
 17.009	168.383	  9.53452	 -0.47380	 10.14966	  5.37343	  3.44939	 -0.56879	 11.09950	707.40002	 23.80	
 16.990	174.179	  9.55440	 -0.53776	 10.25613	  4.82169	  3.98304	 -0.58110	 11.11963	707.37701	 23.80	
 18.709	174.675	  9.16961	 -1.16590	 10.49129	  4.51600	  3.67800	 -0.61005	 11.10426	707.37299	 23.80	
 18.703	169.441	  9.16337	 -1.10819	 10.40704	  5.06303	  3.16420	 -0.60649	 11.09182	707.29797	 23.80	
 18.691	164.085	  9.19985	 -1.01139	 10.30475	  5.65489	  2.67045	 -0.60468	 11.12440	707.29797	 23.80	
 18.706	158.818	  9.18227	 -0.88627	 10.09886	  6.20706	  2.18477	 -0.60240	 11.10536	707.28101	 23.80	
 18.695	153.537	  9.17696	 -0.71562	  9.83861	  6.73994	  1.75000	 -0.60574	 11.08482	707.50598	 23.80	
 18.704	148.255	  9.19474	 -0.51962	  9.56008	  7.28307	  1.33787	 -0.60454	 11.10416	707.41302	 23.80	
 18.698	142.952	  9.20782	 -0.28299	  9.21860	  7.80642	  0.95235	 -0.59431	 11.11846	707.41602	 23.80	
 18.699	137.625	  9.20287	 -0.00667	  8.81279	  8.28131	  0.60371	 -0.59798	 11.10834	707.45300	 23.80	
 18.705	132.343	  9.20742	  0.31059	  8.38239	  8.71952	  0.29949	 -0.58158	 11.11584	707.35101	 23.80	
 18.713	127.067	  9.20220	  0.65915	  7.90665	  9.12224	  0.01906	 -0.57744	 11.11612	707.36603	 23.80	
 18.700	121.794	  9.19044	  1.04737	  7.39210	  9.46495	 -0.21645	 -0.54725	 11.10042	707.53101	 23.80	
 18.698	116.504	  9.19331	  1.46504	  6.86372	  9.77554	 -0.41997	 -0.53538	 11.10965	707.40399	 23.80	
 18.707	111.165	  9.18951	  1.91704	  6.30222	 10.03168	 -0.58548	 -0.51723	 11.11420	707.35999	 23.80	
 18.690	105.863	  9.19949	  2.40693	  5.74649	 10.22977	 -0.70191	 -0.50000	 11.12074	707.42102	 23.80	
 18.696	100.583	  9.18870	  2.91529	  5.17326	 10.35536	 -0.79268	 -0.49699	 11.10958	707.38501	 23.80	
 18.700	 95.309	  9.18909	  3.44527	  4.60871	 10.43558	 -0.84463	 -0.49609	 11.10992	707.46698	 23.80	
 18.700	 90.000	  9.19736	  4.00347	  4.05231	 10.47022	 -0.86187	 -0.50272	 11.12031	707.49402	 23.90	
 18.700	 84.691	  9.18366	  4.56749	  3.49904	 10.42651	 -0.84435	 -0.51015	 11.10764	707.42401	 23.90	
 18.696	 79.417	  9.19329	  5.14256	  2.97102	 10.35295	 -0.79627	 -0.52039	 11.12221	707.41302	 23.90	
 18.690	 74.137	  9.18936	  5.71187	  2.46850	 10.20994	 -0.70893	 -0.52392	 11.11878	707.49200	 23.90	
 18.707	 68.835	  9.18369	  6.27813	  1.97541	 10.01825	 -0.59603	 -0.51841	 11.12695	707.40399	 23.90	
 18.698	 63.496	  9.18171	  6.83331	  1.51983	  9.75414	 -0.42880	 -0.51235	 11.12077	707.46698	 23.80	
 18.700	 58.206	  9.17521	  7.36573	  1.09630	  9.43559	 -0.23089	 -0.51128	 11.11433	707.41602	 23.90	
 18.713	 52.933	  9.19076	  7.89085	  0.71368	  9.09031	  0.00736	 -0.50111	 11.13803	707.52301	 23.90	
 18.705	 47.657	  9.17669	  8.35847	  0.36652	  8.66339	  0.28834	 -0.49254	 11.11830	707.42102	 23.90	
 18.699	 42.375	  9.16917	  8.79278	  0.05553	  8.21282	  0.59635	 -0.48183	 11.10946	707.38501	 23.90	
 18.698	 37.048	  9.16934	  9.19356	 -0.21057	  7.72997	  0.95000	 -0.46296	 11.11106	707.38202	 23.90	
 18.704	 31.745	  9.15526	  9.54027	 -0.44795	  7.20205	  1.33750	 -0.44207	 11.09778	707.34497	 23.90	
 18.695	 26.463	  9.16557	  9.84882	 -0.64217	  6.67745	  1.75584	 -0.42453	 11.11477	707.35699	 23.90	
 18.706	 21.182	  9.14292	 10.07022	 -0.80398	  6.12126	  2.18857	 -0.40403	 11.09317	707.31000	 23.90	
 18.691	 15.915	  9.14378	 10.25614	 -0.92441	  5.56204	  2.66514	 -0.39527	 11.09485	707.39301	 23.90	
 18.703	 10.559	  9.13610	 10.38463	 -1.01588	  4.98866	  3.16683	 -0.39472	 11.08973	707.42999	 23.90	
 18.709	  5.325	  9.13994	 10.46982	 -1.07155	  4.44436	  3.67594	 -0.39113	 11.10714	707.44702	 23.90	
 18.700	  0.000	  9.14802	 10.49639	 -1.08675	  3.88814	  4.22962	 -0.39658	 11.11355	707.36798	 23.90	
 18.709	 -5.325	  9.13425	 10.45340	 -1.06801	  3.34280	  4.77327	 -0.40432	 11.10337	707.44397	 23.90	
 18.703	-10.559	  9.14733	 10.38531	 -1.01729	  2.83514	  5.33208	 -0.40385	 11.12390	707.39899	 23.90	
 18.691	-15.915	  9.13128	 10.21829	 -0.91911	  2.32382	  5.89494	 -0.41164	 11.10836	707.42200	 23.90	
 18.706	-21.182	  9.11582	 10.01184	 -0.79852	  1.85267	  6.43688	 -0.42329	 11.10282	707.39899	 23.90	
 18.695	-26.463	  9.10171	  9.74048	 -0.63306	  1.41081	  6.96669	 -0.41894	 11.08955	707.35400	 23.90	
 18.704	-31.745	  9.10884	  9.44695	 -0.44521	  0.98924	  7.50748	 -0.41463	 11.11562	707.34497	 23.90	
 18.698	-37.048	  9.10378	  9.07946	 -0.20085	  0.61828	  8.00570	 -0.42208	 11.11283	707.31500	 23.90	
 18.699	-42.375	  9.07802	  8.65179	  0.07093	  0.27716	  8.45020	 -0.41269	 11.08821	707.32599	 23.90	
 18.705	-47.657	  9.09815	  8.22865	  0.37630	 -0.03308	  8.91023	 -0.40266	 11.12377	707.34302	 23.90	
 18.713	-52.933	  9.07914	  7.73342	  0.71576	 -0.30691	  9.28899	 -0.40047	 11.10833	707.35199	 23.90	
 18.700	-58.206	  9.10850	  7.24196	  1.10210	 -0.53989	  9.66241	 -0.38244	 11.14387	707.33099	 23.90	
 18.698	-63.496	  9.09501	  6.69414	  1.51386	 -0.72767	  9.93071	 -0.38361	 11.11938	707.33698	 23.90	
 18.707	-68.835	  9.08822	  6.12373	  1.96339	 -0.88793	 10.16509	 -0.36425	 11.10927	707.30298	 23.90	
 18.690	-74.137	  9.09958	  5.56212	  2.44585	 -1.00438	 10.35268	 -0.37543	 11.11418	707.34601	 23.90	
 18.696	-79.417	  9.11068	  5.00232	  2.94207	 -1.09426	 10.49506	 -0.39071	 11.12534	707.29303	 23.90	
 18.700	-84.691	  9.09439	  4.42376	  3.45743	 -1.14997	 10.55520	 -0.40142	 11.10256	707.32599	 23.90	
 18.700	-90.000	  9.10658	  3.86754	  4.00383	 -1.17300	 10.59006	 -0.41919	 11.11641	707.37402	 23.90	
 18.700	-95.309	  9.11489	  3.32461	  4.55985	 -1.16029	 10.57102	 -0.42997	 11.12149	707.36499	 23.90	
 18.696	-100.583	  9.11963	  2.81077	  5.12210	 -1.10720	 10.49023	 -0.46205	 11.12771	707.34601	 23.90	
 18.690	-105.863	  9.10039	  2.30785	  5.67580	 -1.01223	 10.32644	 -0.49641	 11.09421	707.46399	 23.90	
 18.707	-111.165	  9.09597	  1.82910	  6.23040	 -0.89118	 10.13631	 -0.51505	 11.09023	707.30701	 23.90	
 18.698	-116.504	  9.10885	  1.38948	  6.78788	 -0.72708	  9.90325	 -0.53914	 11.10454	707.39099	 23.90	
 18.700	-121.794	  9.09916	  0.97184	  7.30971	 -0.53498	  9.60394	 -0.54866	 11.09654	707.39001	 23.90	
 18.713	-127.067	  9.12468	  0.59210	  7.83605	 -0.30244	  9.28592	 -0.56200	 11.12784	707.32300	 23.90	
 18.705	-132.343	  9.12407	  0.25353	  8.30362	 -0.02454	  8.88855	 -0.56959	 11.11866	707.44501	 23.90	
 18.699	-137.625	  9.13039	 -0.04825	  8.74489	  0.29056	  8.45626	 -0.57474	 11.11734	707.51801	 23.90	
 18.698	-142.952	  9.14374	 -0.31933	  9.15602	  0.63573	  7.99962	 -0.58660	 11.13297	707.35199	 23.90	
 18.704	-148.255	  9.12845	 -0.55430	  9.49740	  1.01506	  7.48855	 -0.58780	 11.11033	707.34601	 23.90	
 18.695	-153.537	  9.14378	 -0.74490	  9.81007	  1.44410	  6.97013	 -0.58521	 11.12059	707.42798	 23.90	
 18.706	-158.818	  9.13611	 -0.90625	 10.05256	  1.88793	  6.42534	 -0.58464	 11.10254	707.39001	 23.90	
 18.691	-164.085	  9.15611	 -1.02459	 10.25852	  2.36800	  5.89320	 -0.58374	 11.12212	707.49500	 23.90	
 18.703	-169.441	  9.15763	 -1.11204	 10.40149	  2.88705	  5.32348	 -0.58975	 11.11103	707.29303	 23.90	
 18.709	-174.675	  9.16128	 -1.16397	 10.48344	  3.40564	  4.77649	 -0.60155	 11.10474	707.28601	 23.90	
 18.700	180.000	  9.17974	 -1.17935	 10.52890	  3.95792	  4.23399	 -0.60601	 11.11676	707.32599	 23.90	
 20.400	180.000	  8.77263	 -1.78208	 10.72182	  3.64338	  3.90950	 -0.58277	 11.10701	707.43597	 23.90	
 20.401	-175.153	  8.76053	 -1.77574	 10.69312	  3.10532	  4.43959	 -0.57123	 11.10504	707.40002	 23.90	
 20.407	-170.264	  8.76166	 -1.73497	 10.62702	  2.58283	  4.98818	 -0.55921	 11.11633	707.32300	 23.90	
 20.410	-165.423	  8.75317	 -1.65781	 10.49703	  2.07969	  5.54170	 -0.54914	 11.11683	707.36902	 23.90	
 20.392	-160.496	  8.74938	 -1.54357	 10.31086	  1.60408	  6.09267	 -0.55289	 11.11578	707.31799	 23.90	
 20.401	-155.705	  8.74591	 -1.40811	 10.08669	  1.15619	  6.62306	 -0.55759	 11.12062	707.33801	 23.90	
 20.405	-150.835	  8.72975	 -1.24815	  9.79723	  0.72601	  7.14987	 -0.56478	 11.11302	707.31799	 23.90	
 20.397	-145.903	  8.71962	 -1.03254	  9.45383	  0.33201	  7.65680	 -0.57267	 11.10639	707.31500	 23.90	
 20.392	-141.062	  8.72809	 -0.80528	  9.10003	 -0.01794	  8.14318	 -0.58191	 11.11819	707.27802	 23.90	
 20.396	-136.227	  8.70679	 -0.53420	  8.66843	 -0.34525	  8.58482	 -0.57713	 11.09311	707.38501	 23.90	
 20.408	-131.372	  8.72367	 -0.23898	  8.24316	 -0.64638	  9.03529	 -0.57533	 11.13087	707.43103	 23.90	
 20.410	-126.511	  8.70826	  0.09843	  7.75087	 -0.90210	  9.40385	 -0.56613	 11.11311	707.38202	 23.90	
 20.400	-121.604	  8.70620	  0.47306	  7.24259	 -1.11924	  9.73700	 -0.55097	 11.10690	707.35199	 23.90	
 20.403	-116.741	  8.71360	  0.87454	  6.71850	 -1.30845	 10.04097	 -0.52371	 11.11111	707.41400	 23.90	
 20.413	-111.900	  8.70214	  1.29451	  6.17316	 -1.47361	 10.28488	 -0.50283	 11.11158	707.37402	 23.90	
 20.398	-107.004	  8.71012	  1.75697	  5.62345	 -1.60347	 10.49058	 -0.47030	 11.12090	707.39001	 23.90	
 20.394	-102.132	  8.71578	  2.24124	  5.06695	 -1.69877	 10.64530	 -0.43823	 11.12662	707.40002	 24.00	
 20.403	-97.332	  8.70642	  2.73157	  4.51439	 -1.75995	 10.73736	 -0.40353	 11.12208	707.54901	 23.90	
 20.392	-92.440	  8.69429	  3.25837	  3.95475	 -1.79032	 10.77334	 -0.38510	 11.11229	707.46399	 23.90	
 20.392	-87.560	  8.70324	  3.81182	  3.41609	 -1.78795	 10.79111	 -0.37709	 11.12848	707.46198	 23.90	
 20.403	-82.668	  8.69314	  4.36792	  2.88215	 -1.75720	 10.74695	 -0.35950	 11.12405	707.39600	 24.00	
 20.394	-77.868	  8.66205	  4.91106	  2.37993	 -1.68727	 10.61919	 -0.35226	 11.08829	707.40399	 24.00	
 20.398	-72.996	  8.69558	  5.50369	  1.90298	 -1.59913	 10.52018	 -0.34732	 11.13343	707.42499	 24.00	
 20.413	-68.100	  8.67330	  6.05574	  1.43364	 -1.47173	 10.30531	 -0.34635	 11.11203	707.40698	 24.00	
 20.403	-63.259	  8.66749	  6.59473	  1.01251	 -1.31220	 10.05019	 -0.35648	 11.09925	707.60498	 24.00	
 20.400	-58.396	  8.67237	  7.13661	  0.60979	 -1.12479	  9.76394	 -0.35934	 11.10875	707.51398	 24.00	
 20.410	-53.489	  8.66435	  7.65093	  0.22730	 -0.90505	  9.42040	 -0.36584	 11.10168	707.43903	 24.00	
 20.408	-48.628	  8.65877	  8.12821	 -0.10719	 -0.65873	  9.03599	 -0.38204	 11.09031	707.45502	 24.00	
 20.396	-43.773	  8.69314	  8.60858	 -0.40941	 -0.36263	  8.63903	 -0.38590	 11.11998	707.39600	 24.00	
 20.392	-38.938	  8.69851	  9.02998	 -0.68181	 -0.03805	  8.17743	 -0.39127	 11.11984	707.56299	 24.00	
 20.397	-34.097	  8.69832	  9.40067	 -0.91687	  0.30305	  7.69527	 -0.39307	 11.11455	707.43103	 24.00	
 20.405	-29.165	  8.69922	  9.74019	 -1.12833	  0.68409	  7.17882	 -0.39838	 11.10707	707.41302	 24.00	
 20.401	-24.295	  8.71410	 10.03644	 -1.29839	  1.11179	  6.64791	 -0.40249	 11.11596	707.47198	 24.00	
 20.392	-19.504	  8.72030	 10.26640	 -1.43293	  1.55076	  6.11326	 -0.39766	 11.11072	707.40802	 24.00	
 20.410	-14.577	  8.71407	 10.44504	 -1.54632	  2.01609	  5.55152	 -0.38621	 11.09641	707.41602	 24.00	
 20.407	 -9.736	  8.72725	 10.58523	 -1.62462	  2.51323	  5.00087	 -0.37253	 11.10131	707.39301	 24.00	
 20.401	 -4.847	  8.73335	 10.66900	 -1.67512	  3.02746	  4.44815	 -0.36700	 11.10683	707.38800	 24.00	
 20.400	  0.000	  8.75140	 10.72021	 -1.69556	  3.56144	  3.91568	 -0.36410	 11.12733	707.40802	 24.00	
 20.401	  4.847	  8.74437	 10.69325	 -1.68079	  4.10693	  3.37399	 -0.36248	 11.11489	707.45203	 24.00	
 20.407	  9.736	  8.74650	 10.63132	 -1.64080	  4.65505	  2.86471	 -0.35256	 11.11337	707.45203	 24.00	
 20.410	 14.577	  8.74167	 10.51221	 -1.56459	  5.20750	  2.37283	 -0.36179	 11.11049	707.40503	 24.00	
 20.392	 19.504	  8.76499	 10.35689	 -1.44691	  5.78809	  1.90291	 -0.36715	 11.12435	707.46899	 24.00	
 20.401	 24.295	  8.74777	 10.11782	 -1.30612	  6.31160	  1.46710	 -0.37292	 11.09928	707.41101	 24.00	
 20.405	 29.165	  8.77632	  9.87614	 -1.14011	  6.87626	  1.04423	 -0.39023	 11.13353	707.24799	 24.00	
 20.397	 34.097	  8.75921	  9.52064	 -0.92906	  7.39738	  0.63997	 -0.41705	 11.10789	707.53802	 24.00	
 20.392	 38.938	  8.77631	  9.16766	 -0.69383	  7.90778	  0.28959	 -0.44482	 11.12835	707.42499	 24.00	
 20.396	 43.773	  8.77816	  8.75514	 -0.41871	  8.37747	 -0.03374	 -0.46361	 11.12439	707.48297	 24.00	
 20.408	 48.628	  8.76941	  8.30194	 -0.12070	  8.81377	 -0.33131	 -0.48267	 11.11614	707.50098	 24.00	
 20.410	 53.489	  8.77290	  7.82216	  0.21859	  9.22318	 -0.59645	 -0.50339	 11.12248	707.45898	 24.00	
 20.400	 58.396	  8.76782	  7.29930	  0.59481	  9.58176	 -0.82155	 -0.50921	 11.11681	707.32599	 24.00	
 20.403	 63.259	  8.74372	  6.74489	  1.00568	  9.86139	 -1.00637	 -0.52251	 11.08234	707.33398	 24.00	
 20.413	 68.100	  8.76370	  6.21786	  1.44107	 10.14036	 -1.16377	 -0.52473	 11.09978	707.50299	 24.00	
 20.398	 72.996	  8.77786	  5.66062	  1.91466	 10.36118	 -1.28717	 -0.51325	 11.11569	707.58502	 24.00	
 20.394	 77.868	  8.78867	  5.09696	  2.40749	 10.52678	 -1.38231	 -0.50345	 11.12685	707.57898	 24.00	
 20.403	 82.668	  8.79434	  4.53706	  2.91366	 10.63873	 -1.44362	 -0.47845	 11.13351	707.54901	 24.00	
 20.392	 87.560	  8.78096	  3.96732	  3.45065	 10.66242	 -1.46085	 -0.45089	 11.10177	707.41602	 24.00	
 20.392	 92.440	  8.79085	  3.41343	  4.00811	 10.67538	 -1.46187	 -0.43739	 11.11601	707.44397	 24.00	
 20.403	 97.332	  8.78779	  2.87237	  4.57756	 10.62639	 -1.43150	 -0.43219	 11.10890	707.36499	 24.00	
 20.394	102.132	  8.79241	  2.36537	  5.13637	 10.53061	 -1.36830	 -0.44143	 11.10639	707.51801	 24.00	
 20.398	107.004	  8.78295	  1.86706	  5.69604	 10.36777	 -1.27073	 -0.45713	 11.09485	707.37701	 24.10	
 20.413	111.900	  8.80278	  1.39741	  6.26690	 10.18948	 -1.15311	 -0.47742	 11.11651	707.59003	 24.00	
 20.403	116.741	  8.78710	  0.96035	  6.79253	  9.91865	 -0.99722	 -0.49863	 11.09458	707.45502	 24.00	
 20.400	121.604	  8.79749	  0.55342	  7.32897	  9.62803	 -0.80791	 -0.52249	 11.11082	707.33698	 24.00	
 20.410	126.511	  8.79936	  0.17432	  7.83940	  9.27891	 -0.59061	 -0.55362	 11.10824	707.27502	 24.10	
 20.408	131.372	  8.81179	 -0.16469	  8.32786	  8.89279	 -0.32463	 -0.57710	 11.11749	707.37701	 24.10	
 20.396	136.227	  8.80389	 -0.47334	  8.76108	  8.44393	 -0.02325	 -0.59676	 11.10129	707.42999	 24.10	
 20.392	141.062	  8.79576	 -0.75097	  9.15968	  7.98065	  0.29706	 -0.60842	 11.09182	707.44397	 24.10	
 20.397	145.903	  8.80400	 -1.00671	  9.53953	  7.49836	  0.64606	 -0.61200	 11.10953	707.49200	 24.10	
 20.405	150.835	  8.81510	 -1.21366	  9.87989	  6.97487	  1.04458	 -0.63076	 11.12696	707.50702	 24.10	
 20.401	155.705	  8.81144	 -1.39211	 10.14984	  6.43378	  1.46777	 -0.63000	 11.12547	707.52899	 24.10	
 20.392	160.496	  8.79524	 -1.53096	 10.35078	  5.88842	  1.89464	 -0.62052	 11.10985	707.52502	 24.10	
 20.410	165.423	  8.79555	 -1.64840	 10.53133	  5.32308	  2.37098	 -0.61940	 11.11977	707.45300	 24.10	
 20.407	170.264	  8.78619	 -1.72439	 10.64178	  4.75983	  2.86515	 -0.60564	 11.11213	707.47198	 24.10	
 20.401	175.153	  8.76649	 -1.77003	 10.69300	  4.19329	  3.37195	 -0.59614	 11.09507	707.49402	 24.10	
  0.141	 45.000	 11.13516	  5.82380	  5.84498	  5.78931	  6.02523	  0.07354	 11.11703	707.47803	 24.10	
  4.001	128.691	 11.08513	  4.89363	  6.61381	  6.70443	  4.98147	  0.03821	 11.10000	707.57703	 24.10	
  4.002	 76.995	 11.08512	  5.99125	  5.48869	  6.94422	  4.74871	  0.02865	 11.09623	707.63202	 24.10	
  4.002	 25.892	 11.09572	  6.91180	  4.64817	  6.23646	  5.39938	  0.02283	 11.11120	707.47498	 24.10	
  4.002	-25.892	 11.10041	  6.91356	  4.64097	  5.10075	  6.53134	  0.01041	 11.12289	707.48401	 24.10	
  4.002	-76.995	 11.07929	  5.96589	  5.48272	  4.42282	  7.25524	  0.00021	 11.10572	707.40002	 24.10	
  4.001	-128.691	 11.08600	  4.87633	  6.61118	  4.67587	  6.98666	  0.01168	 11.11369	707.40698	 24.10	
  4.000	180.000	 11.08909	  4.43196	  7.13427	  5.66107	  5.96652	  0.03557	 11.10992	707.43298	 24.10	
  8.000	180.000	 10.84830	  2.89982	  8.29388	  5.38419	  5.69203	 -0.13251	 11.10106	707.38000	 24.10	
  7.991	-152.370	 10.84334	  3.16061	  7.96522	  4.18413	  6.93816	 -0.13630	 11.10449	707.42499	 24.10	
  7.997	-124.550	 10.85346	  3.93372	  7.06754	  3.29231	  7.96191	 -0.14952	 11.12870	707.46997	 24.10	
  8.006	-96.837	 10.85577	  5.08377	  5.83107	  2.88642	  8.45057	 -0.18872	 11.13193	707.44897	 24.10	
  7.988	-69.228	 10.81534	  6.35478	  4.56205	  3.01909	  8.25402	 -0.19475	 11.09402	707.57703	 24.10	
  7.997	-41.563	 10.83806	  7.49440	  3.58326	  3.66837	  7.50683	 -0.17793	 11.10874	707.46198	 24.10	
  8.008	-13.821	 10.85580	  8.16239	  3.05424	  4.75535	  6.32714	 -0.14469	 11.11234	707.41901	 24.10	
  8.008	 13.821	 10.86441	  8.17287	  3.06041	  6.03430	  5.06255	 -0.14287	 11.11268	707.41602	 24.10	
  7.997	 41.563	 10.88053	  7.53169	  3.60253	  7.22158	  4.01339	 -0.12321	 11.11561	707.42499	 24.10	
  7.988	 69.228	 10.86665	  6.40746	  4.58646	  7.99267	  3.36698	 -0.11209	 11.10064	707.46698	 24.10	
  8.006	 96.837	 10.86813	  5.11995	  5.83312	  8.16890	  3.23392	 -0.13795	 11.09965	707.60797	 24.10	
  7.997	124.550	 10.88283	  3.97247	  7.07560	  7.69458	  3.63491	 -0.12801	 11.11215	707.39301	 24.10	
  7.991	152.370	 10.86915	  3.18882	  7.97558	  6.65971	  4.51100	 -0.11257	 11.10107	707.48700	 24.10	
 12.009	161.059	 10.41095	  1.51894	  9.07798	  6.29928	  4.03270	 -0.32173	 11.10212	707.38000	 24.10	
 12.013	142.081	 10.44514	  2.05256	  8.42580	  7.56238	  2.96829	 -0.32943	 11.13077	707.37701	 24.10	
 12.006	123.113	 10.42856	  2.92267	  7.36614	  8.50875	  2.20317	 -0.35196	 11.10927	707.41101	 24.10	
 12.007	104.200	 10.42262	  4.07062	  6.09376	  9.08623	  1.75756	 -0.37931	 11.10317	707.46698	 24.10	
 11.989	 85.301	 10.42811	  5.38110	  4.77114	  9.19878	  1.67437	 -0.36064	 11.10898	707.36798	 24.10	
 12.013	 66.294	 10.41686	  6.70354	  3.53125	  8.83030	  1.93373	 -0.30396	 11.10071	707.43799	 24.10	
 12.012	 47.388	 10.43411	  7.89602	  2.53774	  8.04580	  2.55470	 -0.31579	 11.12656	707.54199	 24.10	
 11.990	 28.440	 10.41787	  8.75836	  1.83255	  6.92457	  3.46682	 -0.34577	 11.12094	707.30298	 24.10	
 11.991	  9.464	 10.40688	  9.21557	  1.47794	  5.62467	  4.62934	 -0.36138	 11.11470	707.46698	 24.10	
 11.991	 -9.464	 10.38721	  9.19443	  1.47278	  4.30901	  5.92072	 -0.35161	 11.10683	707.47198	 24.10	
 11.990	-28.440	 10.37332	  8.70614	  1.82637	  3.12572	  7.21070	 -0.35992	 11.10818	707.61298	 24.10	
 12.012	-47.388	 10.37849	  7.82803	  2.52226	  2.20464	  8.32043	 -0.38704	 11.12864	707.60101	 24.10	
 12.013	-66.294	 10.36249	  6.62361	  3.51537	  1.58874	  9.08393	 -0.41503	 11.12297	707.53400	 24.10	
 11.989	-85.301	 10.37025	  5.29477	  4.74533	  1.34056	  9.41819	 -0.42061	 11.11740	707.51099	 24.10	
 12.007	-104.200	 10.37200	  3.99354	  6.06346	  1.41877	  9.30721	 -0.39776	 11.11718	707.42798	 24.10	
 12.006	-123.113	 10.36652	  2.86973	  7.32429	  1.85357	  8.73571	 -0.34476	 11.10874	707.40399	 24.10	
 12.013	-142.081	 10.38183	  2.02924	  8.37940	  2.64203	  7.78657	 -0.34572	 11.11198	707.38501	 24.10	
 12.009	-161.059	 10.39169	  1.50833	  9.06553	  3.71131	  6.57565	 -0.35419	 11.10832	707.45300	 24.10	
 16.000	180.000	  9.73301	 -0.18987	 10.10452	  4.40622	  4.69390	 -0.55778	 11.10828	707.40802	 24.10	
 15.990	-165.604	  9.70433	 -0.07434	  9.90455	  3.14121	  5.98610	 -0.55145	 11.09074	707.42102	 24.10	
 16.002	-151.165	  9.69656	  0.28383	  9.36927	  2.01619	  7.26709	 -0.54689	 11.10221	707.41602	 24.10	
 16.002	-136.836	  9.69049	  0.88190	  8.51457	  1.09884	  8.41241	 -0.51662	 11.11468	707.25897	 24.10	
 15.995	-122.439	  9.69120	  1.73288	  7.40484	  0.43387	  9.31325	 -0.49295	 11.11516	707.21002	 24.10	
 15.993	-107.966	  9.69045	  2.79945	  6.13008	 -0.00770	  9.93250	 -0.51889	 11.12293	707.35901	 24.10	
 16.005	-93.629	  9.67995	  4.01914	  4.80026	 -0.19690	 10.19855	 -0.49192	 11.12115	707.41302	 24.10	
 15.992	-79.234	  9.66078	  5.33299	  3.51759	 -0.13649	 10.10485	 -0.45467	 11.11169	707.42200	 24.10	
 16.009	-64.774	  9.63843	  6.65267	  2.35719	  0.16206	  9.66093	 -0.43500	 11.09396	707.46399	 24.10	
 15.997	-50.364	  9.68504	  7.91000	  1.41219	  0.72546	  8.93352	 -0.45388	 11.13547	707.54199	 24.10	
 15.997	-36.045	  9.68364	  8.91682	  0.67216	  1.51033	  7.89042	 -0.44923	 11.11987	707.50098	 24.10	
 16.000	-21.597	  9.69561	  9.63857	  0.18114	  2.51900	  6.66155	 -0.44897	 11.10900	707.55603	 24.10	
 16.003	 -7.169	  9.72356	 10.03560	 -0.06918	  3.72904	  5.34462	 -0.43921	 11.12303	707.46100	 24.10	
 16.003	  7.169	  9.72239	 10.04160	 -0.06777	  5.02599	  4.05247	 -0.44730	 11.11740	707.51501	 24.10	
 16.000	 21.597	  9.73308	  9.70061	  0.17476	  6.35382	  2.86603	 -0.44987	 11.11870	707.45203	 24.20	
 15.997	 36.045	  9.74174	  9.01111	  0.67240	  7.60191	  1.85556	 -0.46252	 11.11319	707.42499	 24.20	
 15.997	 50.364	  9.75706	  8.02916	  1.40252	  8.69098	  1.04930	 -0.45908	 11.13018	707.49402	 24.20	
 16.009	 64.774	  9.74188	  6.80253	  2.36767	  9.46638	  0.49351	 -0.46043	 11.11079	707.59003	 24.20	
 15.992	 79.234	  9.75790	  5.47322	  3.54684	  9.94342	  0.18463	 -0.51177	 11.12380	707.54901	 24.20	
 16.005	 93.629	  9.75282	  4.13049	  4.84130	 10.03440	  0.12591	 -0.53532	 11.11045	707.50000	 24.20	
 15.993	107.966	  9.76320	  2.89724	  6.17995	  9.76478	  0.32557	 -0.53794	 11.11496	707.54602	 24.20	
 15.995	122.439	  9.76429	  1.81145	  7.46023	  9.13944	  0.76139	 -0.52675	 11.10758	707.39697	 24.20	
 16.002	136.836	  9.77663	  0.93223	  8.58143	  8.22181	  1.43542	 -0.51843	 11.12356	707.49200	 24.20	
 16.002	151.165	  9.76381	  0.31213	  9.42261	  7.05514	  2.33793	 -0.51726	 11.11486	707.42499	 24.20	
 15.990	165.604	  9.75223	 -0.05394	  9.93853	  5.73772	  3.45788	 -0.52343	 11.11114	707.54797	 24.20	
 20.003	168.362	  8.90737	 -1.56020	 10.58524	  5.04174	  2.77602	 -0.61685	 11.14268	707.53198	 24.20	
 20.008	156.764	  8.89109	 -1.28786	 10.15452	  6.33681	  1.65819	 -0.62924	 11.11409	707.48297	 24.20	
 20.000	145.147	  8.91843	 -0.84014	  9.48204	  7.59869	  0.71036	 -0.62581	 11.13764	707.53699	 24.20	
 19.995	133.545	  8.92757	 -0.18120	  8.54220	  8.70094	 -0.06154	 -0.58872	 11.14117	707.50098	 24.20	
 20.009	121.926	  8.90606	  0.64168	  7.38977	  9.58988	 -0.65965	 -0.52927	 11.12963	707.52100	 24.20	
 20.005	110.327	  8.90906	  1.65405	  6.13252	 10.22944	 -1.05853	 -0.48109	 11.13286	707.54901	 24.20	
 19.989	 98.733	  8.88348	  2.80925	  4.79217	 10.54714	 -1.26897	 -0.45058	 11.10293	707.53998	 24.20	
 19.999	 87.075	  8.88534	  4.09219	  3.48525	 10.62043	 -1.32010	 -0.47060	 11.11369	707.51099	 24.20	
 19.992	 75.457	  8.88072	  5.41731	  2.27182	 10.39506	 -1.18507	 -0.51095	 11.11222	707.49799	 24.20	
 20.009	 63.844	  8.88087	  6.73266	  1.18055	  9.89709	 -0.88397	 -0.52460	 11.12656	707.45300	 24.20	
 19.989	 52.269	  8.87158	  7.94011	  0.26977	  9.09351	 -0.38558	 -0.50036	 11.11114	707.42102	 24.20	
 19.999	 40.602	  8.86816	  9.00599	 -0.47470	  8.06685	  0.29961	 -0.45808	 11.11504	707.47198	 24.20	
 20.004	 29.051	  8.86723	  9.83942	 -1.00193	  6.88316	  1.16928	 -0.39645	 11.12315	707.50000	 24.20	
 20.005	 17.433	  8.84296	 10.37362	 -1.35662	  5.58885	  2.19279	 -0.36652	 11.10382	707.48602	 24.20	
 20.006	  5.780	  8.84798	 10.64908	 -1.53980	  4.28371	  3.35986	 -0.36623	 11.12570	707.47498	 24.20	
 20.006	 -5.780	  8.84263	 10.63110	 -1.53211	  3.01977	  4.62764	 -0.37529	 11.12861	707.47498	 24.20	
 20.005	-17.433	  8.81752	 10.31317	 -1.34717	  1.84437	  5.92532	 -0.39434	 11.11051	707.31500	 24.20	
 20.004	-29.051	  8.80782	  9.72878	 -0.99708	  0.81808	  7.19218	 -0.40527	 11.11822	707.53101	 24.20	
 19.999	-40.602	  8.79461	  8.87559	 -0.45471	 -0.02490	  8.33599	 -0.39689	 11.11760	707.47198	 24.20	
 19.989	-52.269	  8.76971	  7.78424	  0.26952	 -0.70642	  9.31371	 -0.36997	 11.10393	707.50598	 24.20	
 20.009	-63.844	  8.78009	  6.57760	  1.17457	 -1.18653	 10.06218	 -0.35796	 11.11935	707.39600	 24.20	
 19.992	-75.457	  8.77935	  5.26048	  2.24252	 -1.49051	 10.52239	 -0.34419	 11.10066	707.29999	 24.20	
 19.999	-87.075	  8.78345	  3.93967	  3.43479	 -1.62241	 10.71225	 -0.36892	 11.09473	707.45502	 24.20	
 19.989	-98.733	  8.79655	  2.68666	  4.72956	 -1.58731	 10.65155	 -0.41112	 11.10180	707.46100	 24.20	
 20.005	-110.327	  8.81245	  1.55664	  6.03975	 -1.37551	 10.32966	 -0.49274	 11.12327	707.50299	 24.20	
 20.009	-121.926	  8.82491	  0.57628	  7.30437	 -0.97525	  9.72199	 -0.55119	 11.13382	707.35400	 24.20	
 19.995	-133.545	  8.80786	 -0.23854	  8.42368	 -0.38100	  8.82369	 -0.58364	 11.10760	707.51501	 24.20	
 20.000	-145.147	  8.82339	 -0.86346	  9.38051	  0.39504	  7.75383	 -0.57482	 11.11101	707.50897	 24.20	
 20.008	-156.764	  8.83950	 -1.30414	 10.09855	  1.35889	  6.53949	 -0.56750	 11.11509	707.36603	 24.20	
 20.003	-168.362	  8.86798	 -1.56490	 10.54682	  2.48143	  5.27378	 -0.56601	 11.13041	707.33698	 24.20	
 20.000	180.000	  8.88358	 -1.64696	 10.69655	  3.72286	  3.99411	 -0.58955	 11.12833	707.49500	 24.20	
