FileType=PCF
NHL=14
Date=08/28/17	17:56:50
Facility=APL
Serial=16328-12
Customer=NASA
NP=6
Mach=0.200000
Calibration=1:1
CalPts=490
TstPts=95
PortNumbering=AP Standard
Units=Torr C m/s kg/m^3 deg mm 
Theta[deg]	Phi[deg]	P1[Torr]	P2[Torr]	P3[Torr]	P4[Torr]	P5[Torr]	P6[Torr]	Pt[Torr]	Ps[Abs,Torr]	Ts[C]	
  0.000	  0.000	 19.57536	 10.16412	 10.26463	 10.09320	 10.54961	  0.14984	 19.54806	707.61603	 24.50	
  1.691	128.401	 19.54669	  9.52002	 10.85518	 10.84610	  9.77390	  0.14565	 19.52468	707.64203	 24.50	
  1.692	 77.194	 19.53751	 10.34333	 10.00976	 11.03897	  9.58121	  0.14164	 19.51503	707.62799	 24.50	
  1.699	 26.182	 19.56371	 11.03856	  9.36038	 10.51270	 10.09281	  0.13592	 19.54077	707.67297	 24.50	
  1.699	-26.182	 19.54691	 11.02489	  9.35020	  9.61147	 10.95539	  0.12790	 19.51928	707.68903	 24.50	
  1.692	-77.194	 19.56953	 10.34257	 10.02138	  9.10415	 11.50502	  0.12616	 19.55040	707.68402	 24.50	
  1.691	-128.401	 19.55340	  9.51008	 10.84835	  9.27858	 11.31588	  0.12846	 19.53587	707.61603	 24.50	
  1.700	180.000	 19.54735	  9.14337	 11.24067	 10.04227	 10.53851	  0.13584	 19.52309	707.67200	 24.50	
  3.400	180.000	 19.53401	  8.12892	 12.20175	  9.97433	 10.46646	  0.09321	 19.54788	707.61798	 24.50	
  3.388	-152.325	 19.51386	  8.33895	 11.94205	  9.05545	 11.37471	  0.09249	 19.53211	707.51501	 24.50	
  3.397	-124.529	 19.50339	  8.93290	 11.28074	  8.38095	 12.08894	  0.07487	 19.52543	707.55701	 24.50	
  3.399	-96.763	 19.50701	  9.77676	 10.37089	  8.05805	 12.44555	  0.06987	 19.53366	707.58197	 24.50	
  3.394	-69.283	 19.52378	 10.73104	  9.46543	  8.17681	 12.30968	  0.04086	 19.54018	707.67700	 24.50	
  3.400	-41.398	 19.53374	 11.57107	  8.69258	  8.70236	 11.77153	  0.07224	 19.55375	707.71503	 24.50	
  3.401	-14.021	 19.52810	 12.02968	  8.26205	  9.49675	 10.92929	  0.08382	 19.53947	707.75403	 24.50	
  3.401	 14.021	 19.53616	 12.04009	  8.26923	 10.48112	  9.97895	  0.09008	 19.54155	707.64099	 24.50	
  3.400	 41.398	 19.53479	 11.58633	  8.69321	 11.33448	  9.18405	  0.08731	 19.55165	707.56500	 24.50	
  3.394	 69.283	 19.53357	 10.77211	  9.46583	 11.88334	  8.66740	  0.09510	 19.53895	707.58197	 24.50	
  3.399	 96.763	 19.53731	  9.84197	 10.39349	 12.01357	  8.56367	  0.10163	 19.54713	707.65802	 24.50	
  3.397	124.529	 19.51776	  8.95644	 11.29571	 11.65496	  8.88520	  0.09701	 19.52777	707.67700	 24.50	
  3.388	152.325	 19.50493	  8.33723	 11.94373	 10.90948	  9.57103	  0.09312	 19.51276	707.68903	 24.50	
  5.099	161.165	 19.43176	  7.20471	 12.93644	 10.81284	  9.41659	  0.01749	 19.54270	707.61798	 24.50	
  5.109	142.013	 19.42169	  7.64635	 12.44288	 11.72038	  8.56001	  0.02848	 19.52114	707.68103	 24.50	
  5.095	123.033	 19.42955	  8.35289	 11.67962	 12.41067	  7.93603	  0.02730	 19.52628	707.70599	 24.50	
  5.105	104.191	 19.48733	  9.25748	 10.77594	 12.86749	  7.57077	  0.00100	 19.58496	707.72900	 24.50	
  5.093	 85.207	 19.43828	 10.17458	  9.77596	 12.90139	  7.48014	 -0.00576	 19.53327	707.63599	 24.50	
  5.104	 66.290	 19.45715	 11.15114	  8.83420	 12.65938	  7.70332	  0.00254	 19.55052	707.76001	 24.50	
  5.094	 47.331	 19.47039	 11.99827	  8.04777	 12.10670	  8.21768	 -0.00319	 19.56242	707.83197	 24.50	
  5.089	 28.397	 19.42566	 12.61358	  7.46031	 11.27869	  8.94728	 -0.01631	 19.52753	707.67999	 24.50	
  5.096	  9.576	 19.43722	 12.96733	  7.15265	 10.34430	  9.82709	 -0.01802	 19.54132	707.69501	 24.50	
  5.096	 -9.576	 19.41887	 12.95929	  7.15681	  9.32584	 10.81108	 -0.02242	 19.53730	707.70801	 24.50	
  5.089	-28.397	 19.41949	 12.61713	  7.43677	  8.43872	 11.72861	 -0.04456	 19.54076	707.70801	 24.50	
  5.094	-47.331	 19.40944	 11.96134	  8.00865	  7.69249	 12.53275	 -0.06191	 19.53793	707.73700	 24.50	
  5.104	-66.290	 19.39236	 11.08137	  8.79973	  7.16161	 13.10800	 -0.07501	 19.52921	707.68903	 24.40	
  5.093	-85.207	 19.39879	 10.09295	  9.75607	  6.94673	 13.37689	 -0.06689	 19.53855	707.70398	 24.50	
  5.105	-104.191	 19.39889	  9.13517	 10.73025	  7.01156	 13.29661	 -0.07146	 19.54182	707.55402	 24.40	
  5.095	-123.033	 19.41115	  8.29198	 11.66543	  7.39698	 12.88077	 -0.05497	 19.55360	707.70398	 24.50	
  5.109	-142.013	 19.41530	  7.61814	 12.41928	  8.02611	 12.19885	 -0.04282	 19.54642	707.71802	 24.50	
  5.099	-161.165	 19.41016	  7.17897	 12.91151	  8.87541	 11.28352	 -0.03870	 19.52713	707.60400	 24.50	
  5.100	180.000	 19.41924	  7.03599	 13.10273	  9.81823	 10.34585	  0.00703	 19.53301	707.76202	 24.50	
  6.800	180.000	 19.26991	  5.88757	 13.99563	  9.61495	 10.15950	 -0.13568	 19.55842	707.65002	 24.50	
  6.796	-166.229	 19.24498	  5.96857	 13.86189	  8.66997	 11.07410	 -0.14538	 19.54180	707.60797	 24.50	
  6.808	-152.311	 19.18241	  6.24190	 13.45845	  7.77664	 11.96744	 -0.15114	 19.49122	707.59601	 24.50	
  6.795	-138.383	 19.22328	  6.74924	 12.89489	  7.03373	 12.84137	 -0.16204	 19.53881	707.62097	 24.50	
  6.792	-124.591	 19.26623	  7.45967	 12.15257	  6.44948	 13.54757	 -0.17560	 19.58096	707.66400	 24.50	
  6.787	-110.754	 19.20410	  8.26293	 11.22537	  6.02955	 13.97202	 -0.19465	 19.52509	707.66602	 24.50	
  6.800	-96.985	 19.21312	  9.15961	 10.27690	  5.82725	 14.21688	 -0.22320	 19.53366	707.75299	 24.50	
  6.800	-83.015	 19.21324	 10.14282	  9.29571	  5.83480	 14.21696	 -0.22918	 19.53890	707.70599	 24.50	
  6.787	-69.246	 19.23272	 11.10911	  8.39120	  6.04834	 13.98518	 -0.23502	 19.54942	707.78003	 24.50	
  6.792	-55.409	 19.21315	 11.99808	  7.56289	  6.44488	 13.49850	 -0.22010	 19.53081	707.59302	 24.50	
  6.795	-41.617	 19.22533	 12.78043	  6.89334	  7.03850	 12.83313	 -0.20007	 19.53944	707.80103	 24.50	
  6.808	-27.689	 19.25782	 13.41181	  6.38840	  7.80686	 12.00548	 -0.17852	 19.56212	707.75098	 24.50	
  6.796	-13.771	 19.23606	 13.75742	  6.07990	  8.67359	 11.06827	 -0.16655	 19.53476	707.64203	 24.50	
  6.800	  0.000	 19.23588	 13.88596	  5.96490	  9.60525	 10.11445	 -0.16472	 19.52324	707.75702	 24.50	
  6.796	 13.771	 19.25290	 13.78430	  6.07416	 10.58843	  9.19320	 -0.15287	 19.53470	707.74902	 24.50	
  6.808	 27.689	 19.23187	 13.40007	  6.37342	 11.51102	  8.29298	 -0.14462	 19.50989	707.72302	 24.40	
  6.795	 41.617	 19.26363	 12.81335	  6.90436	 12.35837	  7.56986	 -0.13758	 19.54383	707.75403	 24.50	
  6.792	 55.409	 19.26289	 12.04038	  7.58086	 13.04870	  6.98196	 -0.11215	 19.53048	707.77698	 24.40	
  6.787	 69.246	 19.29433	 11.15875	  8.41660	 13.54101	  6.60241	 -0.12983	 19.55473	707.71399	 24.50	
  6.800	 83.015	 19.28502	 10.21942	  9.34149	 13.79764	  6.37695	 -0.13899	 19.55216	707.62799	 24.40	
  6.800	 96.985	 19.26363	  9.26403	 10.28439	 13.79187	  6.37319	 -0.12608	 19.52631	707.71399	 24.40	
  6.787	110.754	 19.25851	  8.36383	 11.24765	 13.51877	  6.60113	 -0.14716	 19.52171	707.72601	 24.40	
  6.792	124.591	 19.25353	  7.53075	 12.14528	 13.03626	  7.01552	 -0.13373	 19.51880	707.81299	 24.40	
  6.795	138.383	 19.26514	  6.83716	 12.90176	 12.35937	  7.60893	 -0.14055	 19.52927	707.80200	 24.40	
  6.808	152.311	 19.25901	  6.32223	 13.49687	 11.53227	  8.35102	 -0.13127	 19.54124	707.83600	 24.40	
  6.796	166.229	 19.24151	  5.98855	 13.85254	 10.57494	  9.22936	 -0.12875	 19.52527	707.79102	 24.40	
  8.491	168.704	 19.00766	  4.81733	 14.70362	 10.35705	  8.94906	 -0.27889	 19.53481	707.73499	 24.40	
  8.502	157.493	 19.02888	  5.07033	 14.42301	 11.33258	  8.02919	 -0.27323	 19.55212	707.82202	 24.40	
  8.494	146.194	 19.03234	  5.48726	 13.92303	 12.24812	  7.21549	 -0.27896	 19.53391	707.75098	 24.40	
  8.495	135.039	 19.02545	  6.02730	 13.25815	 13.06068	  6.51210	 -0.29375	 19.53226	707.87500	 24.40	
  8.487	123.723	 19.02934	  6.74245	 12.43444	 13.74502	  5.96796	 -0.30278	 19.53291	707.79102	 24.40	
  8.492	112.575	 19.03471	  7.58935	 11.52479	 14.24582	  5.57861	 -0.31121	 19.53790	707.74500	 24.40	
  8.510	101.220	 19.04049	  8.52592	 10.54399	 14.57142	  5.31899	 -0.32298	 19.54414	707.86902	 24.40	
  8.500	 90.000	 19.02309	  9.48470	  9.55229	 14.64517	  5.21581	 -0.31979	 19.52014	707.93201	 24.40	
  8.510	 78.780	 19.02504	 10.46573	  8.58424	 14.54217	  5.30316	 -0.29054	 19.52986	707.88599	 24.40	
  8.492	 67.425	 19.03649	 11.43405	  7.67164	 14.22763	  5.55677	 -0.27314	 19.53951	707.76001	 24.40	
  8.487	 56.277	 19.02154	 12.32896	  6.85757	 13.72212	  5.95252	 -0.27368	 19.52478	707.87799	 24.40	
  8.495	 44.961	 19.03249	 13.16033	  6.13589	 13.06035	  6.51159	 -0.28797	 19.54815	707.81799	 24.40	
  8.494	 33.806	 19.00568	 13.81337	  5.57139	 12.24014	  7.20036	 -0.30230	 19.51982	707.70001	 24.40	
  8.502	 22.507	 18.99656	 14.32148	  5.14295	 11.32648	  8.00439	 -0.30657	 19.52377	707.68402	 24.40	
  8.491	 11.296	 19.00050	 14.63639	  4.89073	 10.37321	  8.92484	 -0.31945	 19.53899	707.79102	 24.40	
  8.500	  0.000	 18.95382	 14.70248	  4.79233	  9.34262	  9.86667	 -0.33435	 19.49346	707.87000	 24.40	
  8.491	-11.296	 18.98357	 14.61481	  4.89313	  8.39430	 10.85045	 -0.33198	 19.52221	707.86298	 24.40	
  8.502	-22.507	 18.97580	 14.30499	  5.13590	  7.48706	 11.80503	 -0.33220	 19.53453	707.94800	 24.40	
  8.494	-33.806	 18.96141	 13.77731	  5.54412	  6.64410	 12.71803	 -0.35559	 19.52427	707.86102	 24.40	
  8.495	-44.961	 18.96125	 13.10607	  6.11130	  5.94918	 13.52122	 -0.38612	 19.53654	707.66400	 24.40	
  8.487	-56.277	 18.93403	 12.26336	  6.81915	  5.39739	 14.14800	 -0.40848	 19.51268	707.74597	 24.40	
  8.492	-67.425	 18.95815	 11.37671	  7.63331	  4.99227	 14.65227	 -0.42358	 19.54126	707.76001	 24.40	
  8.510	-78.780	 18.95081	 10.38453	  8.55153	  4.72916	 14.96891	 -0.43614	 19.53011	707.73499	 24.40	
  8.500	-90.000	 18.96586	  9.39173	  9.52692	  4.64192	 15.07944	 -0.42810	 19.54619	707.85602	 24.40	
  8.510	-101.220	 18.94481	  8.41622	 10.51411	  4.69868	 14.97390	 -0.41223	 19.53042	707.67499	 24.40	
  8.492	-112.575	 18.93265	  7.48318	 11.49004	  4.96195	 14.64978	 -0.36869	 19.52084	707.79797	 24.40	
  8.487	-123.723	 18.94438	  6.65941	 12.39114	  5.37271	 14.16605	 -0.34994	 19.52348	707.77698	 24.40	
  8.495	-135.039	 18.94150	  5.94749	 13.20009	  5.91983	 13.51326	 -0.33601	 19.52348	707.83899	 24.40	
  8.494	-146.194	 18.94773	  5.40228	 13.86161	  6.63159	 12.71892	 -0.32756	 19.51474	707.82098	 24.40	
  8.502	-157.493	 18.96307	  5.01064	 14.37839	  7.47041	 11.80845	 -0.31634	 19.52240	707.95099	 24.40	
  8.491	-168.704	 18.96145	  4.78652	 14.67255	  8.36982	 10.85564	 -0.30971	 19.50431	707.83002	 24.40	
  8.500	180.000	 19.00581	  4.73127	 14.81516	  9.35283	  9.91226	 -0.31721	 19.54734	707.73901	 24.40	
 10.200	180.000	 18.69229	  3.59801	 15.57851	  9.05836	  9.61852	 -0.47641	 19.54420	707.74597	 24.40	
 10.191	-170.497	 18.66269	  3.60531	 15.48558	  8.07322	 10.57543	 -0.48451	 19.54134	707.82202	 24.40	
 10.210	-161.034	 18.64030	  3.75311	 15.21362	  7.13562	 11.53508	 -0.48093	 19.52650	707.76501	 24.40	
 10.194	-151.526	 18.63793	  4.09711	 14.77556	  6.26707	 12.49506	 -0.48393	 19.52947	707.82501	 24.40	
 10.190	-142.105	 18.64310	  4.55551	 14.20052	  5.48995	 13.37286	 -0.48149	 19.54522	707.77002	 24.40	
 10.215	-132.646	 18.62179	  5.13885	 13.47307	  4.82008	 14.13212	 -0.48032	 19.52419	707.86700	 24.40	
 10.203	-123.092	 18.61968	  5.86801	 12.62294	  4.29058	 14.78960	 -0.49522	 19.52914	707.79303	 24.40	
 10.192	-113.678	 18.63459	  6.70539	 11.70643	  3.89641	 15.30371	 -0.52330	 19.54723	707.72601	 24.40	
 10.208	-104.249	 18.61638	  7.59254	 10.72707	  3.60262	 15.64370	 -0.56803	 19.53413	707.88397	 24.50	
 10.210	-94.801	 18.62008	  8.55912	  9.72787	  3.45912	 15.82862	 -0.60157	 19.53389	707.79901	 24.40	
 10.210	-85.199	 18.60251	  9.56680	  8.71002	  3.47317	 15.81503	 -0.62022	 19.52468	707.83002	 24.40	
 10.208	-75.751	 18.60183	 10.56938	  7.75614	  3.61194	 15.63928	 -0.62633	 19.52575	707.76703	 24.40	
 10.192	-66.322	 18.59014	 11.54966	  6.86308	  3.89691	 15.27749	 -0.61394	 19.50908	707.73700	 24.40	
 10.203	-56.908	 18.60858	 12.48979	  6.04868	  4.30335	 14.78619	 -0.60120	 19.52843	707.74500	 24.40	
 10.215	-47.354	 18.62336	 13.35819	  5.31446	  4.84254	 14.14700	 -0.57350	 19.53977	707.84100	 24.40	
 10.190	-37.895	 18.63241	 14.08297	  4.72934	  5.50070	 13.37944	 -0.54036	 19.53224	707.63599	 24.40	
 10.194	-28.474	 18.62974	 14.67436	  4.25933	  6.26555	 12.49865	 -0.51836	 19.51358	707.68298	 24.40	
 10.210	-18.966	 18.65871	 15.15028	  3.92875	  7.14732	 11.56292	 -0.50522	 19.54786	707.73499	 24.40	
 10.191	 -9.503	 18.65560	 15.40752	  3.74130	  8.07109	 10.57048	 -0.50400	 19.52601	707.65900	 24.40	
 10.200	  0.000	 18.69682	 15.54828	  3.68071	  9.06295	  9.60708	 -0.50695	 19.56740	707.60498	 24.40	
 10.191	  9.503	 18.65775	 15.43651	  3.74161	 10.05539	  8.60483	 -0.51251	 19.51733	707.68298	 24.40	
 10.210	 18.966	 18.67203	 15.19505	  3.92280	 11.04953	  7.68551	 -0.50806	 19.52884	707.62701	 24.40	
 10.194	 28.474	 18.69375	 14.74540	  4.26587	 12.01416	  6.84452	 -0.49340	 19.54036	707.60999	 24.40	
 10.190	 37.895	 18.73423	 14.17534	  4.74689	 12.92534	  6.09400	 -0.47582	 19.57845	707.73901	 24.40	
 10.215	 47.354	 18.69474	 13.43216	  5.31735	 13.69448	  5.40853	 -0.45801	 19.53020	707.71100	 24.50	
 10.203	 56.908	 18.70995	 12.59065	  6.05603	 14.36215	  4.88150	 -0.43939	 19.54505	707.64398	 24.40	
 10.192	 66.322	 18.70747	 11.66545	  6.88043	 14.86543	  4.49860	 -0.44212	 19.52908	707.73102	 24.40	
 10.208	 75.751	 18.71789	 10.69462	  7.77307	 15.23942	  4.22635	 -0.47381	 19.54445	707.75702	 24.40	
 10.210	 85.199	 18.72771	  9.71562	  8.73716	 15.43012	  4.08171	 -0.51231	 19.55816	707.69098	 24.50	
 10.210	 94.801	 18.70641	  8.68925	  9.75357	 15.41526	  4.08655	 -0.53471	 19.53840	707.58801	 24.40	
 10.208	104.249	 18.69166	  7.69982	 10.74600	 15.22131	  4.22877	 -0.53474	 19.51661	707.74200	 24.40	
 10.192	113.678	 18.70409	  6.77439	 11.72145	 14.87027	  4.49845	 -0.51594	 19.52520	707.61603	 24.40	
 10.203	123.092	 18.71130	  5.95309	 12.65286	 14.38125	  4.87877	 -0.49733	 19.54023	707.61902	 24.40	
 10.215	132.646	 18.71607	  5.21191	 13.51742	 13.73068	  5.40706	 -0.48801	 19.55560	707.60199	 24.40	
 10.190	142.105	 18.70704	  4.66610	 14.22711	 12.91813	  6.08331	 -0.46871	 19.54365	707.63898	 24.40	
 10.194	151.526	 18.69843	  4.22711	 14.80360	 12.02068	  6.85354	 -0.45572	 19.52791	707.66901	 24.40	
 10.210	161.034	 18.69153	  3.88815	 15.24206	 11.06507	  7.70304	 -0.45467	 19.53609	707.68903	 24.40	
 10.191	170.497	 18.69011	  3.68335	 15.48306	 10.07747	  8.63666	 -0.48148	 19.53789	707.67700	 24.40	
 11.899	171.783	 18.29516	  2.55459	 16.21247	  9.73308	  8.26557	 -0.64763	 19.53020	707.57397	 24.50	
 11.890	163.610	 18.30194	  2.71753	 15.99055	 10.72733	  7.33991	 -0.62808	 19.52853	707.61902	 24.50	
 11.889	155.445	 18.31536	  2.99179	 15.63313	 11.71514	  6.47002	 -0.61388	 19.54300	707.77002	 24.40	
 11.909	147.299	 18.30577	  3.35657	 15.11572	 12.65262	  5.63866	 -0.62186	 19.52269	707.78699	 24.50	
 11.902	139.148	 18.31097	  3.87875	 14.46181	 13.52047	  4.92601	 -0.63707	 19.52960	707.82202	 24.40	
 11.894	130.867	 18.34682	  4.49589	 13.70763	 14.30280	  4.34820	 -0.65202	 19.54910	707.84698	 24.40	
 11.897	122.732	 18.31476	  5.13736	 12.82947	 14.92996	  3.85953	 -0.68130	 19.52023	707.76001	 24.40	
 11.903	114.597	 18.31067	  5.92505	 11.89502	 15.46146	  3.47008	 -0.70256	 19.52676	707.78699	 24.40	
 11.893	106.346	 18.32807	  6.85405	 10.90545	 15.86421	  3.19756	 -0.73227	 19.53794	707.81500	 24.40	
 11.892	 98.155	 18.31203	  7.82639	  9.88833	 16.07975	  3.02945	 -0.72914	 19.52228	707.80701	 24.50	
 11.900	 90.000	 18.31783	  8.83495	  8.88274	 16.16204	  2.96374	 -0.71575	 19.52992	707.74500	 24.40	
 11.892	 81.845	 18.35206	  9.87449	  7.90865	 16.10106	  3.04413	 -0.68001	 19.56667	707.82098	 24.40	
 11.893	 73.654	 18.31503	 10.84928	  6.95077	 15.83526	  3.21101	 -0.62510	 19.53068	707.84698	 24.40	
 11.903	 65.403	 18.32240	 11.85606	  6.06056	 15.45041	  3.48431	 -0.59682	 19.54440	707.72803	 24.50	
 11.897	 57.268	 18.32616	 12.79293	  5.25682	 14.91979	  3.87091	 -0.59561	 19.54764	707.84399	 24.50	
 11.894	 49.133	 18.32899	 13.64599	  4.54802	 14.26279	  4.37462	 -0.60511	 19.54638	707.78699	 24.50	
 11.902	 40.852	 18.29386	 14.38618	  3.92128	 13.47982	  4.94975	 -0.63926	 19.52097	707.79102	 24.50	
 11.909	 32.701	 18.31194	 15.04912	  3.44461	 12.64130	  5.66704	 -0.66752	 19.54827	707.72803	 24.50	
 11.889	 24.555	 18.31185	 15.58574	  3.07741	 11.70301	  6.47199	 -0.68045	 19.55302	707.83301	 24.50	
 11.890	 16.390	 18.28465	 15.93908	  2.80507	 10.71581	  7.32908	 -0.69249	 19.53032	707.90302	 24.50	
 11.899	  8.217	 18.28950	 16.17261	  2.64246	  9.72393	  8.26149	 -0.68558	 19.54477	707.88397	 24.50	
 11.900	  0.000	 18.28545	 16.24445	  2.58475	  8.70373	  9.25117	 -0.68415	 19.54802	707.81299	 24.50	
 11.899	 -8.217	 18.25539	 16.13165	  2.63041	  7.70165	 10.22791	 -0.67781	 19.51409	707.82898	 24.50	
 11.890	-16.390	 18.26034	 15.90005	  2.78375	  6.77686	 11.22661	 -0.66926	 19.54173	707.77600	 24.50	
 11.889	-24.555	 18.26096	 15.51310	  3.04959	  5.89984	 12.20860	 -0.67635	 19.55272	707.85199	 24.50	
 11.909	-32.701	 18.23070	 14.96357	  3.42835	  5.08253	 13.11331	 -0.69378	 19.53359	707.97400	 24.50	
 11.902	-40.852	 18.22927	 14.32069	  3.92233	  4.37693	 13.95223	 -0.70730	 19.54116	707.94800	 24.50	
 11.894	-49.133	 18.21588	 13.52648	  4.53361	  3.75111	 14.71197	 -0.73585	 19.53472	707.80701	 24.50	
 11.897	-57.268	 18.21803	 12.66714	  5.25116	  3.24318	 15.35911	 -0.77333	 19.55203	707.82898	 24.50	
 11.903	-65.403	 18.20935	 11.71772	  6.04943	  2.84515	 15.86665	 -0.79359	 19.53764	707.80798	 24.50	
 11.893	-73.654	 18.21795	 10.72426	  6.93274	  2.58607	 16.23567	 -0.80230	 19.54608	707.69702	 24.50	
 11.892	-81.845	 18.25199	  9.72936	  7.88594	  2.42008	 16.47833	 -0.79992	 19.56977	707.79303	 24.50	
 11.900	-90.000	 18.22641	  8.70265	  8.84666	  2.34431	 16.53878	 -0.78847	 19.53954	707.83899	 24.50	
 11.892	-98.155	 18.24060	  7.71418	  9.85573	  2.40618	 16.46542	 -0.77752	 19.54626	707.96399	 24.50	
 11.893	-106.346	 18.25308	  6.77162	 10.87157	  2.56724	 16.25847	 -0.74338	 19.55796	707.85999	 24.50	
 11.903	-114.597	 18.21527	  5.86146	 11.83178	  2.82704	 15.86092	 -0.69905	 19.53179	707.82202	 24.50	
 11.897	-122.732	 18.22571	  5.05088	 12.77465	  3.21488	 15.35389	 -0.66947	 19.54119	707.88800	 24.50	
 11.894	-130.867	 18.23116	  4.33252	 13.63356	  3.72705	 14.71150	 -0.65499	 19.54171	707.98499	 24.50	
 11.902	-139.148	 18.25600	  3.69886	 14.43025	  4.36195	 13.96694	 -0.66099	 19.56318	707.90100	 24.50	
 11.909	-147.299	 18.24968	  3.19268	 15.06458	  5.07248	 13.12059	 -0.67723	 19.54797	707.91101	 24.50	
 11.889	-155.445	 18.24593	  2.85120	 15.56607	  5.88140	 12.19692	 -0.67854	 19.53381	707.85199	 24.50	
 11.890	-163.610	 18.27761	  2.62134	 15.97149	  6.77879	 11.23165	 -0.69161	 19.55263	707.87701	 24.50	
 11.899	-171.783	 18.28475	  2.49982	 16.20973	  7.71946	 10.25840	 -0.69080	 19.54288	707.85199	 24.50	
 11.900	180.000	 18.26500	  2.47384	 16.25583	  8.69544	  9.25180	 -0.68580	 19.51458	707.90002	 24.50	
 13.600	180.000	 17.81404	  1.38108	 16.91039	  8.31158	  8.86755	 -0.84490	 19.51391	707.88000	 24.50	
 13.608	-172.853	 17.81886	  1.38779	 16.85734	  7.33809	  9.84391	 -0.85552	 19.53568	707.87500	 24.50	
 13.611	-165.583	 17.78851	  1.48169	 16.63580	  6.36718	 10.83070	 -0.85288	 19.52390	707.97302	 24.50	
 13.601	-158.353	 17.78640	  1.68276	 16.30586	  5.45955	 11.82496	 -0.85008	 19.53259	707.82202	 24.50	
 13.609	-151.210	 17.77580	  1.96676	 15.84366	  4.63093	 12.75715	 -0.84582	 19.53484	707.86102	 24.50	
 13.611	-143.999	 17.77147	  2.37331	 15.24867	  3.89295	 13.64571	 -0.82068	 19.53996	707.78003	 24.50	
 13.601	-136.825	 17.74903	  2.88960	 14.51791	  3.22097	 14.44379	 -0.79699	 19.51116	707.71100	 24.50	
 13.596	-129.640	 17.77154	  3.51710	 13.74041	  2.65354	 15.20189	 -0.78603	 19.54142	707.90100	 24.50	
 13.611	-122.431	 17.77406	  4.22625	 12.87827	  2.19713	 15.84701	 -0.80528	 19.55180	707.85602	 24.50	
 13.604	-115.211	 17.75913	  5.01320	 11.92610	  1.83208	 16.34198	 -0.83276	 19.52894	707.92499	 24.50	
 13.595	-108.042	 17.76949	  5.88420	 10.95543	  1.54543	 16.74370	 -0.87491	 19.54665	707.87500	 24.50	
 13.607	-100.793	 17.74462	  6.80017	  9.93518	  1.33498	 17.00036	 -0.90120	 19.52371	707.89502	 24.50	
 13.601	-93.617	 17.76224	  7.77181	  8.94301	  1.24846	 17.15031	 -0.90820	 19.53856	707.88000	 24.50	
 13.601	-86.383	 17.75187	  8.78508	  7.94358	  1.25563	 17.15692	 -0.89239	 19.54476	707.93201	 24.50	
 13.607	-79.207	 17.73509	  9.78859	  6.97980	  1.34677	 17.01862	 -0.89372	 19.53401	707.93402	 24.50	
 13.595	-71.958	 17.76270	 10.81613	  6.07549	  1.55124	 16.77687	 -0.88938	 19.56426	707.84900	 24.50	
 13.604	-64.789	 17.70790	 11.77404	  5.20327	  1.81660	 16.33526	 -0.88026	 19.51014	707.91998	 24.50	
 13.611	-57.569	 17.73536	 12.74747	  4.41415	  2.18581	 15.85875	 -0.87345	 19.54512	707.89801	 24.50	
 13.596	-50.360	 17.73382	 13.62681	  3.73436	  2.64914	 15.22435	 -0.85251	 19.52880	707.90900	 24.50	
 13.601	-43.175	 17.76770	 14.45379	  3.13496	  3.22773	 14.50115	 -0.83084	 19.55426	707.98199	 24.50	
 13.611	-36.001	 17.75357	 15.15602	  2.59905	  3.88818	 13.66004	 -0.82594	 19.53465	707.97302	 24.50	
 13.609	-28.790	 17.77882	 15.76829	  2.17061	  4.64200	 12.77299	 -0.81457	 19.54466	707.91699	 24.50	
 13.601	-21.647	 17.78912	 16.23710	  1.84749	  5.45434	 11.83394	 -0.80802	 19.54361	707.96503	 24.50	
 13.611	-14.417	 17.79323	 16.58851	  1.63604	  6.36009	 10.83338	 -0.81581	 19.53870	708.00201	 24.50	
 13.608	 -7.147	 17.81230	 16.81272	  1.51405	  7.32329	  9.83721	 -0.81588	 19.54299	707.85199	 24.50	
 13.600	  0.000	 17.82408	 16.89013	  1.47563	  8.29604	  8.86022	 -0.81688	 19.54939	707.85498	 24.50	
 13.608	  7.147	 17.82147	 16.83290	  1.50881	  9.29718	  7.88270	 -0.82372	 19.54426	707.90601	 24.50	
 13.611	 14.417	 17.82698	 16.64432	  1.63786	 10.30821	  6.94235	 -0.83487	 19.54874	707.80103	 24.50	
 13.601	 21.647	 17.84231	 16.31274	  1.86312	 11.31026	  6.06385	 -0.83490	 19.56482	707.82501	 24.50	
 13.609	 28.790	 17.84014	 15.85795	  2.16751	 12.26718	  5.23554	 -0.82311	 19.55277	707.93201	 24.50	
 13.611	 36.001	 17.85059	 15.28046	  2.59128	 13.18292	  4.51259	 -0.80603	 19.54980	707.78497	 24.50	
 13.601	 43.175	 17.85906	 14.58298	  3.13381	 14.01131	  3.89558	 -0.77485	 19.54378	707.77698	 24.50	
 13.596	 50.360	 17.85015	 13.77571	  3.71715	 14.76860	  3.31502	 -0.75371	 19.53689	707.97101	 24.50	
 13.611	 57.569	 17.82149	 12.87286	  4.38820	 15.41805	  2.82442	 -0.73735	 19.51112	707.94800	 24.50	
 13.604	 64.789	 17.86695	 11.95273	  5.19103	 15.99143	  2.45572	 -0.74955	 19.56437	707.83197	 24.50	
 13.595	 71.958	 17.87100	 10.96168	  6.06359	 16.39566	  2.17740	 -0.77947	 19.55906	707.85303	 24.50	
 13.607	 79.207	 17.84760	  9.93319	  6.98286	 16.66336	  1.97463	 -0.83401	 19.53502	707.91101	 24.50	
 13.601	 86.383	 17.85766	  8.91949	  7.96335	 16.79148	  1.89116	 -0.88207	 19.53534	708.02100	 24.50	
 13.601	 93.617	 17.86358	  7.89908	  8.97659	 16.80093	  1.89457	 -0.90651	 19.53709	708.03497	 24.50	
 13.607	100.793	 17.87075	  6.92892	  9.98850	 16.68084	  1.98885	 -0.92469	 19.54228	707.91998	 24.50	
 13.595	108.042	 17.84828	  5.96885	 10.99490	 16.38985	  2.17575	 -0.90734	 19.53101	708.03802	 24.50	
 13.604	115.211	 17.84955	  5.09147	 11.97558	 15.99334	  2.45165	 -0.88679	 19.53056	707.97302	 24.50	
 13.611	122.431	 17.87513	  4.38644	 12.94335	 15.48486	  2.81883	 -0.85992	 19.55727	707.94800	 24.50	
 13.596	129.640	 17.86861	  3.70720	 13.80804	 14.81268	  3.29538	 -0.82332	 19.53861	707.90100	 24.50	
 13.601	136.825	 17.85585	  3.11121	 14.60027	 14.04289	  3.85787	 -0.80369	 19.51833	707.95697	 24.50	
 13.611	143.999	 17.85721	  2.55739	 15.29739	 13.21814	  4.48062	 -0.79839	 19.52821	707.92798	 24.50	
 13.609	151.210	 17.87249	  2.09188	 15.91002	 12.32024	  5.22488	 -0.79426	 19.56034	707.98199	 24.50	
 13.601	158.353	 17.86201	  1.78113	 16.35250	 11.34832	  6.07289	 -0.79382	 19.54244	707.86401	 24.50	
 13.611	165.583	 17.85142	  1.55608	 16.67140	 10.34413	  6.96306	 -0.81056	 19.54245	707.85303	 24.50	
 13.608	172.853	 17.84762	  1.43554	 16.87530	  9.33070	  7.90688	 -0.83772	 19.54772	707.85999	 24.50	
 15.298	173.587	 17.34050	  0.28094	 17.46538	  8.89600	  7.46769	 -0.98153	 19.55165	708.05200	 24.50	
 15.291	167.167	 17.33995	  0.38265	 17.29111	  9.89173	  6.53341	 -0.96064	 19.55227	707.96503	 24.50	
 15.307	160.676	 17.36234	  0.59309	 17.01888	 10.91438	  5.63733	 -0.94307	 19.56410	707.90900	 24.50	
 15.300	154.261	 17.36818	  0.88608	 16.61069	 11.90399	  4.78979	 -0.93718	 19.57407	707.92297	 24.50	
 15.288	147.854	 17.33358	  1.28391	 16.04303	 12.80650	  4.04807	 -0.92564	 19.51951	708.11902	 24.50	
 15.293	141.428	 17.36060	  1.75007	 15.43802	 13.71293	  3.38206	 -0.93543	 19.54866	708.02100	 24.50	
 15.299	134.985	 17.35590	  2.27709	 14.70210	 14.54582	  2.76416	 -0.94380	 19.55068	708.02600	 24.50	
 15.305	128.583	 17.33577	  2.90483	 13.86198	 15.28027	  2.22326	 -0.95223	 19.53804	708.15002	 24.50	
 15.309	122.142	 17.37337	  3.59276	 13.00323	 15.95199	  1.76595	 -0.97383	 19.57884	708.15302	 24.50	
 15.304	115.711	 17.36297	  4.33079	 12.05177	 16.46667	  1.40819	 -0.99963	 19.56269	708.13098	 24.50	
 15.297	109.291	 17.35274	  5.11671	 11.05782	 16.87102	  1.14609	 -1.01177	 19.54718	708.11200	 24.50	
 15.293	102.897	 17.33520	  6.00973	 10.04771	 17.15225	  0.94255	 -1.00599	 19.52402	708.08502	 24.50	
 15.293	 96.458	 17.35118	  6.97164	  9.04285	 17.34447	  0.81542	 -1.01264	 19.54043	708.08899	 24.50	
 15.300	 90.000	 17.37563	  7.97126	  8.04710	 17.42834	  0.76897	 -1.00266	 19.56968	708.22900	 24.50	
 15.293	 83.542	 17.36697	  8.98985	  7.05441	 17.35827	  0.81216	 -0.97957	 19.56836	708.16803	 24.50	
 15.293	 77.103	 17.36103	 10.00587	  6.09694	 17.16012	  0.94005	 -0.93867	 19.56407	708.19501	 24.50	
 15.297	 70.709	 17.35452	 11.00307	  5.20266	 16.84515	  1.14658	 -0.89229	 19.55164	708.13599	 24.50	
 15.304	 64.289	 17.34037	 11.99268	  4.35103	 16.41784	  1.41551	 -0.85549	 19.54408	708.06097	 24.50	
 15.309	 57.858	 17.30541	 12.92437	  3.57708	 15.86944	  1.77611	 -0.84394	 19.52703	708.22601	 24.50	
 15.305	 51.417	 17.32697	 13.83190	  2.90005	 15.24141	  2.23712	 -0.86505	 19.54690	708.13397	 24.50	
 15.299	 45.015	 17.35471	 14.68421	  2.28693	 14.51370	  2.78965	 -0.88276	 19.58430	708.16998	 24.60	
 15.293	 38.572	 17.33192	 15.40405	  1.75680	 13.65281	  3.41984	 -0.90202	 19.55433	708.17102	 24.60	
 15.288	 32.146	 17.33604	 16.04726	  1.30092	 12.76920	  4.09469	 -0.90552	 19.55709	708.16803	 24.60	
 15.300	 25.739	 17.32617	 16.55738	  0.92627	 11.83554	  4.79719	 -0.90164	 19.56134	708.17902	 24.60	
 15.307	 19.324	 17.30349	 16.96012	  0.65179	 10.83709	  5.62086	 -0.89295	 19.54914	708.03003	 24.60	
 15.291	 12.833	 17.28832	 17.23533	  0.48339	  9.82315	  6.51052	 -0.88778	 19.52891	708.10498	 24.60	
 15.298	  6.413	 17.30366	 17.42554	  0.37639	  8.84312	  7.44282	 -0.88427	 19.55440	708.24402	 24.60	
 15.300	  0.000	 17.30260	 17.47304	  0.33826	  7.83877	  8.41595	 -0.87608	 19.55402	708.27698	 24.60	
 15.298	 -6.413	 17.26420	 17.37476	  0.37560	  6.86021	  9.38265	 -0.87541	 19.52174	708.15002	 24.60	
 15.291	-12.833	 17.28316	 17.21369	  0.46505	  5.93836	 10.38593	 -0.88570	 19.55806	708.18701	 24.60	
 15.307	-19.324	 17.26732	 16.89544	  0.65248	  5.00988	 11.38854	 -0.88582	 19.56311	708.20203	 24.60	
 15.300	-25.739	 17.23703	 16.44190	  0.93548	  4.17384	 12.34275	 -0.88370	 19.53138	708.17401	 24.60	
 15.288	-32.146	 17.26958	 15.93696	  1.31876	  3.42670	 13.29199	 -0.88610	 19.58262	708.17603	 24.60	
 15.293	-38.572	 17.20188	 15.22335	  1.78169	  2.72280	 14.13195	 -0.88747	 19.52397	708.12799	 24.60	
 15.299	-45.015	 17.21579	 14.49938	  2.32851	  2.11183	 14.96919	 -0.88873	 19.55903	708.16101	 24.60	
 15.305	-51.417	 17.20572	 13.66066	  2.94542	  1.59540	 15.66177	 -0.89100	 19.54294	708.01202	 24.60	
 15.309	-57.858	 17.19750	 12.75966	  3.60151	  1.14642	 16.28472	 -0.89784	 19.54689	708.01599	 24.60	
 15.304	-64.289	 17.20788	 11.81369	  4.34655	  0.79612	 16.80061	 -0.88993	 19.55118	708.09497	 24.60	
 15.297	-70.709	 17.21537	 10.82384	  5.17876	  0.51354	 17.21111	 -0.89072	 19.55207	708.08301	 24.60	
 15.293	-77.103	 17.22410	  9.83335	  6.06565	  0.31363	 17.50584	 -0.89127	 19.55366	708.12201	 24.60	
 15.293	-83.542	 17.20115	  8.80660	  6.98626	  0.17419	 17.66026	 -0.91126	 19.52867	708.16400	 24.60	
 15.300	-90.000	 17.25974	  7.82218	  7.98656	  0.12123	 17.77787	 -0.92964	 19.58851	708.26001	 24.60	
 15.293	-96.458	 17.22360	  6.81828	  8.96692	  0.16114	 17.66741	 -0.97056	 19.54281	708.06598	 24.60	
 15.293	-102.897	 17.23046	  5.87786	  9.97766	  0.28205	 17.49500	 -0.97832	 19.54832	708.00500	 24.60	
 15.297	-109.291	 17.23870	  4.99543	 10.97286	  0.49720	 17.20897	 -0.97523	 19.54490	708.09100	 24.60	
 15.304	-115.711	 17.24269	  4.15064	 11.94978	  0.80220	 16.79132	 -0.94819	 19.55690	708.09198	 24.60	
 15.309	-122.142	 17.27781	  3.38213	 12.91514	  1.17445	 16.30340	 -0.92188	 19.59025	708.05200	 24.60	
 15.305	-128.583	 17.26029	  2.68243	 13.77891	  1.61461	 15.66983	 -0.91995	 19.56200	708.06000	 24.60	
 15.299	-134.985	 17.24041	  2.07746	 14.58318	  2.12176	 14.95404	 -0.92892	 19.54835	708.23798	 24.60	
 15.293	-141.428	 17.24801	  1.54602	 15.34059	  2.72738	 14.14527	 -0.94173	 19.54711	708.09198	 24.60	
 15.288	-147.854	 17.23773	  1.11289	 15.97764	  3.41085	 13.25284	 -0.97905	 19.52989	708.06897	 24.60	
 15.300	-154.261	 17.25455	  0.77801	 16.51513	  4.18562	 12.34814	 -0.99861	 19.53718	708.26001	 24.60	
 15.307	-160.676	 17.28149	  0.53890	 16.95024	  5.02735	 11.41454	 -1.01038	 19.56473	708.17603	 24.60	
 15.291	-167.167	 17.30041	  0.37887	 17.24822	  5.96214	 10.40996	 -1.01838	 19.55272	708.11102	 24.60	
 15.298	-173.587	 17.31555	  0.28755	 17.43651	  6.90668	  9.42310	 -1.02070	 19.54971	708.11200	 24.60	
 15.300	180.000	 17.34089	  0.27343	 17.52260	  7.89150	  8.45598	 -1.01273	 19.57035	708.09198	 24.60	
 17.000	180.000	 16.73950	 -0.86496	 18.01620	  7.39568	  7.95336	 -1.10377	 19.55882	708.08502	 24.60	
 16.990	-174.179	 16.73157	 -0.83334	 17.95238	  6.42441	  8.92711	 -1.09609	 19.55366	708.13000	 24.60	
 17.009	-168.383	 16.70916	 -0.76497	 17.78839	  5.47649	  9.90623	 -1.09276	 19.54495	708.18402	 24.60	
 17.000	-162.596	 16.70673	 -0.61308	 17.52323	  4.57300	 10.90170	 -1.07874	 19.56000	708.06403	 24.60	
 16.990	-156.759	 16.67236	 -0.39546	 17.11009	  3.72184	 11.84467	 -1.07532	 19.53362	708.10797	 24.60	
 16.995	-150.919	 16.65995	 -0.10314	 16.62275	  2.95840	 12.78137	 -1.07103	 19.54040	708.01599	 24.60	
 16.988	-145.161	 16.63464	  0.26049	 16.02015	  2.26194	 13.66716	 -1.05303	 19.53066	708.05298	 24.60	
 17.014	-139.343	 16.65177	  0.68296	 15.37128	  1.61053	 14.54516	 -1.02692	 19.56554	708.06000	 24.60	
 17.007	-133.546	 16.63877	  1.20857	 14.59524	  1.05149	 15.30447	 -1.00381	 19.54345	708.03601	 24.60	
 17.001	-127.699	 16.64611	  1.86599	 13.75288	  0.54990	 16.01698	 -1.00683	 19.53704	707.98499	 24.60	
 17.006	-121.937	 16.62785	  2.51653	 12.84658	  0.11396	 16.61765	 -1.01787	 19.53143	707.97400	 24.60	
 17.002	-116.134	 16.65100	  3.25809	 11.93099	 -0.24232	 17.15926	 -1.01463	 19.56263	708.05200	 24.60	
 17.001	-110.310	 16.64231	  4.06889	 10.95193	 -0.55276	 17.57695	 -1.00429	 19.54930	708.14502	 24.60	
 16.988	-104.517	 16.63225	  4.94048	  9.95287	 -0.76333	 17.87335	 -0.98313	 19.53540	708.17401	 24.60	
 17.008	-98.662	 16.64423	  5.86114	  8.96010	 -0.91897	 18.11225	 -0.93350	 19.55642	707.95001	 24.60	
 16.996	-92.909	 16.64860	  6.81131	  7.97379	 -0.97776	 18.21866	 -0.90841	 19.56825	708.11401	 24.60	
 16.996	-87.091	 16.65239	  7.79299	  6.99632	 -0.98091	 18.23719	 -0.87116	 19.58051	708.10303	 24.60	
 17.012	-81.253	 16.63230	  8.78129	  6.04158	 -0.91211	 18.12811	 -0.83489	 19.57863	708.22302	 24.60	
 16.988	-75.483	 16.64848	  9.79067	  5.15370	 -0.74873	 17.94397	 -0.82842	 19.59184	708.08002	 24.60	
 17.001	-69.690	 16.62781	 10.78736	  4.28828	 -0.55145	 17.62757	 -0.82581	 19.57755	708.10797	 24.60	
 17.002	-63.866	 16.60959	 11.76961	  3.50104	 -0.26154	 17.19215	 -0.83589	 19.56155	708.08502	 24.60	
 17.006	-58.063	 16.59614	 12.71435	  2.77626	  0.08144	 16.66292	 -0.84187	 19.54770	708.10797	 24.60	
 17.001	-52.301	 16.60683	 13.62294	  2.11066	  0.49626	 16.06075	 -0.86348	 19.56335	708.17603	 24.60	
 17.007	-46.454	 16.62691	 14.49383	  1.49346	  1.01099	 15.35646	 -0.86842	 19.57439	708.19501	 24.60	
 17.014	-40.657	 16.62220	 15.26312	  0.93070	  1.57031	 14.57958	 -0.86671	 19.56324	708.26099	 24.60	
 16.988	-34.839	 16.63613	 15.94276	  0.46785	  2.21941	 13.71727	 -0.87753	 19.55425	708.16400	 24.60	
 16.995	-29.081	 16.63140	 16.53248	  0.07916	  2.92219	 12.80241	 -0.88642	 19.53472	708.23798	 24.60	
 16.990	-23.241	 16.66715	 17.06115	 -0.25609	  3.70487	 11.87082	 -0.88762	 19.55809	708.24103	 24.60	
 17.000	-17.404	 16.68300	 17.46531	 -0.50770	  4.54309	 10.89766	 -0.88345	 19.56069	708.13397	 24.60	
 17.009	-11.617	 16.69226	 17.74659	 -0.65533	  5.43724	  9.90235	 -0.88585	 19.56316	708.22998	 24.60	
 16.990	 -5.821	 16.73307	 17.94389	 -0.75964	  6.38039	  8.93503	 -0.87217	 19.58680	708.06702	 24.60	
 17.000	  0.000	 16.71434	 17.98458	 -0.79643	  7.33452	  7.93512	 -0.86861	 19.55146	708.09497	 24.60	
 16.990	  5.821	 16.71526	 17.93529	 -0.75870	  8.33284	  6.96341	 -0.86515	 19.55424	708.02698	 24.60	
 17.009	 11.617	 16.71039	 17.79166	 -0.69824	  9.31299	  6.03876	 -0.86630	 19.55558	708.18402	 24.60	
 17.000	 17.404	 16.70325	 17.52413	 -0.53851	 10.30235	  5.16157	 -0.87822	 19.53866	708.15302	 24.60	
 16.990	 23.241	 16.68943	 17.13334	 -0.30035	 11.28267	  4.34624	 -0.88338	 19.51080	708.16803	 24.60	
 16.995	 29.081	 16.74557	 16.70917	  0.02786	 12.28154	  3.63935	 -0.91967	 19.57462	708.15399	 24.60	
 16.988	 34.839	 16.74555	 16.12539	  0.42140	 13.19349	  2.93713	 -0.94211	 19.55554	708.09497	 24.60	
 17.014	 40.657	 16.73165	 15.44572	  0.87484	 14.07753	  2.25080	 -0.95466	 19.55725	708.09198	 24.60	
 17.007	 46.454	 16.72225	 14.66381	  1.43076	 14.88155	  1.65717	 -0.94598	 19.53953	708.09802	 24.60	
 17.001	 52.301	 16.74756	 13.83693	  2.06910	 15.62897	  1.14639	 -0.94426	 19.56564	708.14203	 24.60	
 17.006	 58.063	 16.74560	 12.93366	  2.75403	 16.25986	  0.70502	 -0.93713	 19.55337	708.07501	 24.60	
 17.002	 63.866	 16.74660	 11.98370	  3.48984	 16.80824	  0.32519	 -0.94990	 19.55989	708.12598	 24.60	
 17.001	 69.690	 16.74729	 10.99831	  4.28142	 17.25529	  0.03833	 -0.98359	 19.56017	708.09497	 24.60	
 16.988	 75.483	 16.74237	  9.98367	  5.14967	 17.57032	 -0.15854	 -1.01508	 19.54265	708.11902	 24.60	
 17.012	 81.253	 16.73399	  8.97398	  6.06037	 17.80231	 -0.29560	 -1.04877	 19.54035	708.07202	 24.60	
 16.996	 87.091	 16.74456	  7.96444	  7.04025	 17.89927	 -0.33941	 -1.04608	 19.53316	708.19501	 24.60	
 16.996	 92.909	 16.74480	  6.96327	  8.03264	 17.89951	 -0.33004	 -1.04016	 19.53639	708.06702	 24.60	
 17.008	 98.662	 16.77225	  6.00893	  9.03839	 17.83658	 -0.27298	 -1.03414	 19.56936	708.12299	 24.60	
 16.988	104.517	 16.76169	  5.08767	 10.04275	 17.58740	 -0.11926	 -1.02813	 19.53624	708.24103	 24.60	
 17.001	110.310	 16.75410	  4.27689	 11.03760	 17.26670	  0.05998	 -1.04368	 19.53683	708.22998	 24.60	
 17.002	116.134	 16.77427	  3.52347	 12.04141	 16.85903	  0.33298	 -1.04643	 19.56420	708.26099	 24.60	
 17.006	121.937	 16.76988	  2.76621	 12.97225	 16.31310	  0.68260	 -1.05994	 19.55429	708.23199	 24.60	
 17.001	127.699	 16.76594	  2.07443	 13.85859	 15.68494	  1.12007	 -1.05818	 19.55502	708.09698	 24.60	
 17.007	133.546	 16.79562	  1.43154	 14.72246	 14.99071	  1.65574	 -1.05663	 19.58814	708.26898	 24.60	
 17.014	139.343	 16.76276	  0.85253	 15.46838	 14.16316	  2.21799	 -1.06369	 19.56093	708.08801	 24.60	
 16.988	145.161	 16.77849	  0.39863	 16.13840	 13.27761	  2.89763	 -1.06431	 19.55328	708.28802	 24.60	
 16.995	150.919	 16.77110	 -0.05772	 16.71672	 12.35943	  3.59564	 -1.07118	 19.55673	708.18500	 24.60	
 16.990	156.759	 16.76193	 -0.36724	 17.18352	 11.39259	  4.34103	 -1.08014	 19.54442	708.07397	 24.60	
 17.000	162.596	 16.74970	 -0.59068	 17.55176	 10.39450	  5.17434	 -1.08211	 19.53909	708.11200	 24.60	
 17.009	168.383	 16.76365	 -0.76158	 17.83685	  9.40574	  6.06904	 -1.10835	 19.57293	708.32703	 24.60	
 16.990	174.179	 16.73283	 -0.86994	 17.95531	  8.40309	  6.98313	 -1.12351	 19.54284	708.16998	 24.60	
 18.709	174.675	 16.10470	 -2.07945	 18.42397	  7.88222	  6.46567	 -1.17386	 19.56247	708.20898	 24.60	
 18.703	169.441	 16.10057	 -1.90964	 18.27315	  8.85299	  5.55786	 -1.16625	 19.55035	708.06598	 24.60	
 18.691	164.085	 16.11703	 -1.76199	 18.04383	  9.85798	  4.67635	 -1.16215	 19.55285	707.98798	 24.60	
 18.706	158.818	 16.10108	 -1.58548	 17.70291	 10.83575	  3.86149	 -1.15260	 19.53508	707.96698	 24.60	
 18.695	153.537	 16.10041	 -1.33624	 17.26586	 11.78344	  3.12130	 -1.14433	 19.52635	708.09100	 24.70	
 18.704	148.255	 16.10646	 -1.01091	 16.75573	 12.73485	  2.38072	 -1.12454	 19.54269	708.02899	 24.70	
 18.698	142.952	 16.11624	 -0.52235	 16.13471	 13.65718	  1.67092	 -1.11143	 19.54716	707.99500	 24.70	
 18.699	137.625	 16.10111	 -0.00216	 15.41328	 14.49853	  1.04164	 -1.10754	 19.53389	707.99597	 24.70	
 18.705	132.343	 16.11832	  0.56530	 14.66937	 15.27964	  0.51112	 -1.08332	 19.53904	708.17102	 24.70	
 18.713	127.067	 16.11650	  1.19132	 13.83280	 15.98922	  0.03085	 -1.06406	 19.54000	708.15601	 24.70	
 18.700	121.794	 16.12005	  1.88565	 12.93355	 16.61985	 -0.36902	 -1.03925	 19.54356	708.01001	 24.70	
 18.698	116.504	 16.11702	  2.62429	 11.99947	 17.16663	 -0.73502	 -1.02020	 19.54944	708.03802	 24.70	
 18.707	111.165	 16.09938	  3.41644	 11.00380	 17.59862	 -1.01747	 -0.98109	 19.52914	707.94800	 24.70	
 18.690	105.863	 16.12478	  4.23629	 10.02862	 17.95321	 -1.20504	 -0.95411	 19.55171	708.12299	 24.70	
 18.696	100.583	 16.14664	  5.04857	  9.04065	 18.21325	 -1.34192	 -0.94701	 19.57898	708.12000	 24.70	
 18.700	 95.309	 16.12159	  5.96272	  8.02895	 18.32087	 -1.41982	 -0.95140	 19.53736	708.08801	 24.70	
 18.700	 90.000	 16.15530	  6.95425	  7.05545	 18.40484	 -1.45513	 -0.97966	 19.58079	708.12799	 24.70	
 18.700	 84.691	 16.11192	  7.93847	  6.06802	 18.31205	 -1.41593	 -1.00603	 19.53626	708.04102	 24.70	
 18.696	 79.417	 16.12921	  8.95431	  5.13932	 18.17991	 -1.35394	 -1.02778	 19.56574	708.30499	 24.70	
 18.690	 74.137	 16.10637	  9.94790	  4.23816	 17.91504	 -1.22043	 -1.03511	 19.54870	708.21503	 24.70	
 18.707	 68.835	 16.08903	 10.94150	  3.40513	 17.56660	 -1.01861	 -1.03553	 19.54615	708.13702	 24.70	
 18.698	 63.496	 16.10000	 11.93348	  2.61962	 17.12027	 -0.72141	 -1.02903	 19.55605	708.08899	 24.70	
 18.700	 58.206	 16.09106	 12.89787	  1.89461	 16.58125	 -0.45324	 -0.85287	 19.51060	708.08801	 24.70	
 18.713	 52.933	 16.06655	 13.79027	  1.21252	 15.92377	 -0.01346	 -0.82657	 19.48467	707.91901	 24.70	
 18.705	 47.657	 16.09277	 14.65547	  0.60253	 15.21160	  0.50659	 -0.82332	 19.50392	708.10303	 24.70	
 18.699	 42.375	 16.08815	 15.43721	  0.04412	 14.43757	  1.05061	 -0.81116	 19.51873	708.06702	 24.70	
 18.698	 37.048	 16.09519	 16.15651	 -0.44356	 13.57867	  1.66068	 -0.77381	 19.51342	708.13898	 24.70	
 18.704	 31.745	 16.06876	 16.76594	 -0.86830	 12.64595	  2.34077	 -0.73050	 19.49584	708.19501	 24.70	
 18.695	 26.463	 16.09167	 17.31698	 -1.19621	 11.71840	  3.07656	 -0.70266	 19.52367	708.09198	 24.70	
 18.706	 21.182	 16.06863	 17.73084	 -1.48067	 10.75182	  3.82103	 -0.66908	 19.51280	708.11902	 24.70	
 18.691	 15.915	 16.06356	 18.05412	 -1.69130	  9.76120	  4.60113	 -0.65231	 19.51321	708.21600	 24.70	
 18.703	 10.559	 16.05431	 18.28028	 -1.85148	  8.75180	  5.46000	 -0.65532	 19.50932	708.08099	 24.70	
 18.709	  5.325	 16.06002	 18.42633	 -1.96913	  7.79048	  6.35168	 -0.66433	 19.52179	708.04999	 24.70	
 18.700	  0.000	 16.05093	 18.44519	 -2.00087	  6.79891	  7.32687	 -0.66891	 19.50578	708.16699	 24.70	
 18.709	 -5.325	 16.04604	 18.39242	 -1.98195	  5.84119	  8.30051	 -0.67658	 19.50482	708.10498	 24.70	
 18.703	-10.559	 16.01604	 18.21408	 -1.87112	  4.92419	  9.25897	 -0.69000	 19.49293	707.99597	 24.70	
 18.691	-15.915	 16.02382	 17.96209	 -1.71060	  4.03079	 10.27693	 -0.70336	 19.50918	708.10303	 24.70	
 18.706	-21.182	 15.98726	 17.58769	 -1.50216	  3.20536	 11.22866	 -0.70849	 19.48174	707.97101	 24.70	
 18.695	-26.463	 15.98467	 17.13411	 -1.20296	  2.43003	 12.18375	 -0.71043	 19.49399	708.06702	 24.70	
 18.704	-31.745	 15.96353	 16.58346	 -0.86710	  1.70006	 13.11107	 -0.70853	 19.50082	708.01801	 24.70	
 18.698	-37.048	 15.97934	 15.95915	 -0.42184	  1.04543	 14.01149	 -0.70231	 19.52306	708.10797	 24.70	
 18.699	-42.375	 15.97142	 15.23475	  0.09389	  0.45804	 14.82971	 -0.69047	 19.52827	708.01898	 24.70	
 18.705	-47.657	 15.94884	 14.42855	  0.63246	 -0.08132	 15.58406	 -0.66252	 19.50943	708.07202	 24.70	
 18.713	-52.933	 15.93159	 13.56635	  1.23907	 -0.57128	 16.27669	 -0.65071	 19.50984	708.11102	 24.70	
 18.700	-58.206	 15.94664	 12.66281	  1.91550	 -0.95101	 16.89530	 -0.62998	 19.52088	708.20203	 24.70	
 18.698	-63.496	 15.94642	 11.71637	  2.64103	 -1.26594	 17.38748	 -0.60471	 19.50451	708.16199	 24.70	
 18.707	-68.835	 15.95365	 10.73658	  3.41063	 -1.56965	 17.82430	 -0.59072	 19.51081	708.13397	 24.70	
 18.690	-74.137	 15.96446	  9.73567	  4.22702	 -1.78644	 18.14178	 -0.60836	 19.51509	708.09698	 24.70	
 18.696	-79.417	 15.95676	  8.72801	  5.07839	 -1.96366	 18.36331	 -0.60237	 19.49773	708.19000	 24.70	
 18.700	-84.691	 15.97256	  7.72860	  5.98846	 -2.09116	 18.51862	 -0.61749	 19.51045	708.20599	 24.70	
 18.700	-90.000	 15.97534	  6.74525	  6.94282	 -2.12128	 18.55896	 -0.65267	 19.50604	708.21503	 24.70	
 18.700	-95.309	 16.00718	  5.80642	  7.93884	 -2.10658	 18.53626	 -0.70501	 19.53981	708.22302	 24.70	
 18.696	-100.583	 15.98016	  4.89176	  8.91853	 -2.00042	 18.35372	 -0.74469	 19.49249	708.19299	 24.70	
 18.690	-105.863	 15.99824	  4.02138	  9.91393	 -1.83450	 18.13011	 -0.80351	 19.51735	708.10498	 24.70	
 18.707	-111.165	 16.00511	  3.18666	 10.90497	 -1.61104	 17.81501	 -0.84884	 19.52690	708.13000	 24.70	
 18.698	-116.504	 16.00656	  2.41266	 11.87723	 -1.29605	 17.37864	 -0.90229	 19.51921	708.14203	 24.70	
 18.700	-121.794	 15.99302	  1.72398	 12.79735	 -0.94089	 16.86173	 -0.93248	 19.50980	708.14301	 24.70	
 18.713	-127.067	 15.96761	  1.04570	 13.68343	 -0.52758	 16.23031	 -0.92477	 19.48969	708.12299	 24.70	
 18.705	-132.343	 15.99031	  0.37815	 14.55317	 -0.03964	 15.55099	 -0.91591	 19.51456	708.09198	 24.70	
 18.699	-137.625	 15.99879	 -0.15352	 15.33189	  0.50302	 14.78055	 -0.93837	 19.50454	708.18201	 24.70	
 18.698	-142.952	 16.03306	 -0.56775	 16.06321	  1.10560	 13.98519	 -0.95721	 19.53795	708.09698	 24.70	
 18.704	-148.255	 16.01378	 -0.94094	 16.65392	  1.78538	 13.09572	 -0.96636	 19.51068	708.25403	 24.70	
 18.695	-153.537	 16.04950	 -1.26921	 17.22363	  2.51696	 12.19357	 -0.97425	 19.53853	708.32703	 24.70	
 18.706	-158.818	 16.02606	 -1.54544	 17.63126	  3.26267	 11.22323	 -0.95358	 19.49564	708.32800	 24.70	
 18.691	-164.085	 16.04897	 -1.76792	 17.99290	  4.07892	 10.28119	 -0.96174	 19.51568	708.29999	 24.70	
 18.703	-169.441	 16.09083	 -1.93689	 18.27961	  5.00327	  9.29776	 -0.97765	 19.54063	708.26898	 24.70	
 18.709	-174.675	 16.07593	 -2.02498	 18.39837	  5.91311	  8.31359	 -0.99936	 19.49780	708.29999	 24.70	
 18.700	180.000	 16.10763	 -2.06423	 18.48234	  6.88940	  7.36434	 -1.01318	 19.53304	708.30298	 24.70	
 20.400	180.000	 15.39932	 -3.10796	 18.81780	  6.35986	  6.79514	 -0.95485	 19.51006	708.24597	 24.70	
 20.401	-175.153	 15.39461	 -3.08419	 18.77464	  5.41002	  7.73719	 -0.94688	 19.52148	708.33600	 24.70	
 20.407	-170.264	 15.36241	 -3.00283	 18.62548	  4.47952	  8.69098	 -0.92292	 19.50557	708.33301	 24.70	
 20.410	-165.423	 15.34525	 -2.86831	 18.39642	  3.59444	  9.66465	 -0.92028	 19.50183	708.26801	 24.70	
 20.392	-160.496	 15.36957	 -2.65323	 18.09142	  2.80152	 10.65933	 -0.91646	 19.52735	708.38702	 24.70	
 20.401	-155.705	 15.35946	 -2.38051	 17.69190	  2.02820	 11.60420	 -0.92920	 19.53667	708.33600	 24.70	
 20.405	-150.835	 15.32770	 -2.07630	 17.18042	  1.26394	 12.52249	 -0.93959	 19.51174	708.21600	 24.70	
 20.397	-145.903	 15.32183	 -1.73013	 16.59837	  0.58587	 13.42290	 -0.94386	 19.51730	708.38898	 24.70	
 20.392	-141.062	 15.32108	 -1.34511	 15.96024	 -0.03940	 14.26287	 -0.96645	 19.52372	708.29999	 24.70	
 20.396	-136.227	 15.32272	 -0.87524	 15.23318	 -0.60560	 15.07265	 -0.94911	 19.53167	708.35797	 24.70	
 20.408	-131.372	 15.29446	 -0.34965	 14.42527	 -1.13137	 15.80380	 -0.94210	 19.51770	708.35602	 24.70	
 20.410	-126.511	 15.27937	  0.21457	 13.57869	 -1.59289	 16.45863	 -0.93178	 19.49747	708.28497	 24.70	
 20.400	-121.604	 15.28427	  0.86698	 12.68670	 -1.99075	 17.06033	 -0.92315	 19.49692	708.36401	 24.70	
 20.403	-116.741	 15.31067	  1.56136	 11.77165	 -2.35868	 17.61730	 -0.89707	 19.53742	708.18201	 24.70	
 20.413	-111.900	 15.29308	  2.26918	 10.79901	 -2.66131	 18.04073	 -0.82978	 19.51771	708.21002	 24.70	
 20.398	-107.004	 15.28530	  3.04882	  9.81861	 -2.87574	 18.37628	 -0.76337	 19.51389	708.29401	 24.70	
 20.394	-102.132	 15.29721	  3.90844	  8.83263	 -3.04829	 18.65288	 -0.69918	 19.53389	708.31598	 24.70	
 20.403	-97.332	 15.28766	  4.76291	  7.86367	 -3.16000	 18.82590	 -0.65143	 19.52994	708.22400	 24.70	
 20.392	-92.440	 15.28435	  5.69735	  6.88287	 -3.20881	 18.91101	 -0.62709	 19.53244	708.28198	 24.70	
 20.392	-87.560	 15.27913	  6.66112	  5.91582	 -3.20140	 18.91426	 -0.60503	 19.53086	708.20898	 24.70	
 20.403	-82.668	 15.24368	  7.63288	  4.97508	 -3.15663	 18.81990	 -0.58723	 19.51576	708.26001	 24.70	
 20.394	-77.868	 15.23797	  8.61226	  4.13094	 -3.03450	 18.65360	 -0.57333	 19.50451	708.31897	 24.70	
 20.398	-72.996	 15.23577	  9.61474	  3.29680	 -2.87060	 18.40827	 -0.55064	 19.50813	708.39301	 24.80	
 20.413	-68.100	 15.23935	 10.61928	  2.49016	 -2.65297	 18.08119	 -0.56859	 19.52974	708.23297	 24.70	
 20.403	-63.259	 15.24987	 11.62146	  1.74259	 -2.36537	 17.65620	 -0.57028	 19.53804	708.16803	 24.70	
 20.400	-58.396	 15.22001	 12.54462	  1.01297	 -2.02234	 17.10819	 -0.59241	 19.49826	708.16699	 24.70	
 20.410	-53.489	 15.24113	 13.47776	  0.31843	 -1.64562	 16.54745	 -0.61217	 19.54275	708.27698	 24.70	
 20.408	-48.628	 15.22510	 14.31328	 -0.27967	 -1.20192	 15.85711	 -0.64215	 19.51164	708.19299	 24.70	
 20.396	-43.773	 15.23621	 15.11345	 -0.80628	 -0.69598	 15.11062	 -0.64894	 19.50350	708.13397	 24.70	
 20.392	-38.938	 15.25750	 15.86251	 -1.27803	 -0.13902	 14.31504	 -0.64975	 19.51383	708.28601	 24.70	
 20.397	-34.097	 15.28533	 16.55576	 -1.70391	  0.46478	 13.49051	 -0.65018	 19.54873	708.14502	 24.70	
 20.405	-29.165	 15.27542	 17.12746	 -2.07891	  1.14178	 12.56857	 -0.65900	 19.52335	708.29999	 24.70	
 20.401	-24.295	 15.30168	 17.64229	 -2.38036	  1.90248	 11.62706	 -0.66842	 19.52509	708.30298	 24.70	
 20.392	-19.504	 15.32377	 18.05950	 -2.62787	  2.68436	 10.68107	 -0.65736	 19.52666	708.25500	 24.70	
 20.410	-14.577	 15.31470	 18.39230	 -2.83508	  3.50994	  9.69708	 -0.65094	 19.52572	708.26001	 24.70	
 20.407	 -9.736	 15.31564	 18.61531	 -2.97871	  4.36652	  8.70130	 -0.63917	 19.50164	708.32703	 24.70	
 20.401	 -4.847	 15.33245	 18.76227	 -3.06475	  5.27416	  7.72622	 -0.62291	 19.50549	708.26001	 24.70	
 20.400	  0.000	 15.35747	 18.83638	 -3.09285	  6.22014	  6.77616	 -0.61859	 19.52926	708.29700	 24.70	
 20.401	  4.847	 15.37830	 18.82999	 -3.07502	  7.20178	  5.83094	 -0.59874	 19.55272	708.27197	 24.70	
 20.407	  9.736	 15.37251	 18.71027	 -3.00343	  8.16801	  4.93765	 -0.61397	 19.54703	708.25403	 24.70	
 20.410	 14.577	 15.36753	 18.50459	 -2.86852	  9.14570	  4.12963	 -0.61471	 19.54694	708.25201	 24.70	
 20.392	 19.504	 15.36438	 18.18928	 -2.66123	 10.14269	  3.31947	 -0.62119	 19.51924	708.19897	 24.70	
 20.401	 24.295	 15.38275	 17.81559	 -2.41414	 11.10143	  2.57167	 -0.63301	 19.53884	708.34698	 24.80	
 20.405	 29.165	 15.36785	 17.30863	 -2.10810	 12.04705	  1.82814	 -0.66800	 19.50813	708.25403	 24.80	
 20.397	 34.097	 15.37928	 16.72733	 -1.73581	 12.99699	  1.11927	 -0.69879	 19.51259	708.26801	 24.80	
 20.392	 38.938	 15.40718	 16.10291	 -1.32925	 13.90243	  0.47042	 -0.76215	 19.55602	708.23297	 24.70	
 20.396	 43.773	 15.41196	 15.36497	 -0.84064	 14.72212	 -0.10104	 -0.79707	 19.54025	708.28601	 24.80	
 20.408	 48.628	 15.40120	 14.57187	 -0.30683	 15.50296	 -0.65861	 -0.82961	 19.53872	708.28601	 24.70	
 20.410	 53.489	 15.37929	 13.69628	  0.30549	 16.19276	 -1.14183	 -0.86411	 19.52035	708.24103	 24.80	
 20.400	 58.396	 15.39608	 12.80624	  0.98007	 16.84195	 -1.54344	 -0.89185	 19.53065	708.24597	 24.80	
 20.403	 63.259	 15.39590	 11.85881	  1.70914	 17.38691	 -1.88864	 -0.90254	 19.51585	708.32703	 24.80	
 20.413	 68.100	 15.40840	 10.90550	  2.47768	 17.85410	 -2.16774	 -0.90679	 19.54133	708.25403	 24.80	
 20.398	 72.996	 15.41632	  9.90915	  3.30149	 18.22390	 -2.37563	 -0.88592	 19.52832	708.27100	 24.80	
 20.394	 77.868	 15.41017	  8.89193	  4.14408	 18.48948	 -2.54879	 -0.86009	 19.51958	708.37799	 24.70	
 20.403	 82.668	 15.42242	  7.91188	  5.02864	 18.69221	 -2.66326	 -0.81051	 19.54527	708.28900	 24.80	
 20.392	 87.560	 15.41974	  6.91076	  5.97979	 18.75841	 -2.68701	 -0.76715	 19.51155	708.31702	 24.80	
 20.392	 92.440	 15.44770	  5.93773	  6.96837	 18.78100	 -2.68626	 -0.73259	 19.53650	708.15302	 24.80	
 20.403	 97.332	 15.41355	  5.01151	  7.94161	 18.66543	 -2.63515	 -0.72285	 19.49746	708.21301	 24.80	
 20.394	102.132	 15.43504	  4.18823	  8.95145	 18.51991	 -2.54624	 -0.71846	 19.52645	708.21503	 24.80	
 20.398	107.004	 15.44213	  3.34110	  9.95909	 18.26462	 -2.40072	 -0.73859	 19.53114	708.28900	 24.80	
 20.413	111.900	 15.42016	  2.49197	 10.93468	 17.89248	 -2.18500	 -0.76285	 19.51097	708.26300	 24.80	
 20.403	116.741	 15.43085	  1.70834	 11.89760	 17.45581	 -1.89950	 -0.80461	 19.52504	708.38702	 24.80	
 20.400	121.604	 15.42511	  0.97087	 12.83136	 16.91041	 -1.55360	 -0.82901	 19.50995	708.32300	 24.80	
 20.410	126.511	 15.45358	  0.28414	 13.76124	 16.31656	 -1.14941	 -0.88877	 19.54169	708.31299	 24.80	
 20.408	131.372	 15.43343	 -0.33912	 14.58348	 15.58619	 -0.66252	 -0.91430	 19.51056	708.43701	 24.80	
 20.396	136.227	 15.45688	 -0.88185	 15.38495	 14.83089	 -0.10702	 -0.96114	 19.52169	708.34399	 24.80	
 20.392	141.062	 15.45518	 -1.35930	 16.09620	 14.01477	  0.48128	 -0.97830	 19.51607	708.26001	 24.80	
 20.397	145.903	 15.43958	 -1.81772	 16.73094	 13.13857	  1.11535	 -0.99749	 19.50980	708.33600	 24.80	
 20.405	150.835	 15.43788	 -2.21230	 17.30497	 12.19446	  1.81944	 -1.02764	 19.51723	708.31097	 24.80	
 20.401	155.705	 15.41515	 -2.51913	 17.77318	 11.21877	  2.55914	 -1.03308	 19.49136	708.23798	 24.80	
 20.392	160.496	 15.42182	 -2.73515	 18.16154	 10.28332	  3.29778	 -1.02551	 19.50806	708.27100	 24.80	
 20.410	165.423	 15.42544	 -2.91668	 18.47795	  9.29754	  4.10638	 -1.01968	 19.52252	708.26099	 24.80	
 20.407	170.264	 15.40353	 -3.05419	 18.66743	  8.30391	  4.94564	 -1.01632	 19.50974	708.32800	 24.80	
 20.401	175.153	 15.38490	 -3.10544	 18.75738	  7.32792	  5.84650	 -0.98766	 19.48863	708.36200	 24.80	
  0.141	 45.000	 19.54405	 10.19697	 10.19803	 10.12478	 10.50257	  0.13196	 19.51521	708.28198	 24.80	
  4.001	128.691	 19.46002	  8.57276	 11.58815	 11.78012	  8.65707	  0.07432	 19.49307	708.26898	 24.80	
  4.002	 76.995	 19.50515	 10.55159	  9.60066	 12.24288	  8.23926	  0.06332	 19.52866	708.34198	 24.80	
  4.002	 25.892	 19.48176	 12.15877	  8.04426	 10.96747	  9.41306	  0.06202	 19.51558	708.24701	 24.80	
  4.002	-25.892	 19.46794	 12.14151	  8.03278	  8.92284	 11.40163	  0.03133	 19.50953	708.41803	 24.80	
  4.002	-76.995	 19.46022	 10.48451	  9.57143	  7.70555	 12.70631	  0.01199	 19.51256	708.38702	 24.80	
  4.001	-128.691	 19.42241	  8.54442	 11.55536	  8.14056	 12.20950	  0.02498	 19.47560	708.27502	 24.80	
  4.000	180.000	 19.46565	  7.75197	 12.50243	  9.91402	 10.40739	  0.07162	 19.50392	708.33899	 24.80	
  8.000	180.000	 19.06891	  5.07705	 14.56799	  9.42714	  9.95228	 -0.22244	 19.51579	708.21600	 24.80	
  7.991	-152.370	 19.02014	  5.49187	 13.95822	  7.29230	 12.12492	 -0.23303	 19.49071	708.24902	 24.80	
  7.997	-124.550	 19.01782	  6.84629	 12.35621	  5.70776	 13.92285	 -0.25316	 19.50147	708.22998	 24.80	
  8.006	-96.837	 19.02372	  8.89345	 10.17213	  4.99427	 14.77800	 -0.32175	 19.51322	708.25500	 24.80	
  7.988	-69.228	 18.99412	 11.16139	  7.95000	  5.24749	 14.45986	 -0.32651	 19.47460	708.35901	 24.80	
  7.997	-41.563	 19.01966	 13.15732	  6.19938	  6.39031	 13.13011	 -0.28952	 19.49053	708.39502	 24.80	
  8.008	-13.821	 19.04774	 14.33192	  5.26055	  8.32366	 11.04683	 -0.24814	 19.50211	708.30798	 24.80	
  8.008	 13.821	 19.05164	 14.34411	  5.25163	 10.58384	  8.81471	 -0.23771	 19.48378	708.36700	 24.80	
  7.997	 41.563	 19.09053	 13.21218	  6.22456	 12.68788	  6.93800	 -0.20859	 19.51872	708.28497	 24.80	
  7.988	 69.228	 19.08348	 11.23693	  7.97530	 14.06220	  5.79036	 -0.19931	 19.49913	708.41998	 24.80	
  8.006	 96.837	 19.05088	  8.99714	 10.16428	 14.35730	  5.53489	 -0.19713	 19.46972	708.30499	 24.80	
  7.997	124.550	 19.06377	  6.93307	 12.36757	 13.49443	  6.26470	 -0.22946	 19.47794	708.48901	 24.80	
  7.991	152.370	 19.06944	  5.56835	 13.97929	 11.67206	  7.83033	 -0.19978	 19.50065	708.45203	 24.80	
 12.009	161.059	 18.28311	  2.74129	 15.94161	 11.04228	  6.98815	 -0.56022	 19.51471	708.45697	 24.80	
 12.013	142.081	 18.28329	  3.62671	 14.74117	 13.24718	  5.07521	 -0.56588	 19.50347	708.51300	 24.80	
 12.006	123.113	 18.25226	  5.05528	 12.85477	 14.91375	  3.76433	 -0.61230	 19.45545	708.28497	 24.80	
 12.007	104.200	 18.27812	  7.06782	 10.62480	 15.97191	  3.03111	 -0.67242	 19.50036	708.43402	 24.80	
 11.989	 85.301	 18.28043	  9.41086	  8.27917	 16.16023	  2.87871	 -0.62767	 19.49319	708.46503	 24.80	
 12.013	 66.294	 18.26629	 11.74206	  6.10224	 15.50976	  3.34150	 -0.53115	 19.47836	708.40997	 24.80	
 12.012	 47.388	 18.28173	 13.83501	  4.34863	 14.11339	  4.39453	 -0.54818	 19.49431	708.47498	 24.80	
 11.990	 28.440	 18.23576	 15.34770	  3.16499	 12.13259	  5.97798	 -0.60879	 19.46951	708.42102	 24.80	
 11.991	  9.464	 18.22050	 16.15733	  2.59978	  9.84550	  8.02761	 -0.62467	 19.47267	708.33301	 24.80	
 11.991	 -9.464	 18.22188	 16.14907	  2.59034	  7.53095	 10.31986	 -0.60820	 19.47886	708.42902	 24.80	
 11.990	-28.440	 18.18558	 15.27663	  3.14877	  5.43981	 12.59284	 -0.62080	 19.48160	708.39001	 24.80	
 12.012	-47.388	 18.16280	 13.71452	  4.32409	  3.80102	 14.52348	 -0.66655	 19.47687	708.41199	 24.80	
 12.013	-66.294	 18.13245	 11.59244	  6.07627	  2.73453	 15.86258	 -0.72160	 19.46389	708.40399	 24.80	
 11.989	-85.301	 18.17559	  9.26866	  8.25047	  2.31319	 16.47455	 -0.72312	 19.48979	708.30298	 24.80	
 12.007	-104.200	 18.18373	  6.97625	 10.57832	  2.44596	 16.28358	 -0.68762	 19.49572	708.37000	 24.80	
 12.006	-123.113	 18.17837	  4.96883	 12.80820	  3.17372	 15.28469	 -0.59865	 19.48429	708.44598	 24.80	
 12.013	-142.081	 18.20618	  3.44077	 14.68626	  4.55107	 13.62356	 -0.58816	 19.50325	708.47198	 24.80	
 12.009	-161.059	 18.21293	  2.61263	 15.89226	  6.43999	 11.47218	 -0.61341	 19.49962	708.38098	 24.80	
 16.000	180.000	 17.05465	 -0.18759	 17.69625	  7.67243	  8.16852	 -0.94554	 19.47583	708.37500	 24.80	
 15.990	-165.604	 17.02154	 -0.03124	 17.36521	  5.44633	 10.46323	 -0.94163	 19.47434	708.37097	 24.80	
 16.002	-151.165	 16.99121	  0.50351	 16.42633	  3.45941	 12.70498	 -0.91860	 19.47861	708.30902	 24.80	
 16.002	-136.836	 16.95772	  1.49077	 14.88843	  1.89543	 14.70347	 -0.85639	 19.46498	708.42999	 24.80	
 15.995	-122.439	 16.96284	  2.97807	 12.91447	  0.76509	 16.28682	 -0.85125	 19.46588	708.30298	 24.80	
 15.993	-107.966	 16.96668	  4.86457	 10.67264	 -0.00248	 17.37076	 -0.87327	 19.48303	708.41803	 24.80	
 16.005	-93.629	 16.93830	  7.00498	  8.33826	 -0.34036	 17.82947	 -0.83004	 19.46488	708.37299	 24.80	
 15.992	-79.234	 16.91088	  9.31674	  6.08730	 -0.22323	 17.67191	 -0.75388	 19.46046	708.49701	 24.80	
 16.009	-64.774	 16.90910	 11.65434	  4.07229	  0.29581	 16.93221	 -0.75375	 19.46734	708.51300	 24.80	
 15.997	-50.364	 16.93948	 13.83953	  2.46401	  1.25336	 15.60439	 -0.77953	 19.48275	708.35602	 24.80	
 15.997	-36.045	 16.93367	 15.61373	  1.16532	  2.60344	 13.75380	 -0.77628	 19.44878	708.47498	 24.80	
 16.000	-21.597	 16.96765	 16.89589	  0.30829	  4.36940	 11.59847	 -0.78305	 19.46057	708.48499	 24.80	
 16.003	 -7.169	 17.02462	 17.59323	 -0.08087	  6.51018	  9.28936	 -0.77143	 19.49026	708.42999	 24.80	
 16.003	  7.169	 16.99422	 17.57906	 -0.08749	  8.77139	  6.99561	 -0.77486	 19.43632	708.46100	 24.80	
 16.000	 21.597	 17.06364	 17.03447	  0.27491	 11.13045	  4.94319	 -0.79297	 19.51081	708.36700	 24.80	
 15.997	 36.045	 17.05037	 15.78558	  1.12208	 13.31375	  3.24677	 -0.82496	 19.46849	708.53601	 24.80	
 15.997	 50.364	 17.06328	 14.02833	  2.40471	 15.22471	  1.83529	 -0.79542	 19.48604	708.47198	 24.80	
 16.009	 64.774	 17.06763	 11.88996	  4.06575	 16.62853	  0.86033	 -0.79567	 19.48581	708.40399	 24.80	
 15.992	 79.234	 17.05512	  9.52491	  6.10898	 17.41383	  0.33133	 -0.88092	 19.46181	708.52802	 24.80	
 16.005	 93.629	 17.07082	  7.17338	  8.39708	 17.60168	  0.23061	 -0.92653	 19.47701	708.48901	 24.80	
 15.993	107.966	 17.10817	  5.01621	 10.76332	 17.15072	  0.56496	 -0.92121	 19.50363	708.42102	 24.80	
 15.995	122.439	 17.08042	  3.22783	 13.01234	 16.02602	  1.28887	 -0.90744	 19.46827	708.40399	 24.80	
 16.002	136.836	 17.08541	  1.70928	 14.99137	 14.39607	  2.46132	 -0.88356	 19.48643	708.48297	 24.80	
 16.002	151.165	 17.07339	  0.60835	 16.47923	 12.32330	  4.00325	 -0.89310	 19.46188	708.57501	 24.80	
 15.990	165.604	 17.05634	 -0.01463	 17.38088	 10.00972	  5.96527	 -0.90584	 19.45753	708.49200	 24.80	
 20.003	168.362	 15.55148	 -2.74419	 18.48103	  8.75591	  4.76966	 -1.04051	 19.46861	708.55499	 24.80	
 20.008	156.764	 15.54755	 -2.32547	 17.76777	 11.04258	  2.89131	 -1.03880	 19.46235	708.55603	 24.80	
 20.000	145.147	 15.55929	 -1.52149	 16.55222	 13.24508	  1.22985	 -1.00044	 19.46484	708.45801	 24.80	
 19.995	133.545	 15.54656	 -0.33213	 14.88660	 15.16081	 -0.16314	 -0.94713	 19.44235	708.57501	 24.80	
 20.009	121.926	 15.55404	  1.14157	 12.88901	 16.77814	 -1.27263	 -0.87751	 19.46739	708.53302	 24.80	
 20.005	110.327	 15.54595	  2.94519	 10.65312	 17.88088	 -1.98751	 -0.79047	 19.44998	708.61798	 24.80	
 19.989	 98.733	 15.56581	  4.89597	  8.35154	 18.51439	 -2.32786	 -0.75439	 19.47242	708.53003	 24.80	
 19.999	 87.075	 15.56019	  7.11256	  6.04554	 18.62673	 -2.42245	 -0.80921	 19.46925	708.52802	 24.80	
 19.992	 75.457	 15.56307	  9.45876	  3.90548	 18.23824	 -2.18776	 -0.88910	 19.47868	708.44299	 24.80	
 20.009	 63.844	 15.51126	 11.73218	  2.01657	 17.31043	 -1.64754	 -0.91299	 19.43958	708.57898	 24.80	
 19.989	 52.269	 15.55300	 13.90723	  0.40496	 15.96312	 -0.73762	 -0.86454	 19.49264	708.60999	 24.80	
 19.999	 40.602	 15.52816	 15.77341	 -0.91828	 14.14571	  0.51546	 -0.79092	 19.48230	708.64899	 24.80	
 20.004	 29.051	 15.51227	 17.22822	 -1.85385	 12.03901	  2.05757	 -0.69655	 19.47391	708.59998	 24.80	
 20.005	 17.433	 15.48628	 18.19359	 -2.49835	  9.78110	  3.81869	 -0.63209	 19.47147	708.61298	 24.80	
 20.006	  5.780	 15.48505	 18.66098	 -2.80887	  7.47830	  5.79343	 -0.63087	 19.48058	708.57001	 24.80	
 20.006	 -5.780	 15.46339	 18.61529	 -2.80820	  5.24974	  8.00792	 -0.64933	 19.46423	708.63098	 24.80	
 20.005	-17.433	 15.41512	 18.05575	 -2.47283	  3.18938	 10.30256	 -0.68270	 19.43382	708.53699	 24.80	
 20.004	-29.051	 15.40011	 17.02752	 -1.84154	  1.37422	 12.53765	 -0.69371	 19.46102	708.68903	 24.80	
 19.999	-40.602	 15.37177	 15.53549	 -0.86890	 -0.10364	 14.54659	 -0.67553	 19.45004	708.59802	 24.80	
 19.989	-52.269	 15.36218	 13.65168	  0.40994	 -1.27530	 16.28396	 -0.62979	 19.46092	708.54401	 24.80	
 20.009	-63.844	 15.36639	 11.50958	  2.02644	 -2.13323	 17.59078	 -0.59303	 19.47050	708.43500	 24.80	
 19.992	-75.457	 15.38319	  9.19009	  3.87234	 -2.68388	 18.42291	 -0.58557	 19.46688	708.48297	 24.80	
 19.999	-87.075	 15.41857	  6.88999	  5.94876	 -2.92102	 18.78504	 -0.61944	 19.48125	708.55103	 24.80	
 19.989	-98.733	 15.41505	  4.66127	  8.22243	 -2.86220	 18.64315	 -0.69862	 19.45469	708.64899	 24.80	
 20.005	-110.327	 15.43542	  2.69200	 10.52315	 -2.48052	 18.06741	 -0.83998	 19.48250	708.62903	 24.80	
 20.009	-121.926	 15.40049	  1.03917	 12.70546	 -1.71800	 16.94074	 -0.93763	 19.43754	708.58398	 24.80	
 19.995	-133.545	 15.43521	 -0.37179	 14.73306	 -0.66397	 15.43198	 -0.96648	 19.46039	708.66901	 24.80	
 20.000	-145.147	 15.44802	 -1.45672	 16.41693	  0.70574	 13.54677	 -0.97776	 19.46865	708.59497	 24.80	
 20.008	-156.764	 15.47280	 -2.21465	 17.66132	  2.36540	 11.41933	 -0.95617	 19.47130	708.60101	 24.80	
 20.003	-168.362	 15.49603	 -2.69548	 18.42203	  4.27695	  9.16490	 -0.94975	 19.46100	708.64301	 24.80	
 20.000	180.000	 15.53400	 -2.86263	 18.69553	  6.46727	  6.93040	 -0.98962	 19.47379	708.64301	 24.80	
