FileType=PCF
NHL=14
Date=08/31/17	10:32:51
Facility=APL
Serial=16328-11
Customer=NASA
NP=6
Mach=0.200000
Calibration=1:1
CalPts=490
TstPts=95
PortNumbering=AP Standard
Units=Torr C m/s kg/m^3 deg mm 
Theta[deg]	Phi[deg]	P1[Torr]	P2[Torr]	P3[Torr]	P4[Torr]	P5[Torr]	P6[Torr]	Pt[Torr]	Ps[Abs,Torr]	Ts[C]	
  0.000	  0.000	 19.84334	 10.24423	 10.69508	 10.18466	 10.63026	  0.16073	 19.83969	706.78497	 23.20	
  1.691	128.401	 19.82742	  9.64637	 11.30984	 10.95498	  9.80771	  0.15291	 19.81985	706.73297	 23.20	
  1.692	 77.194	 19.83657	 10.46678	 10.49290	 11.12645	  9.66106	  0.14905	 19.82758	706.72998	 23.20	
  1.699	 26.182	 19.83252	 11.14913	  9.79775	 10.60087	 10.16377	  0.13628	 19.82538	706.79999	 23.20	
  1.699	-26.182	 19.82591	 11.11182	  9.76960	  9.71675	 11.03651	  0.12955	 19.82655	706.82501	 23.20	
  1.692	-77.194	 19.82763	 10.40322	 10.41543	  9.19902	 11.56399	  0.12998	 19.82869	706.82300	 23.20	
  1.691	-128.401	 19.82257	  9.57759	 11.26363	  9.37752	 11.35940	  0.13104	 19.81807	706.79102	 23.20	
  1.700	180.000	 19.84647	  9.23866	 11.69037	 10.15691	 10.59364	  0.14356	 19.83969	706.87299	 23.20	
  3.400	180.000	 19.80635	  8.18884	 12.64339	 10.06366	 10.50166	  0.10288	 19.83385	706.76398	 23.20	
  3.388	-152.325	 19.78099	  8.40629	 12.36171	  9.16485	 11.38664	  0.09742	 19.81772	706.79102	 23.20	
  3.397	-124.529	 19.77478	  8.96581	 11.68645	  8.46293	 12.15500	  0.08436	 19.82159	706.76099	 23.20	
  3.399	-96.763	 19.79817	  9.84378	 10.76791	  8.13491	 12.52793	  0.05981	 19.84512	706.82001	 23.20	
  3.394	-69.283	 19.78305	 10.78885	  9.80843	  8.23050	 12.42671	  0.07340	 19.82792	706.92700	 23.20	
  3.400	-41.398	 19.83354	 11.65112	  9.09357	  8.77926	 11.90377	  0.07741	 19.87233	706.85101	 23.20	
  3.401	-14.021	 19.77784	 12.11235	  8.68124	  9.57772	 11.01217	  0.08871	 19.80188	706.74597	 23.20	
  3.401	 14.021	 19.79117	 12.14751	  8.72499	 10.55521	 10.05201	  0.09890	 19.80282	706.84399	 23.20	
  3.400	 41.398	 19.82587	 11.74776	  9.18034	 11.44610	  9.23134	  0.10462	 19.83818	706.70099	 23.20	
  3.394	 69.283	 19.83940	 10.94044	  9.97624	 12.01434	  8.70691	  0.11437	 19.84221	706.72302	 23.20	
  3.399	 96.763	 19.81540	  9.99395	 10.87838	 12.14290	  8.55686	  0.11830	 19.81651	706.67401	 23.20	
  3.397	124.529	 19.83601	  9.10199	 11.79425	 11.78963	  8.89840	  0.11591	 19.84108	706.79401	 23.20	
  3.388	152.325	 19.80663	  8.46063	 12.41952	 11.00677	  9.58786	  0.11833	 19.81602	706.79498	 23.20	
  5.099	161.165	 19.71416	  7.26740	 13.38735	 10.94028	  9.36186	  0.02639	 19.81467	706.76898	 23.20	
  5.109	142.013	 19.72619	  7.75648	 12.92972	 11.84833	  8.51391	  0.02147	 19.81261	706.91803	 23.20	
  5.095	123.033	 19.75065	  8.47645	 12.21682	 12.58438	  7.94065	  0.02503	 19.83784	706.88702	 23.20	
  5.105	104.191	 19.75014	  9.36481	 11.29521	 13.01542	  7.59868	  0.02909	 19.82240	706.73297	 23.20	
  5.093	 85.207	 19.76056	 10.34161	 10.32574	 13.09283	  7.56439	  0.03662	 19.82725	706.83398	 23.20	
  5.104	 66.290	 19.74737	 11.33801	  9.36118	 12.80926	  7.77589	  0.05062	 19.81296	706.65900	 23.20	
  5.094	 47.331	 19.76224	 12.21203	  8.57179	 12.22363	  8.25618	  0.03830	 19.84076	706.87903	 23.20	
  5.089	 28.397	 19.75730	 12.83190	  7.97417	 11.41798	  8.99357	  0.02542	 19.84304	706.82501	 23.20	
  5.096	  9.576	 19.73124	 13.13211	  7.61572	 10.45750	  9.91657	 -0.00142	 19.83451	706.91803	 23.20	
  5.096	 -9.576	 19.67372	 13.08630	  7.55259	  9.41123	 10.88936	 -0.00850	 19.79428	706.77802	 23.20	
  5.089	-28.397	 19.68402	 12.73421	  7.80287	  8.52917	 11.84874	 -0.01214	 19.81878	706.92102	 23.20	
  5.094	-47.331	 19.67260	 12.05640	  8.34603	  7.74232	 12.67494	 -0.03983	 19.81895	706.90198	 23.20	
  5.104	-66.290	 19.69437	 11.16011	  9.13461	  7.29122	 13.26381	 -0.05021	 19.84867	706.80603	 23.20	
  5.093	-85.207	 19.65556	 10.14860	 10.02805	  7.04233	 13.49859	 -0.04779	 19.81989	706.95099	 23.20	
  5.105	-104.191	 19.66644	  9.17563	 11.06616	  7.09261	 13.40056	 -0.03362	 19.83246	706.83899	 23.20	
  5.095	-123.033	 19.67599	  8.32015	 12.04926	  7.46385	 12.94438	 -0.01692	 19.83958	706.75500	 23.20	
  5.109	-142.013	 19.67186	  7.63357	 12.82504	  8.09800	 12.22968	 -0.00309	 19.82964	706.78802	 23.20	
  5.099	-161.165	 19.68816	  7.17950	 13.36227	  8.97761	 11.28687	  0.00760	 19.83172	706.78497	 23.20	
  5.100	180.000	 19.67907	  7.03310	 13.52918	  9.91561	 10.33438	  0.01416	 19.80028	706.87500	 23.20	
  6.800	180.000	 19.54245	  5.87536	 14.45237	  9.72722	 10.12416	 -0.10960	 19.83701	706.83899	 23.20	
  6.796	-166.229	 19.49614	  5.92291	 14.28562	  8.77053	 11.04688	 -0.10634	 19.81814	706.81299	 23.20	
  6.808	-152.311	 19.47629	  6.16192	 13.91548	  7.83984	 11.99956	 -0.11264	 19.82118	706.73798	 23.20	
  6.795	-138.383	 19.46548	  6.65346	 13.28840	  7.10417	 12.88468	 -0.12792	 19.82502	706.77197	 23.20	
  6.792	-124.591	 19.46850	  7.38914	 12.49176	  6.49791	 13.61588	 -0.13738	 19.83561	706.73700	 23.20	
  6.787	-110.754	 19.46581	  8.22849	 11.56901	  6.08251	 14.12607	 -0.16015	 19.83518	706.81897	 23.20	
  6.800	-96.985	 19.45377	  9.15778	 10.58109	  5.87458	 14.37933	 -0.18318	 19.82907	706.67297	 23.20	
  6.800	-83.015	 19.43886	 10.12145	  9.55978	  5.88013	 14.38795	 -0.20061	 19.81212	706.79102	 23.20	
  6.787	-69.246	 19.46749	 11.13166	  8.64698	  6.08949	 14.16392	 -0.20228	 19.82477	706.78302	 23.20	
  6.792	-55.409	 19.47852	 12.07598	  7.82972	  6.49274	 13.70080	 -0.19195	 19.83500	706.66199	 23.20	
  6.795	-41.617	 19.50607	 12.88862	  7.19904	  7.03471	 13.02491	 -0.16631	 19.83923	706.63397	 23.20	
  6.808	-27.689	 19.53705	 13.54704	  6.71166	  7.82841	 12.17206	 -0.14837	 19.85420	706.66699	 23.20	
  6.796	-13.771	 19.50827	 13.90639	  6.42917	  8.74224	 11.17366	 -0.13808	 19.80341	706.81598	 23.20	
  6.800	  0.000	 19.56285	 14.09932	  6.36896	  9.73002	 10.22728	 -0.13090	 19.84496	706.83899	 23.10	
  6.796	 13.771	 19.57324	 14.00035	  6.54183	 10.70683	  9.25275	 -0.11105	 19.82992	706.78003	 23.20	
  6.808	 27.689	 19.59346	 13.67697	  6.87415	 11.67251	  8.32670	 -0.10363	 19.83573	706.77100	 23.10	
  6.795	 41.617	 19.58256	 13.07919	  7.41306	 12.51893	  7.61740	 -0.08854	 19.81166	706.78601	 23.10	
  6.792	 55.409	 19.60112	 12.31696	  8.12412	 13.22615	  7.06643	 -0.08296	 19.82406	706.81702	 23.20	
  6.787	 69.246	 19.63270	 11.41632	  8.97119	 13.75479	  6.65708	 -0.08618	 19.84748	706.74701	 23.20	
  6.800	 83.015	 19.60434	 10.40684	  9.87453	 14.00371	  6.40172	 -0.10427	 19.80704	706.70203	 23.20	
  6.800	 96.985	 19.64640	  9.46028	 10.87078	 14.04730	  6.41305	 -0.09774	 19.86221	706.80603	 23.10	
  6.787	110.754	 19.63103	  8.49816	 11.83558	 13.76977	  6.60633	 -0.10166	 19.84019	706.83899	 23.10	
  6.792	124.591	 19.58990	  7.63836	 12.69531	 13.26017	  6.98581	 -0.10566	 19.80656	706.83600	 23.10	
  6.795	138.383	 19.61429	  6.90961	 13.44924	 12.57616	  7.57060	 -0.08961	 19.85029	706.68201	 23.10	
  6.808	152.311	 19.56192	  6.33527	 13.99637	 11.68935	  8.25996	 -0.07455	 19.81340	706.65399	 23.10	
  6.796	166.229	 19.57164	  6.00838	 14.36627	 10.72516	  9.14163	 -0.09980	 19.84341	706.78497	 23.10	
  8.491	168.704	 19.30624	  4.80242	 15.20228	 10.50601	  8.82518	 -0.23285	 19.82296	706.76398	 23.10	
  8.502	157.493	 19.36143	  5.08910	 14.95907	 11.51880	  7.96471	 -0.21819	 19.85188	706.73297	 23.10	
  8.494	146.194	 19.37925	  5.52812	 14.48597	 12.48127	  7.17102	 -0.22121	 19.85521	706.73199	 23.10	
  8.495	135.039	 19.36330	  6.08555	 13.82996	 13.28420	  6.47222	 -0.22795	 19.82028	706.80902	 23.10	
  8.487	123.723	 19.38667	  6.82203	 13.04827	 14.01371	  5.91149	 -0.25801	 19.84288	706.72601	 23.10	
  8.492	112.575	 19.39130	  7.75133	 12.12710	 14.49445	  5.53615	 -0.25908	 19.82192	706.58398	 23.10	
  8.510	101.220	 19.41326	  8.72564	 11.15772	 14.83712	  5.29770	 -0.26888	 19.84559	706.74902	 23.10	
  8.500	 90.000	 19.40121	  9.68476	 10.18184	 14.90422	  5.23817	 -0.24828	 19.82611	706.65698	 23.10	
  8.510	 78.780	 19.38986	 10.70303	  9.18958	 14.80160	  5.30651	 -0.23517	 19.81630	706.70697	 23.10	
  8.492	 67.425	 19.40490	 11.72323	  8.24796	 14.47728	  5.59523	 -0.20983	 19.83463	706.72900	 23.10	
  8.487	 56.277	 19.37775	 12.63700	  7.40926	 13.93785	  6.01649	 -0.20551	 19.80919	706.74902	 23.10	
  8.495	 44.961	 19.37080	 13.45547	  6.66705	 13.24361	  6.58004	 -0.22559	 19.81560	706.90997	 23.10	
  8.494	 33.806	 19.38122	 14.13435	  6.06538	 12.41286	  7.30445	 -0.24310	 19.84114	706.70502	 23.10	
  8.502	 22.507	 19.36264	 14.61541	  5.61721	 11.45663	  8.09808	 -0.25507	 19.84349	706.77802	 23.10	
  8.491	 11.296	 19.31719	 14.89179	  5.31025	 10.47981	  8.95200	 -0.26428	 19.81713	706.63599	 23.10	
  8.500	  0.000	 19.33248	 14.98487	  5.16717	  9.48013	  9.99710	 -0.28085	 19.84813	706.78497	 23.10	
  8.491	-11.296	 19.29255	 14.84184	  5.19735	  8.46321	 10.98721	 -0.28307	 19.82888	706.83099	 23.10	
  8.502	-22.507	 19.28120	 14.49037	  5.41431	  7.51777	 11.99557	 -0.27825	 19.83240	706.81299	 23.10	
  8.494	-33.806	 19.24141	 13.95244	  5.78878	  6.66754	 12.90348	 -0.29355	 19.82587	706.87500	 23.10	
  8.495	-44.961	 19.21939	 13.24060	  6.31963	  5.92385	 13.72141	 -0.32397	 19.82181	706.75201	 23.10	
  8.487	-56.277	 19.24051	 12.39665	  7.03697	  5.45860	 14.39895	 -0.34777	 19.85100	706.79199	 23.10	
  8.492	-67.425	 19.20982	 11.40460	  7.88125	  5.05011	 14.86814	 -0.36989	 19.83249	706.69202	 23.10	
  8.510	-78.780	 19.18260	 10.36883	  8.79703	  4.77176	 15.17140	 -0.37823	 19.82216	706.71002	 23.10	
  8.500	-90.000	 19.19211	  9.39343	  9.78823	  4.69858	 15.26937	 -0.36734	 19.83216	706.70697	 23.10	
  8.510	-101.220	 19.18825	  8.38840	 10.81394	  4.76712	 15.16710	 -0.33796	 19.83361	706.76801	 23.10	
  8.492	-112.575	 19.17908	  7.41815	 11.82296	  5.02474	 14.80713	 -0.30005	 19.82752	706.74902	 23.10	
  8.487	-123.723	 19.18718	  6.54294	 12.75406	  5.44940	 14.28876	 -0.27507	 19.83785	706.67297	 23.10	
  8.495	-135.039	 19.20568	  5.84403	 13.61771	  6.00417	 13.61032	 -0.27309	 19.84721	706.84998	 23.10	
  8.494	-146.194	 19.21894	  5.34524	 14.29521	  6.73899	 12.76457	 -0.26077	 19.83498	706.64203	 23.10	
  8.502	-157.493	 19.23838	  4.95950	 14.83359	  7.57289	 11.80737	 -0.24772	 19.83340	706.68201	 23.10	
  8.491	-168.704	 19.26167	  4.76742	 15.14934	  8.47460	 10.83287	 -0.24316	 19.83324	706.80798	 23.10	
  8.500	180.000	 19.33844	  4.70760	 15.32747	  9.52000	  9.85010	 -0.24684	 19.87884	706.68103	 23.10	
 10.200	180.000	 18.96321	  3.49596	 16.04958	  9.19417	  9.51699	 -0.40627	 19.82509	706.73199	 23.10	
 10.191	-170.497	 18.94697	  3.55604	 15.95202	  8.15504	 10.54989	 -0.41252	 19.84250	706.66199	 23.10	
 10.210	-161.034	 18.88127	  3.70400	 15.65724	  7.23233	 11.53511	 -0.39563	 19.81884	706.66998	 23.10	
 10.194	-151.526	 18.86780	  4.02793	 15.19859	  6.34696	 12.54454	 -0.40588	 19.82296	706.68701	 23.10	
 10.190	-142.105	 18.86194	  4.48596	 14.59686	  5.55529	 13.45228	 -0.39996	 19.83454	706.79401	 23.10	
 10.215	-132.646	 18.84526	  5.03458	 13.85389	  4.86445	 14.25361	 -0.41102	 19.83641	706.76398	 23.10	
 10.203	-123.092	 18.81921	  5.72395	 12.96655	  4.29810	 14.92692	 -0.42399	 19.81728	706.76300	 23.10	
 10.192	-113.678	 18.83056	  6.56071	 12.02965	  3.90170	 15.47922	 -0.45076	 19.83743	706.65002	 23.10	
 10.208	-104.249	 18.82817	  7.48451	 11.03111	  3.59708	 15.87546	 -0.50376	 19.84029	706.71503	 23.10	
 10.210	-94.801	 18.83605	  8.52176	  9.99069	  3.44153	 16.06589	 -0.53694	 19.84479	706.74103	 23.10	
 10.210	-85.199	 18.80520	  9.53645	  8.93287	  3.42982	 16.05752	 -0.54824	 19.81151	706.82800	 23.10	
 10.208	-75.751	 18.83846	 10.59986	  7.96672	  3.58979	 15.90910	 -0.54335	 19.83369	706.70203	 23.10	
 10.192	-66.322	 18.85971	 11.60926	  7.07360	  3.90599	 15.57265	 -0.54779	 19.84111	706.77197	 23.10	
 10.203	-56.908	 18.85583	 12.57792	  6.23021	  4.29002	 15.06638	 -0.52713	 19.81998	706.76898	 23.10	
 10.215	-47.354	 18.91937	 13.49779	  5.51029	  4.78890	 14.44117	 -0.49199	 19.87261	706.79401	 23.10	
 10.190	-37.895	 18.89550	 14.24424	  4.89935	  5.46220	 13.63606	 -0.45235	 19.83218	706.60303	 23.10	
 10.194	-28.474	 18.92435	 14.87287	  4.44386	  6.27662	 12.73954	 -0.42941	 19.83384	706.78497	 23.10	
 10.210	-18.966	 18.95517	 15.37733	  4.12876	  7.20268	 11.74013	 -0.41887	 19.84125	706.78497	 23.10	
 10.191	 -9.503	 18.96666	 15.64731	  3.98033	  8.13523	 10.71965	 -0.42964	 19.82103	706.78497	 23.10	
 10.200	  0.000	 18.99516	 15.77623	  3.94646	  9.17172	  9.69959	 -0.43802	 19.83340	706.63397	 23.10	
 10.191	  9.503	 19.03675	 15.74237	  4.08636	 10.20722	  8.68264	 -0.42789	 19.85119	706.94397	 23.10	
 10.210	 18.966	 19.01889	 15.49821	  4.30258	 11.17154	  7.77821	 -0.42226	 19.81652	706.77502	 23.10	
 10.194	 28.474	 19.05133	 15.08123	  4.70960	 12.18575	  6.93294	 -0.40659	 19.83134	706.75201	 23.10	
 10.190	 37.895	 19.06951	 14.50673	  5.23378	 13.12354	  6.13318	 -0.39525	 19.83265	706.82800	 23.10	
 10.215	 47.354	 19.08914	 13.80250	  5.86318	 13.94594	  5.44842	 -0.36384	 19.85156	706.82501	 23.10	
 10.203	 56.908	 19.07984	 12.92309	  6.63878	 14.61552	  4.88106	 -0.34342	 19.82561	706.72900	 23.10	
 10.192	 66.322	 19.10307	 12.00471	  7.49874	 15.14294	  4.46549	 -0.35146	 19.83550	706.72302	 23.10	
 10.208	 75.751	 19.09067	 10.99861	  8.37914	 15.52629	  4.14650	 -0.38398	 19.82358	706.66498	 23.10	
 10.210	 85.199	 19.09021	  9.96568	  9.35621	 15.71953	  3.99805	 -0.41558	 19.81792	706.66803	 23.10	
 10.210	 94.801	 19.09555	  8.94363	 10.37372	 15.75455	  3.95795	 -0.44482	 19.82782	706.61200	 23.00	
 10.208	104.249	 19.08775	  7.91979	 11.38810	 15.53688	  4.11698	 -0.44492	 19.82429	706.61401	 23.00	
 10.192	113.678	 19.10813	  6.94222	 12.37128	 15.21098	  4.37350	 -0.45238	 19.85823	706.72101	 23.00	
 10.203	123.092	 19.07985	  6.08994	 13.25814	 14.65925	  4.78943	 -0.41933	 19.82410	706.80798	 23.10	
 10.215	132.646	 19.07474	  5.35482	 14.10985	 13.99916	  5.32016	 -0.38705	 19.83825	706.64203	 23.00	
 10.190	142.105	 19.07766	  4.72782	 14.82027	 13.18132	  6.01637	 -0.35922	 19.84492	706.68500	 23.00	
 10.194	151.526	 19.04486	  4.20724	 15.36908	 12.24922	  6.78270	 -0.35240	 19.82054	706.59802	 23.00	
 10.210	161.034	 19.03140	  3.82486	 15.77142	 11.26751	  7.63623	 -0.35335	 19.83232	706.62299	 23.00	
 10.191	170.497	 18.99828	  3.59321	 15.98409	 10.23935	  8.49809	 -0.37958	 19.82681	706.63702	 23.00	
 11.899	171.783	 18.62130	  2.33158	 16.73178	  9.91672	  8.15957	 -0.54744	 19.84861	706.59198	 23.00	
 11.890	163.610	 18.64434	  2.55071	 16.51547	 10.92974	  7.28444	 -0.52278	 19.83906	706.58301	 23.00	
 11.889	155.445	 18.65641	  2.84382	 16.17754	 11.94403	  6.38870	 -0.50355	 19.82316	706.69202	 23.00	
 11.909	147.299	 18.70284	  3.23968	 15.72220	 12.93969	  5.55631	 -0.50681	 19.86561	706.58099	 23.00	
 11.902	139.148	 18.70625	  3.85811	 15.07755	 13.82687	  4.80735	 -0.51858	 19.85538	706.59497	 23.00	
 11.894	130.867	 18.70320	  4.55432	 14.31687	 14.59354	  4.18713	 -0.54279	 19.84367	706.78601	 23.00	
 11.897	122.732	 18.72441	  5.30426	 13.49890	 15.28415	  3.63702	 -0.57425	 19.85516	706.69202	 23.00	
 11.903	114.597	 18.72277	  6.12075	 12.59342	 15.79406	  3.23793	 -0.61979	 19.83285	706.71600	 23.00	
 11.893	106.346	 18.73274	  7.10186	 11.62103	 16.19188	  2.94100	 -0.63207	 19.84118	706.53302	 23.00	
 11.892	 98.155	 18.72684	  8.11580	 10.60238	 16.40915	  2.75232	 -0.62368	 19.82328	706.59998	 23.00	
 11.900	 90.000	 18.73018	  9.14431	  9.58234	 16.48448	  2.70900	 -0.61522	 19.82815	706.52698	 23.00	
 11.892	 81.845	 18.72217	 10.16443	  8.57604	 16.38202	  2.77778	 -0.58127	 19.81846	706.54303	 23.00	
 11.893	 73.654	 18.71997	 11.20894	  7.60779	 16.12790	  2.99823	 -0.54002	 19.81488	706.52100	 23.00	
 11.903	 65.403	 18.74681	 12.21961	  6.70577	 15.75890	  3.33504	 -0.49528	 19.84330	706.53998	 23.00	
 11.897	 57.268	 18.71511	 13.16652	  5.86142	 15.19102	  3.75763	 -0.47462	 19.82331	706.51898	 23.00	
 11.894	 49.133	 18.70964	 14.01423	  5.10238	 14.50984	  4.33715	 -0.49194	 19.82571	706.53601	 23.00	
 11.902	 40.852	 18.71049	 14.79876	  4.41271	 13.73582	  4.96671	 -0.52137	 19.83924	706.50201	 23.00	
 11.909	 32.701	 18.68283	 15.43012	  3.84249	 12.84326	  5.73264	 -0.55972	 19.83216	706.52899	 23.00	
 11.889	 24.555	 18.67811	 15.92752	  3.39636	 11.87825	  6.57592	 -0.58029	 19.84463	706.57703	 23.00	
 11.890	 16.390	 18.65654	 16.29664	  3.04785	 10.88054	  7.43643	 -0.59086	 19.84343	706.66803	 23.00	
 11.899	  8.217	 18.64459	 16.49035	  2.84322	  9.87875	  8.32143	 -0.60825	 19.84674	706.53198	 23.00	
 11.900	  0.000	 18.60429	 16.54074	  2.71353	  8.81219	  9.35435	 -0.57960	 19.83713	706.46198	 23.00	
 11.899	 -8.217	 18.56558	 16.41153	  2.73421	  7.83220	 10.37769	 -0.58121	 19.80894	706.50098	 23.00	
 11.890	-16.390	 18.55357	 16.15088	  2.85369	  6.87567	 11.41580	 -0.56110	 19.82564	706.50098	 23.00	
 11.889	-24.555	 18.54762	 15.76030	  3.10225	  5.93818	 12.44770	 -0.55384	 19.85357	706.52600	 23.00	
 11.909	-32.701	 18.47349	 15.16598	  3.47297	  5.06352	 13.34470	 -0.56465	 19.80041	706.54700	 23.00	
 11.902	-40.852	 18.48671	 14.50013	  3.99152	  4.32946	 14.21665	 -0.59623	 19.83169	706.66803	 23.00	
 11.894	-49.133	 18.45831	 13.67095	  4.64593	  3.65066	 14.98783	 -0.61925	 19.81827	706.55798	 23.00	
 11.897	-57.268	 18.44790	 12.78030	  5.38080	  3.13390	 15.63131	 -0.64746	 19.82762	706.57501	 23.00	
 11.903	-65.403	 18.45554	 11.80713	  6.21546	  2.70859	 16.15381	 -0.68822	 19.85667	706.51599	 23.00	
 11.893	-73.654	 18.44218	 10.78943	  7.11260	  2.41394	 16.49852	 -0.68578	 19.84281	706.48999	 23.00	
 11.892	-81.845	 18.44685	  9.72076	  8.11211	  2.24006	 16.71322	 -0.70951	 19.85026	706.49597	 23.00	
 11.900	-90.000	 18.43797	  8.67016	  9.10767	  2.17830	 16.77514	 -0.69947	 19.84872	706.62299	 23.00	
 11.892	-98.155	 18.41990	  7.64027	 10.13706	  2.24202	 16.66571	 -0.67049	 19.83182	706.55701	 23.00	
 11.893	-106.346	 18.42100	  6.65657	 11.17388	  2.41279	 16.43367	 -0.65252	 19.84299	706.61200	 23.00	
 11.903	-114.597	 18.40215	  5.72830	 12.16024	  2.71469	 16.04760	 -0.59413	 19.82898	706.59998	 23.00	
 11.897	-122.732	 18.41061	  4.90984	 13.13547	  3.16608	 15.50384	 -0.55193	 19.83960	706.58301	 23.00	
 11.894	-130.867	 18.42000	  4.17971	 14.02221	  3.71462	 14.82990	 -0.54835	 19.83739	706.47400	 23.00	
 11.902	-139.148	 18.44409	  3.59001	 14.83322	  4.37674	 14.05412	 -0.55704	 19.85069	706.44598	 23.00	
 11.909	-147.299	 18.46452	  3.08666	 15.49658	  5.12692	 13.17018	 -0.56079	 19.84569	706.49500	 23.00	
 11.889	-155.445	 18.50121	  2.70790	 16.01990	  5.99755	 12.21557	 -0.56773	 19.85188	706.56897	 23.00	
 11.890	-163.610	 18.51979	  2.45455	 16.43058	  6.91390	 11.19137	 -0.57281	 19.84784	706.47900	 23.00	
 11.899	-171.783	 18.54326	  2.31313	 16.68024	  7.83211	 10.17194	 -0.57187	 19.83617	706.40601	 23.00	
 11.900	180.000	 18.58442	  2.27694	 16.78402	  8.83058	  9.12252	 -0.56424	 19.84070	706.46997	 23.00	
 13.600	180.000	 18.13533	  1.11497	 17.43063	  8.44869	  8.70031	 -0.73187	 19.85471	706.50403	 23.00	
 13.608	-172.853	 18.06159	  1.14083	 17.31878	  7.44545	  9.72636	 -0.74047	 19.81980	706.61401	 23.00	
 13.611	-165.583	 18.02043	  1.23630	 17.11901	  6.51618	 10.75372	 -0.75214	 19.83560	706.58002	 23.00	
 13.601	-158.353	 18.03456	  1.47316	 16.77943	  5.58617	 11.81695	 -0.73705	 19.86580	706.54102	 23.00	
 13.609	-151.210	 17.99250	  1.77663	 16.29994	  4.70880	 12.79321	 -0.72331	 19.85762	706.49298	 23.00	
 13.611	-143.999	 17.96030	  2.17676	 15.69127	  3.86739	 13.70330	 -0.70790	 19.85349	706.54401	 23.00	
 13.601	-136.825	 17.92970	  2.66132	 14.96995	  3.16614	 14.56796	 -0.67707	 19.83307	706.45001	 23.00	
 13.596	-129.640	 17.91749	  3.28421	 14.15926	  2.51511	 15.32467	 -0.66840	 19.83521	706.47302	 22.90	
 13.611	-122.431	 17.89568	  4.03693	 13.25251	  1.98252	 15.97806	 -0.67812	 19.83117	706.47302	 22.90	
 13.604	-115.211	 17.92994	  4.84129	 12.30533	  1.60486	 16.54543	 -0.71510	 19.85450	706.43402	 22.90	
 13.595	-108.042	 17.91103	  5.74603	 11.28339	  1.29485	 16.93631	 -0.75538	 19.83193	706.48499	 22.90	
 13.607	-100.793	 17.93008	  6.73570	 10.24964	  1.03719	 17.25476	 -0.77783	 19.85797	706.45898	 22.90	
 13.601	-93.617	 17.93587	  7.73119	  9.20909	  0.95896	 17.41845	 -0.78392	 19.86599	706.24500	 22.90	
 13.601	-86.383	 17.93585	  8.77885	  8.17870	  0.94956	 17.43865	 -0.78300	 19.86546	706.40302	 22.90	
 13.607	-79.207	 17.91446	  9.80299	  7.18259	  1.06442	 17.28265	 -0.76505	 19.81855	706.48102	 22.90	
 13.595	-71.958	 17.93484	 10.87385	  6.22028	  1.24887	 17.04869	 -0.76424	 19.83714	706.46198	 22.90	
 13.604	-64.789	 17.97524	 11.91430	  5.32244	  1.54252	 16.71342	 -0.75051	 19.87073	706.48199	 22.90	
 13.611	-57.569	 17.95476	 12.86452	  4.52266	  1.93081	 16.18264	 -0.74937	 19.83424	706.38300	 22.90	
 13.596	-50.360	 17.98997	 13.77899	  3.80542	  2.43941	 15.56733	 -0.72236	 19.84713	706.46301	 22.90	
 13.601	-43.175	 18.00904	 14.64903	  3.12204	  3.05734	 14.84658	 -0.67393	 19.86537	706.35999	 22.90	
 13.611	-36.001	 18.00285	 15.36662	  2.55439	  3.81103	 13.96951	 -0.65932	 19.82499	706.41101	 22.90	
 13.609	-28.790	 18.00699	 15.99086	  2.09781	  4.62072	 13.04040	 -0.64455	 19.80043	706.56598	 22.90	
 13.601	-21.647	 18.08974	 16.52996	  1.79143	  5.52961	 12.10910	 -0.64996	 19.85660	706.35199	 22.90	
 13.611	-14.417	 18.08772	 16.89388	  1.56598	  6.47950	 11.03771	 -0.66832	 19.83828	706.44800	 22.90	
 13.608	 -7.147	 18.12035	 17.10851	  1.49627	  7.43813	 10.00006	 -0.67986	 19.83385	706.33002	 22.90	
 13.600	  0.000	 18.16724	 17.22533	  1.52567	  8.39344	  8.99068	 -0.68507	 19.86066	706.32098	 22.90	
 13.608	  7.147	 18.17693	 17.19233	  1.59151	  9.46851	  7.95821	 -0.68206	 19.85713	706.33197	 22.90	
 13.611	 14.417	 18.18136	 17.00971	  1.77531	 10.49382	  7.02925	 -0.68546	 19.83194	706.29102	 22.90	
 13.601	 21.647	 18.20119	 16.70881	  2.06119	 11.50671	  6.11475	 -0.69046	 19.84348	706.24500	 22.90	
 13.609	 28.790	 18.19581	 16.24161	  2.45695	 12.48174	  5.24798	 -0.67144	 19.81546	706.32397	 22.90	
 13.611	 36.001	 18.23021	 15.69631	  2.95926	 13.43342	  4.43939	 -0.66060	 19.83559	706.32501	 22.90	
 13.601	 43.175	 18.26442	 15.01394	  3.57666	 14.29871	  3.74634	 -0.63180	 19.84557	706.24500	 22.90	
 13.596	 50.360	 18.27232	 14.21877	  4.26794	 15.08137	  3.08236	 -0.61475	 19.84475	706.24597	 22.90	
 13.611	 57.569	 18.28521	 13.36107	  4.99947	 15.74553	  2.55735	 -0.59812	 19.84931	706.25403	 22.90	
 13.604	 64.789	 18.27440	 12.39804	  5.84376	 16.30968	  2.09520	 -0.61785	 19.83753	706.29797	 22.90	
 13.595	 71.958	 18.27620	 11.39637	  6.73315	 16.71156	  1.80772	 -0.66087	 19.83095	706.37000	 22.90	
 13.607	 79.207	 18.29247	 10.37330	  7.73710	 17.01458	  1.54321	 -0.71765	 19.84752	706.34601	 22.90	
 13.601	 86.383	 18.28088	  9.32052	  8.70909	 17.15150	  1.43476	 -0.74536	 19.82705	706.34100	 22.90	
 13.601	 93.617	 18.28976	  8.27484	  9.73014	 17.15850	  1.45620	 -0.75225	 19.83994	706.40601	 22.90	
 13.607	100.793	 18.27319	  7.24576	 10.73662	 17.02901	  1.52365	 -0.75576	 19.83219	706.33301	 22.90	
 13.595	108.042	 18.28691	  6.25713	 11.74016	 16.77753	  1.70238	 -0.76250	 19.85390	706.25702	 22.90	
 13.604	115.211	 18.27807	  5.31584	 12.70364	 16.36463	  2.01860	 -0.76053	 19.84924	706.27399	 22.90	
 13.611	122.431	 18.26272	  4.49857	 13.61352	 15.82496	  2.41160	 -0.71416	 19.83510	706.20300	 22.90	
 13.596	129.640	 18.26114	  3.72161	 14.48078	 15.17363	  2.94964	 -0.67768	 19.84929	706.28003	 22.90	
 13.601	136.825	 18.28118	  3.02852	 15.23711	 14.41727	  3.61323	 -0.65775	 19.85142	706.35999	 22.90	
 13.611	143.999	 18.24377	  2.43385	 15.89594	 13.53948	  4.28219	 -0.63011	 19.83664	706.26001	 22.90	
 13.609	151.210	 18.23423	  1.99599	 16.45367	 12.59487	  5.08334	 -0.62344	 19.83441	706.15601	 22.90	
 13.601	158.353	 18.22274	  1.62782	 16.90891	 11.61804	  5.92054	 -0.64163	 19.85329	706.24597	 22.90	
 13.611	165.583	 18.22677	  1.34736	 17.22604	 10.58084	  6.86282	 -0.67152	 19.87180	706.33899	 22.90	
 13.608	172.853	 18.15010	  1.15369	 17.37028	  9.50709	  7.76355	 -0.68674	 19.83345	706.32501	 22.90	
 15.298	173.587	 17.64294	 -0.00994	 17.94742	  9.08941	  7.29532	 -0.82930	 19.84693	706.23499	 22.90	
 15.291	167.167	 17.66316	  0.12004	 17.79187	 10.11404	  6.39832	 -0.81210	 19.83666	706.13898	 22.90	
 15.307	160.676	 17.68764	  0.38533	 17.52050	 11.17779	  5.46270	 -0.78156	 19.84163	706.26801	 22.90	
 15.300	154.261	 17.72118	  0.71902	 17.13205	 12.19726	  4.59067	 -0.76233	 19.84895	706.23401	 22.90	
 15.288	147.854	 17.70861	  1.14193	 16.60633	 13.13647	  3.77935	 -0.74709	 19.81448	706.27301	 22.90	
 15.293	141.428	 17.75886	  1.61890	 16.05189	 14.07248	  3.05320	 -0.76615	 19.86347	706.20801	 22.90	
 15.299	134.985	 17.72780	  2.18308	 15.32063	 14.90541	  2.34915	 -0.77165	 19.83290	706.15198	 22.90	
 15.305	128.583	 17.76308	  2.88612	 14.54037	 15.66882	  1.74516	 -0.79931	 19.85058	706.21997	 22.90	
 15.309	122.142	 17.74891	  3.64115	 13.67440	 16.30734	  1.23630	 -0.80590	 19.84457	706.36401	 22.90	
 15.304	115.711	 17.75655	  4.46246	 12.75372	 16.82898	  0.87664	 -0.82139	 19.83894	706.30402	 22.90	
 15.297	109.291	 17.76671	  5.36847	 11.79846	 17.24789	  0.58384	 -0.81339	 19.85076	706.17297	 22.90	
 15.293	102.897	 17.75331	  6.31951	 10.82349	 17.54378	  0.39952	 -0.80776	 19.83373	706.20398	 22.90	
 15.293	 96.458	 17.77195	  7.34873	  9.83416	 17.71906	  0.32059	 -0.80926	 19.83204	706.09698	 22.90	
 15.300	 90.000	 17.79586	  8.40034	  8.82977	 17.78709	  0.22374	 -0.82592	 19.85792	706.19702	 22.90	
 15.293	 83.542	 17.79443	  9.45618	  7.82838	 17.70847	  0.27184	 -0.81877	 19.84811	706.18903	 22.90	
 15.293	 77.103	 17.79461	 10.48228	  6.86365	 17.52054	  0.48942	 -0.80285	 19.84543	706.31097	 22.90	
 15.297	 70.709	 17.78472	 11.50964	  5.92630	 17.18955	  0.73538	 -0.75761	 19.83340	706.27002	 22.90	
 15.304	 64.289	 17.80319	 12.51562	  5.01588	 16.77904	  1.02490	 -0.71909	 19.86491	706.23401	 22.90	
 15.309	 57.858	 17.77062	 13.45608	  4.17979	 16.21952	  1.40115	 -0.67749	 19.84148	706.21100	 22.90	
 15.305	 51.417	 17.78596	 14.35047	  3.44353	 15.55948	  1.89250	 -0.69150	 19.86127	706.23901	 22.90	
 15.299	 45.015	 17.75933	 15.14496	  2.76463	 14.81533	  2.50826	 -0.70365	 19.84975	706.31598	 22.90	
 15.293	 38.572	 17.75766	 15.86359	  2.15890	 13.96639	  3.22357	 -0.72901	 19.86273	706.27698	 22.90	
 15.288	 32.146	 17.73203	 16.47848	  1.62517	 13.04871	  4.01122	 -0.72505	 19.85704	706.19397	 22.90	
 15.300	 25.739	 17.70160	 16.98751	  1.16319	 12.10431	  4.78556	 -0.72078	 19.85662	706.19800	 22.90	
 15.307	 19.324	 17.70122	 17.38810	  0.82433	 11.08243	  5.69814	 -0.72095	 19.86137	706.29102	 22.90	
 15.291	 12.833	 17.66366	 17.63610	  0.55799	 10.04009	  6.65595	 -0.72594	 19.84379	706.27399	 22.90	
 15.298	  6.413	 17.62874	 17.78515	  0.36543	  8.99742	  7.59070	 -0.71895	 19.82561	706.22803	 22.90	
 15.300	  0.000	 17.62103	 17.80083	  0.32746	  7.94456	  8.55023	 -0.70273	 19.83102	706.11798	 22.80	
 15.298	 -6.413	 17.61943	 17.73955	  0.28685	  7.01891	  9.59546	 -0.69723	 19.85954	706.15002	 22.90	
 15.291	-12.833	 17.58941	 17.54449	  0.35981	  6.06116	 10.61966	 -0.69609	 19.87054	706.06201	 22.80	
 15.307	-19.324	 17.51967	 17.17235	  0.51892	  5.09128	 11.64697	 -0.68091	 19.82437	706.18298	 22.90	
 15.300	-25.739	 17.53407	 16.73625	  0.81964	  4.21654	 12.64823	 -0.67775	 19.85503	706.15002	 22.90	
 15.288	-32.146	 17.50705	 16.16286	  1.19297	  3.36190	 13.58944	 -0.68518	 19.84739	706.10101	 22.80	
 15.293	-38.572	 17.47668	 15.48865	  1.67535	  2.57933	 14.47479	 -0.69842	 19.84661	706.20398	 22.80	
 15.299	-45.015	 17.44813	 14.72278	  2.24595	  1.92586	 15.28004	 -0.70883	 19.84558	706.05200	 22.80	
 15.305	-51.417	 17.42893	 13.85909	  2.90544	  1.34052	 15.98351	 -0.72058	 19.83132	706.26801	 22.80	
 15.309	-57.858	 17.40506	 12.93541	  3.61194	  0.81852	 16.59812	 -0.74087	 19.82833	706.17200	 22.80	
 15.304	-64.289	 17.39598	 11.94107	  4.42484	  0.42400	 17.10843	 -0.74771	 19.83652	706.08502	 22.80	
 15.297	-70.709	 17.38424	 10.92418	  5.30073	  0.12472	 17.49131	 -0.74626	 19.82628	706.24500	 22.80	
 15.293	-77.103	 17.37062	  9.88247	  6.22978	 -0.09495	 17.76961	 -0.73729	 19.83067	706.16699	 22.80	
 15.293	-83.542	 17.38192	  8.84033	  7.21471	 -0.23622	 17.96235	 -0.74342	 19.85525	706.17798	 22.80	
 15.300	-90.000	 17.39466	  7.81641	  8.22913	 -0.27674	 18.01176	 -0.77476	 19.87721	706.18597	 22.80	
 15.293	-96.458	 17.36790	  6.76826	  9.26958	 -0.21665	 17.90312	 -0.81589	 19.84575	706.13501	 22.80	
 15.293	-102.897	 17.35655	  5.76858	 10.30217	 -0.09940	 17.72058	 -0.81333	 19.84098	706.01703	 22.80	
 15.297	-109.291	 17.35980	  4.84874	 11.32914	  0.13641	 17.40576	 -0.80867	 19.85316	706.20398	 22.80	
 15.304	-115.711	 17.36491	  3.94024	 12.35205	  0.46037	 16.99055	 -0.78874	 19.85649	706.06000	 22.80	
 15.309	-122.142	 17.35156	  3.16439	 13.29893	  0.87188	 16.41894	 -0.76766	 19.83253	706.22803	 22.80	
 15.305	-128.583	 17.35659	  2.46165	 14.20549	  1.37318	 15.77361	 -0.76658	 19.83530	706.13898	 22.80	
 15.299	-134.985	 17.36055	  1.87621	 15.00715	  1.96210	 15.03379	 -0.76579	 19.82758	706.13202	 22.80	
 15.293	-141.428	 17.41332	  1.32942	 15.80191	  2.63036	 14.22192	 -0.81133	 19.86641	706.05603	 22.80	
 15.288	-147.854	 17.42114	  0.88464	 16.43526	  3.39927	 13.29910	 -0.82428	 19.83883	706.08801	 22.80	
 15.300	-154.261	 17.43530	  0.51023	 16.98079	  4.23249	 12.36182	 -0.82796	 19.85080	706.06897	 22.80	
 15.307	-160.676	 17.44785	  0.26025	 17.37324	  5.10243	 11.35323	 -0.84399	 19.81470	706.13599	 22.80	
 15.291	-167.167	 17.53056	  0.06767	 17.73190	  6.07037	 10.32904	 -0.85398	 19.85772	706.25702	 22.80	
 15.298	-173.587	 17.55905	 -0.04090	 17.92623	  7.03774	  9.29020	 -0.85126	 19.85089	706.23102	 22.80	
 15.300	180.000	 17.60648	 -0.05513	 17.99981	  8.01943	  8.27598	 -0.83121	 19.85095	706.17499	 22.80	
 17.000	180.000	 16.98965	 -1.27173	 18.46879	  7.55223	  7.77853	 -0.90009	 19.82216	706.20801	 22.80	
 16.990	-174.179	 16.94930	 -1.22591	 18.40661	  6.55698	  8.77183	 -0.91403	 19.83311	706.20300	 22.80	
 17.009	-168.383	 16.89973	 -1.15253	 18.26007	  5.59531	  9.80376	 -0.90699	 19.84700	706.26001	 22.80	
 17.000	-162.596	 16.88149	 -0.95677	 17.97384	  4.64922	 10.81714	 -0.89268	 19.84634	706.23499	 22.80	
 16.990	-156.759	 16.84853	 -0.72365	 17.59453	  3.71112	 11.82410	 -0.90365	 19.85264	706.10797	 22.80	
 16.995	-150.919	 16.83535	 -0.43167	 17.13459	  2.90104	 12.81573	 -0.89191	 19.88129	706.08502	 22.80	
 16.988	-145.161	 16.77687	 -0.04489	 16.50651	  2.13335	 13.72917	 -0.88688	 19.83491	706.21100	 22.80	
 17.014	-139.343	 16.76820	  0.43230	 15.84130	  1.41826	 14.61802	 -0.87563	 19.85669	706.20801	 22.80	
 17.007	-133.546	 16.73829	  0.96028	 15.06391	  0.77770	 15.42916	 -0.85015	 19.85325	706.18903	 22.80	
 17.001	-127.699	 16.74707	  1.61427	 14.21998	  0.20727	 16.15047	 -0.83889	 19.85787	706.17798	 22.80	
 17.006	-121.937	 16.73840	  2.30801	 13.30411	 -0.29956	 16.79790	 -0.83202	 19.86205	706.21198	 22.80	
 17.002	-116.134	 16.70695	  3.05694	 12.31313	 -0.72256	 17.32628	 -0.83192	 19.83391	706.12097	 22.70	
 17.001	-110.310	 16.69591	  3.87604	 11.31540	 -1.05948	 17.75779	 -0.82978	 19.82732	706.21399	 22.70	
 16.988	-104.517	 16.72291	  4.79787	 10.30884	 -1.28218	 18.10919	 -0.80817	 19.84372	706.17999	 22.80	
 17.008	-98.662	 16.71707	  5.78136	  9.25230	 -1.43701	 18.34776	 -0.75692	 19.84077	706.04797	 22.70	
 16.996	-92.909	 16.72530	  6.75328	  8.24723	 -1.50725	 18.46082	 -0.69215	 19.84076	706.03101	 22.70	
 16.996	-87.091	 16.72445	  7.78962	  7.20834	 -1.51912	 18.48645	 -0.66160	 19.83729	706.13202	 22.80	
 17.012	-81.253	 16.72733	  8.82766	  6.21470	 -1.41715	 18.38698	 -0.64014	 19.83285	706.03802	 22.70	
 16.988	-75.483	 16.77195	  9.87549	  5.28902	 -1.26678	 18.23584	 -0.62819	 19.86662	706.10498	 22.70	
 17.001	-69.690	 16.76077	 10.88878	  4.36374	 -1.05752	 17.92914	 -0.62334	 19.85523	706.00897	 22.70	
 17.002	-63.866	 16.76630	 11.88466	  3.50449	 -0.74967	 17.51816	 -0.62890	 19.83391	706.03998	 22.70	
 17.006	-58.063	 16.79756	 12.88730	  2.71576	 -0.34228	 17.02428	 -0.66699	 19.84733	706.08502	 22.70	
 17.001	-52.301	 16.83049	 13.85271	  2.00971	  0.15588	 16.41556	 -0.67101	 19.86235	706.07898	 22.70	
 17.007	-46.454	 16.82349	 14.68899	  1.36312	  0.73920	 15.69172	 -0.68649	 19.83158	705.96399	 22.70	
 17.014	-40.657	 16.85037	 15.50351	  0.78550	  1.36475	 14.92678	 -0.66489	 19.84686	705.88501	 22.70	
 16.988	-34.839	 16.87555	 16.20667	  0.31512	  2.08451	 14.05216	 -0.64093	 19.82950	705.99298	 22.70	
 16.995	-29.081	 16.94098	 16.85473	 -0.08921	  2.85123	 13.17089	 -0.66990	 19.86805	706.00098	 22.70	
 16.990	-23.241	 16.94708	 17.38151	 -0.42966	  3.71518	 12.18589	 -0.65424	 19.85708	705.97601	 22.70	
 17.000	-17.404	 16.93174	 17.75821	 -0.66896	  4.61510	 11.15906	 -0.64810	 19.81721	705.90002	 22.70	
 17.009	-11.617	 16.98897	 18.08328	 -0.80733	  5.56213	 10.15326	 -0.64672	 19.84760	706.03802	 22.70	
 16.990	 -5.821	 17.00301	 18.26504	 -0.86555	  6.55570	  9.10168	 -0.64739	 19.83815	705.99799	 22.70	
 17.000	  0.000	 17.04787	 18.35047	 -0.81856	  7.48178	  8.09750	 -0.62395	 19.84260	705.95599	 22.70	
 16.990	  5.821	 17.03746	 18.29962	 -0.75616	  8.49112	  7.11093	 -0.64298	 19.81666	705.95001	 22.70	
 17.009	 11.617	 17.06081	 18.20183	 -0.64935	  9.52577	  6.17930	 -0.63830	 19.83091	705.93103	 22.70	
 17.000	 17.404	 17.09191	 17.97673	 -0.42102	 10.57005	  5.22612	 -0.63636	 19.84506	705.93103	 22.70	
 16.990	 23.241	 17.08172	 17.59399	 -0.09353	 11.57835	  4.26722	 -0.66211	 19.81984	706.10400	 22.70	
 16.995	 29.081	 17.14300	 17.16688	  0.30760	 12.58766	  3.41685	 -0.68690	 19.84917	706.03699	 22.70	
 16.988	 34.839	 17.11542	 16.59118	  0.75637	 13.50441	  2.61487	 -0.71036	 19.81840	705.99298	 22.70	
 17.014	 40.657	 17.13002	 15.94973	  1.29200	 14.40689	  1.84119	 -0.71821	 19.82929	705.92999	 22.70	
 17.007	 46.454	 17.16304	 15.21098	  1.90302	 15.23656	  1.16362	 -0.73159	 19.84048	706.10400	 22.70	
 17.001	 52.301	 17.17392	 14.38049	  2.58080	 15.95767	  0.64411	 -0.72255	 19.83331	705.93597	 22.70	
 17.006	 58.063	 17.18704	 13.49371	  3.31117	 16.62969	  0.19170	 -0.73264	 19.84378	705.91901	 22.70	
 17.002	 63.866	 17.17668	 12.53398	  4.14783	 17.16926	 -0.22073	 -0.75629	 19.84244	706.04498	 22.70	
 17.001	 69.690	 17.19286	 11.54279	  5.00993	 17.63883	 -0.54207	 -0.78783	 19.85096	706.02100	 22.70	
 16.988	 75.483	 17.18574	 10.50978	  5.92713	 17.96422	 -0.75644	 -0.81323	 19.84712	705.94501	 22.70	
 17.012	 81.253	 17.14719	  9.47440	  6.84240	 18.18530	 -1.00630	 -0.82346	 19.82484	706.11603	 22.70	
 16.996	 87.091	 17.16901	  8.44941	  7.81718	 18.31597	 -1.05713	 -0.80365	 19.84314	705.99298	 22.70	
 16.996	 92.909	 17.19823	  7.43230	  8.81120	 18.35435	 -1.03036	 -0.75517	 19.87445	705.98297	 22.70	
 17.008	 98.662	 17.18837	  6.42279	  9.80632	 18.24349	 -0.93918	 -0.74983	 19.86410	705.92999	 22.70	
 16.988	104.517	 17.17478	  5.44888	 10.78745	 18.00537	 -0.81254	 -0.73736	 19.84184	705.85101	 22.70	
 17.001	110.310	 17.14563	  4.48795	 11.76997	 17.66829	 -0.61125	 -0.77260	 19.82022	705.92999	 22.70	
 17.002	116.134	 17.19668	  3.61826	 12.75611	 17.27551	 -0.30634	 -0.77763	 19.86217	705.91302	 22.70	
 17.006	121.937	 17.18978	  2.82069	 13.67965	 16.75241	  0.08352	 -0.80064	 19.86331	705.94397	 22.70	
 17.001	127.699	 17.18337	  2.08869	 14.53012	 16.10129	  0.56030	 -0.81594	 19.85849	705.86603	 22.70	
 17.007	133.546	 17.16406	  1.39392	 15.34053	 15.35969	  1.12734	 -0.82577	 19.85712	705.82599	 22.70	
 17.014	139.343	 17.15618	  0.76605	 16.07437	 14.55002	  1.76671	 -0.81482	 19.85250	705.73901	 22.70	
 16.988	145.161	 17.16007	  0.27112	 16.69613	 13.63402	  2.48977	 -0.81370	 19.82866	705.94202	 22.70	
 16.995	150.919	 17.17425	 -0.15564	 17.26644	 12.71269	  3.26177	 -0.82688	 19.85286	705.79498	 22.70	
 16.990	156.759	 17.14651	 -0.52508	 17.71100	 11.72891	  4.08035	 -0.83121	 19.83527	705.83398	 22.70	
 17.000	162.596	 17.12230	 -0.80873	 18.06467	 10.70591	  4.97265	 -0.86132	 19.84536	705.85101	 22.70	
 17.009	168.383	 17.08362	 -1.09893	 18.32317	  9.66140	  5.88353	 -0.88583	 19.85067	705.98297	 22.70	
 16.990	174.179	 17.06893	 -1.21138	 18.46302	  8.62598	  6.78851	 -0.89265	 19.85813	705.86603	 22.70	
 18.709	174.675	 16.41283	 -2.31919	 18.87771	  8.11223	  6.23818	 -0.90555	 19.85634	705.90399	 22.70	
 18.703	169.441	 16.43377	 -2.22410	 18.74797	  9.10738	  5.29534	 -0.91314	 19.83282	706.02301	 22.70	
 18.691	164.085	 16.50140	 -1.96708	 18.55056	 10.18988	  4.34399	 -0.90954	 19.86176	705.93103	 22.70	
 18.706	158.818	 16.50925	 -1.72842	 18.21930	 11.19514	  3.52672	 -0.89609	 19.85450	705.88000	 22.70	
 18.695	153.537	 16.52480	 -1.43207	 17.79988	 12.17696	  2.67684	 -0.87895	 19.85300	705.91602	 22.70	
 18.704	148.255	 16.53114	 -1.08411	 17.31016	 13.12673	  1.90737	 -0.86446	 19.85876	705.92102	 22.70	
 18.698	142.952	 16.50779	 -0.63523	 16.67978	 14.03302	  1.24058	 -0.90136	 19.83689	705.74701	 22.70	
 18.699	137.625	 16.51015	 -0.05813	 15.98689	 14.90518	  0.59080	 -0.88508	 19.83390	705.88501	 22.70	
 18.705	132.343	 16.52999	  0.52846	 15.28030	 15.71243	  0.00045	 -0.86515	 19.87343	705.71301	 22.70	
 18.713	127.067	 16.51648	  1.24442	 14.44559	 16.43538	 -0.55901	 -0.85012	 19.85875	705.71100	 22.70	
 18.700	121.794	 16.53031	  1.99195	 13.59281	 17.06402	 -1.09411	 -0.81220	 19.86641	705.74701	 22.70	
 18.698	116.504	 16.53910	  2.77453	 12.70013	 17.58408	 -1.44012	 -0.79418	 19.85425	705.70801	 22.70	
 18.707	111.165	 16.54393	  3.62471	 11.76182	 18.03071	 -1.70679	 -0.75675	 19.85525	705.80402	 22.70	
 18.690	105.863	 16.55664	  4.53856	 10.78930	 18.35779	 -1.92384	 -0.71686	 19.86001	705.83099	 22.70	
 18.696	100.583	 16.55675	  5.46174	  9.81771	 18.59175	 -2.08302	 -0.72418	 19.86195	705.80603	 22.70	
 18.700	 95.309	 16.55243	  6.45241	  8.82444	 18.70979	 -2.17571	 -0.72153	 19.84486	705.75800	 22.70	
 18.700	 90.000	 16.57363	  7.46468	  7.83739	 18.78037	 -2.20482	 -0.77002	 19.87130	705.78101	 22.70	
 18.700	 84.691	 16.55423	  8.48354	  6.87207	 18.70078	 -2.15231	 -0.80503	 19.84778	705.80902	 22.70	
 18.696	 79.417	 16.56530	  9.50111	  5.95936	 18.54543	 -2.05044	 -0.83804	 19.84260	705.83099	 22.70	
 18.690	 74.137	 16.58692	 10.53792	  5.05496	 18.30357	 -1.85403	 -0.85556	 19.85902	705.73297	 22.70	
 18.707	 68.835	 16.55527	 11.54231	  4.14660	 17.92939	 -1.62469	 -0.85953	 19.83352	705.80603	 22.70	
 18.698	 63.496	 16.56703	 12.53336	  3.31828	 17.48078	 -1.27894	 -0.85252	 19.84167	705.79498	 22.70	
 18.700	 58.206	 16.57356	 13.47792	  2.51991	 16.94495	 -0.87532	 -0.83765	 19.86124	705.86200	 22.70	
 18.713	 52.933	 16.55402	 14.36613	  1.76602	 16.29089	 -0.41491	 -0.81820	 19.84503	705.87201	 22.70	
 18.705	 47.657	 16.54607	 15.20955	  1.10368	 15.56113	  0.14454	 -0.79026	 19.85178	705.75000	 22.70	
 18.699	 42.375	 16.55334	 15.97422	  0.52603	 14.76765	  0.76459	 -0.76393	 19.86056	705.89001	 22.70	
 18.698	 37.048	 16.52503	 16.64182	  0.00530	 13.92021	  1.41643	 -0.72998	 19.84767	705.96198	 22.70	
 18.704	 31.745	 16.49656	 17.25078	 -0.49434	 12.99709	  2.13354	 -0.69436	 19.85412	705.88300	 22.70	
 18.695	 26.463	 16.49392	 17.75662	 -0.92072	 12.04358	  2.92922	 -0.63745	 19.86905	705.82898	 22.70	
 18.706	 21.182	 16.45517	 18.15180	 -1.26679	 11.04792	  3.77069	 -0.61658	 19.85780	705.96198	 22.70	
 18.691	 15.915	 16.44123	 18.43719	 -1.52958	 10.02357	  4.75264	 -0.58539	 19.84951	705.89899	 22.70	
 18.703	 10.559	 16.42469	 18.66748	 -1.71627	  8.98207	  5.68393	 -0.59002	 19.86036	705.89099	 22.70	
 18.709	  5.325	 16.39191	 18.77189	 -1.86510	  7.97555	  6.63883	 -0.58564	 19.84643	705.88800	 22.70	
 18.700	  0.000	 16.37528	 18.77780	 -1.94184	  6.99786	  7.64036	 -0.58980	 19.84248	705.85901	 22.70	
 18.709	 -5.325	 16.37455	 18.75344	 -1.98635	  6.04366	  8.61207	 -0.60503	 19.88096	705.88000	 22.70	
 18.703	-10.559	 16.33228	 18.55838	 -1.93377	  5.06628	  9.62855	 -0.62248	 19.85961	705.83801	 22.70	
 18.691	-15.915	 16.30516	 18.27058	 -1.80114	  4.09955	 10.66635	 -0.63604	 19.85572	705.84601	 22.70	
 18.706	-21.182	 16.27106	 17.88347	 -1.58358	  3.16392	 11.65330	 -0.64990	 19.83743	705.78601	 22.70	
 18.695	-26.463	 16.27953	 17.42696	 -1.31846	  2.36390	 12.64902	 -0.65757	 19.86721	705.81702	 22.70	
 18.704	-31.745	 16.22054	 16.83549	 -1.01037	  1.56815	 13.56385	 -0.61625	 19.83676	705.72803	 22.70	
 18.698	-37.048	 16.20215	 16.17725	 -0.59157	  0.83856	 14.45072	 -0.63684	 19.85099	705.68597	 22.70	
 18.699	-42.375	 16.16555	 15.41866	 -0.09661	  0.15635	 15.27515	 -0.64444	 19.82887	705.80103	 22.70	
 18.705	-47.657	 16.14772	 14.59345	  0.47985	 -0.48155	 16.05532	 -0.65333	 19.84248	705.84601	 22.70	
 18.713	-52.933	 16.12774	 13.72635	  1.10233	 -1.04549	 16.74005	 -0.64074	 19.85538	705.77802	 22.70	
 18.700	-58.206	 16.11505	 12.79200	  1.80508	 -1.47287	 17.33348	 -0.61335	 19.85439	705.94397	 22.70	
 18.698	-63.496	 16.10874	 11.83840	  2.57463	 -1.84250	 17.84046	 -0.58602	 19.86792	705.93597	 22.70	
 18.707	-68.835	 16.10460	 10.82125	  3.42549	 -2.13140	 18.25378	 -0.55927	 19.86418	705.81799	 22.70	
 18.690	-74.137	 16.08865	  9.79458	  4.31902	 -2.36316	 18.55759	 -0.58277	 19.86157	705.75500	 22.70	
 18.696	-79.417	 16.06955	  8.76151	  5.25152	 -2.53385	 18.76026	 -0.58639	 19.84988	705.90802	 22.70	
 18.700	-84.691	 16.07242	  7.76556	  6.19398	 -2.65595	 18.88856	 -0.61083	 19.86074	705.71301	 22.70	
 18.700	-90.000	 16.05199	  6.74978	  7.17344	 -2.70512	 18.90825	 -0.63381	 19.85456	705.77002	 22.70	
 18.700	-95.309	 16.04183	  5.73856	  8.18743	 -2.67471	 18.84480	 -0.67862	 19.84547	705.85901	 22.70	
 18.696	-100.583	 16.04280	  4.79989	  9.20652	 -2.57110	 18.68402	 -0.73568	 19.84084	705.81201	 22.70	
 18.690	-105.863	 16.03543	  3.87574	 10.24010	 -2.40990	 18.44336	 -0.79190	 19.85043	705.77002	 22.70	
 18.707	-111.165	 16.02355	  3.00198	 11.24720	 -2.16200	 18.07666	 -0.84557	 19.83093	705.78302	 22.70	
 18.698	-116.504	 16.03487	  2.23501	 12.22240	 -1.82680	 17.63890	 -0.87070	 19.83822	705.77502	 22.70	
 18.700	-121.794	 16.03562	  1.45014	 13.20104	 -1.44134	 17.10396	 -0.89725	 19.85145	705.78900	 22.70	
 18.713	-127.067	 16.01557	  0.74795	 14.09013	 -0.98673	 16.46293	 -0.89206	 19.82984	705.71997	 22.70	
 18.705	-132.343	 16.01571	  0.08425	 14.96941	 -0.42698	 15.72019	 -0.91456	 19.82010	705.66901	 22.70	
 18.699	-137.625	 16.09547	 -0.45589	 15.79555	  0.21537	 14.97786	 -0.92400	 19.88218	705.60901	 22.70	
 18.698	-142.952	 16.08720	 -0.93174	 16.47008	  0.89168	 14.08936	 -0.92591	 19.84026	705.79498	 22.70	
 18.704	-148.255	 16.11398	 -1.33176	 17.10888	  1.65119	 13.18376	 -0.93336	 19.84648	705.59900	 22.70	
 18.695	-153.537	 16.15141	 -1.64754	 17.65923	  2.44954	 12.22719	 -0.93178	 19.84694	705.78302	 22.70	
 18.706	-158.818	 16.18090	 -1.89607	 18.09471	  3.27249	 11.25001	 -0.90391	 19.83758	705.72498	 22.70	
 18.691	-164.085	 16.21809	 -2.11356	 18.43633	  4.11040	 10.28289	 -0.90752	 19.84923	705.73297	 22.70	
 18.703	-169.441	 16.25352	 -2.29166	 18.69107	  5.07501	  9.25445	 -0.90854	 19.84150	705.80902	 22.70	
 18.709	-174.675	 16.30448	 -2.41298	 18.86633	  6.04568	  8.26297	 -0.91439	 19.86763	705.79498	 22.70	
 18.700	180.000	 16.33679	 -2.43021	 18.89067	  7.05682	  7.25403	 -0.92584	 19.84439	705.76703	 22.70	
 20.400	180.000	 15.65614	 -3.49336	 19.23583	  6.53435	  6.69892	 -0.87186	 19.84753	705.72803	 22.60	
 20.401	-175.153	 15.60880	 -3.48070	 19.19442	  5.53747	  7.68670	 -0.86096	 19.85192	705.59497	 22.60	
 20.407	-170.264	 15.55065	 -3.38376	 19.07222	  4.55539	  8.65415	 -0.86737	 19.85703	705.71100	 22.60	
 20.410	-165.423	 15.51830	 -3.25606	 18.86985	  3.64363	  9.66273	 -0.85105	 19.87383	705.70203	 22.60	
 20.392	-160.496	 15.46076	 -3.03758	 18.51505	  2.77761	 10.64702	 -0.84983	 19.84000	705.67902	 22.60	
 20.401	-155.705	 15.43993	 -2.79893	 18.14207	  1.97222	 11.60938	 -0.85671	 19.84907	705.78998	 22.60	
 20.405	-150.835	 15.41046	 -2.51232	 17.65462	  1.16784	 12.57181	 -0.87580	 19.85549	705.67700	 22.60	
 20.397	-145.903	 15.36792	 -2.16945	 17.04812	  0.44235	 13.49550	 -0.89270	 19.83437	705.75598	 22.60	
 20.392	-141.062	 15.36819	 -1.77315	 16.41708	 -0.23237	 14.38509	 -0.91840	 19.85528	705.73401	 22.60	
 20.396	-136.227	 15.35250	 -1.32823	 15.69782	 -0.88282	 15.22079	 -0.91044	 19.87820	705.67902	 22.60	
 20.408	-131.372	 15.29166	 -0.79261	 14.88213	 -1.50503	 15.98040	 -0.89878	 19.85944	705.68799	 22.60	
 20.410	-126.511	 15.29456	 -0.13863	 14.00986	 -1.99355	 16.67512	 -0.89510	 19.85133	705.73401	 22.60	
 20.400	-121.604	 15.32863	  0.59874	 13.10980	 -2.41623	 17.31922	 -0.89001	 19.86377	705.73901	 22.60	
 20.403	-116.741	 15.29698	  1.35078	 12.14590	 -2.78583	 17.81918	 -0.86106	 19.81758	705.62598	 22.60	
 20.413	-111.900	 15.29254	  2.09343	 11.17255	 -3.13517	 18.30432	 -0.80205	 19.83916	705.75897	 22.60	
 20.398	-107.004	 15.31456	  2.93753	 10.17222	 -3.36029	 18.66895	 -0.75183	 19.84154	705.73102	 22.60	
 20.394	-102.132	 15.31227	  3.80953	  9.18273	 -3.56123	 18.94931	 -0.69172	 19.85156	705.60699	 22.60	
 20.403	-97.332	 15.31646	  4.70358	  8.18781	 -3.68655	 19.13774	 -0.63267	 19.86061	705.53003	 22.60	
 20.392	-92.440	 15.31599	  5.65570	  7.16029	 -3.75566	 19.23064	 -0.58227	 19.84829	705.76398	 22.60	
 20.392	-87.560	 15.31965	  6.66014	  6.15883	 -3.76364	 19.24585	 -0.55923	 19.84764	705.75098	 22.60	
 20.403	-82.668	 15.32522	  7.67106	  5.18006	 -3.72059	 19.19038	 -0.55745	 19.85412	705.59900	 22.60	
 20.394	-77.868	 15.34860	  8.67081	  4.26606	 -3.60962	 19.04918	 -0.55067	 19.85959	705.60602	 22.60	
 20.398	-72.996	 15.36374	  9.69645	  3.37364	 -3.45512	 18.82540	 -0.54063	 19.85849	705.54199	 22.60	
 20.413	-68.100	 15.37716	 10.73089	  2.48919	 -3.23241	 18.50173	 -0.53835	 19.86371	705.61798	 22.60	
 20.403	-63.259	 15.39160	 11.69269	  1.69223	 -2.92392	 18.08632	 -0.53639	 19.85725	705.48901	 22.60	
 20.400	-58.396	 15.40316	 12.64988	  0.93607	 -2.59059	 17.60187	 -0.55755	 19.86664	706.21198	 22.60	
 20.410	-53.489	 15.39705	 13.56793	  0.23073	 -2.19640	 17.00443	 -0.55543	 19.85657	705.62598	 22.60	
 20.408	-48.628	 15.39738	 14.44743	 -0.38701	 -1.69857	 16.32411	 -0.58705	 19.83422	705.56799	 22.60	
 20.396	-43.773	 15.46481	 15.30090	 -0.92717	 -1.10832	 15.62496	 -0.55826	 19.87395	705.62097	 22.60	
 20.392	-38.938	 15.47282	 16.06507	 -1.44545	 -0.47815	 14.81538	 -0.56055	 19.87356	705.64099	 22.60	
 20.397	-34.097	 15.50305	 16.75304	 -1.85520	  0.24219	 13.94513	 -0.56939	 19.85233	705.59497	 22.60	
 20.405	-29.165	 15.53891	 17.39746	 -2.21693	  1.01140	 13.04502	 -0.56871	 19.87555	705.67999	 22.60	
 20.401	-24.295	 15.54840	 17.89981	 -2.48705	  1.82981	 12.07022	 -0.58258	 19.85054	705.69299	 22.60	
 20.392	-19.504	 15.57932	 18.33313	 -2.68015	  2.68528	 11.07761	 -0.57712	 19.83570	705.66199	 22.60	
 20.410	-14.577	 15.58191	 18.66435	 -2.84416	  3.51465	 10.08272	 -0.55435	 19.82190	705.60303	 22.60	
 20.407	 -9.736	 15.60696	 18.93048	 -2.98779	  4.51869	  9.05654	 -0.53560	 19.83575	705.55103	 22.60	
 20.401	 -4.847	 15.65323	 19.11235	 -3.01366	  5.48437	  8.09890	 -0.50188	 19.85887	705.53900	 22.60	
 20.400	  0.000	 15.68220	 19.17014	 -2.95856	  6.38040	  7.12743	 -0.51225	 19.85851	705.56702	 22.50	
 20.401	  4.847	 15.71476	 19.18412	 -2.90097	  7.41020	  6.12256	 -0.51358	 19.87355	705.70203	 22.50	
 20.407	  9.736	 15.71088	 19.07706	 -2.79213	  8.38711	  5.14145	 -0.52307	 19.86046	705.63397	 22.60	
 20.410	 14.577	 15.72278	 18.87931	 -2.61131	  9.40324	  4.19494	 -0.52310	 19.85326	705.77197	 22.50	
 20.392	 19.504	 15.77396	 18.63380	 -2.35691	 10.46810	  3.26912	 -0.52835	 19.89116	705.55402	 22.60	
 20.401	 24.295	 15.75846	 18.21654	 -2.05978	 11.42054	  2.44838	 -0.53774	 19.82632	705.65399	 22.50	
 20.405	 29.165	 15.79942	 17.79494	 -1.72318	 12.41082	  1.65199	 -0.58478	 19.86108	705.53400	 22.50	
 20.397	 34.097	 15.80279	 17.21422	 -1.28980	 13.36056	  0.89528	 -0.63095	 19.84295	705.50598	 22.50	
 20.392	 38.938	 15.82670	 16.59761	 -0.82025	 14.26971	  0.19416	 -0.69816	 19.85805	705.67999	 22.50	
 20.396	 43.773	 15.84506	 15.91596	 -0.29724	 15.09306	 -0.41073	 -0.72081	 19.85732	705.56702	 22.50	
 20.408	 48.628	 15.83014	 15.11821	  0.26791	 15.87176	 -1.00131	 -0.75427	 19.84502	705.56500	 22.50	
 20.410	 53.489	 15.86807	 14.31077	  0.91546	 16.61227	 -1.51747	 -0.79295	 19.88121	705.62402	 22.50	
 20.400	 58.396	 15.85522	 13.39778	  1.66290	 17.20699	 -1.95429	 -0.82124	 19.84991	705.48901	 22.50	
 20.403	 63.259	 15.85516	 12.45675	  2.42139	 17.75196	 -2.32671	 -0.82308	 19.84257	705.48901	 22.50	
 20.413	 68.100	 15.87238	 11.48748	  3.23025	 18.22642	 -2.65017	 -0.82737	 19.86507	705.48901	 22.50	
 20.398	 72.996	 15.86999	 10.48785	  4.08949	 18.58729	 -2.90436	 -0.80029	 19.85764	705.39502	 22.50	
 20.394	 77.868	 15.84652	  9.46857	  4.95198	 18.84104	 -3.09096	 -0.75127	 19.83811	705.49902	 22.50	
 20.403	 82.668	 15.83440	  8.45060	  5.83246	 19.02433	 -3.24146	 -0.70421	 19.83344	707.21600	 22.50	
 20.392	 87.560	 15.85605	  7.43865	  6.79137	 19.15645	 -3.32066	 -0.67267	 19.87101	707.09003	 22.50	
 20.392	 92.440	 15.84854	  6.45492	  7.74994	 19.16458	 -3.33260	 -0.61177	 19.87642	705.44000	 22.50	
 20.403	 97.332	 15.82631	  5.44566	  8.73195	 19.06782	 -3.28245	 -0.60475	 19.85413	705.46802	 22.50	
 20.394	102.132	 15.84591	  4.54216	  9.69528	 18.91304	 -3.15103	 -0.59727	 19.85493	705.38501	 22.50	
 20.398	107.004	 15.85101	  3.62560	 10.66512	 18.67085	 -2.97717	 -0.63245	 19.86513	705.48199	 22.50	
 20.413	111.900	 15.83352	  2.75204	 11.63033	 18.29523	 -2.74741	 -0.64428	 19.84360	705.43298	 22.50	
 20.403	116.741	 15.82288	  1.94693	 12.53180	 17.84523	 -2.48252	 -0.69580	 19.83040	705.48297	 22.50	
 20.400	121.604	 15.83768	  1.18272	 13.43155	 17.34511	 -2.19954	 -0.71506	 19.85893	705.55798	 22.50	
 20.410	126.511	 15.81021	  0.40746	 14.30474	 16.70517	 -1.80161	 -0.77661	 19.83986	707.18903	 22.50	
 20.408	131.372	 15.82545	 -0.26445	 15.12731	 15.99305	 -1.27470	 -0.81088	 19.84011	705.45502	 22.50	
 20.396	136.227	 15.82672	 -0.88051	 15.88404	 15.21509	 -0.71438	 -0.84073	 19.82973	705.49701	 22.50	
 20.392	141.062	 15.84972	 -1.46526	 16.60823	 14.39124	 -0.09208	 -0.86442	 19.86436	705.51300	 22.50	
 20.397	145.903	 15.85658	 -1.91331	 17.22275	 13.51121	  0.56328	 -0.90108	 19.86322	705.43701	 22.50	
 20.405	150.835	 15.83416	 -2.29859	 17.76380	 12.55410	  1.30993	 -0.91071	 19.84353	705.45801	 22.50	
 20.401	155.705	 15.82745	 -2.57798	 18.23685	 11.58818	  2.10100	 -0.93115	 19.84243	705.49103	 22.50	
 20.392	160.496	 15.82383	 -2.80906	 18.60006	 10.62676	  2.92546	 -0.92110	 19.84935	705.52002	 22.50	
 20.410	165.423	 15.80615	 -3.06529	 18.92836	  9.59418	  3.82493	 -0.93076	 19.87217	705.52197	 22.50	
 20.407	170.264	 15.74600	 -3.33268	 19.09296	  8.56797	  4.73630	 -0.89659	 19.84314	705.52197	 22.50	
 20.401	175.153	 15.72158	 -3.44071	 19.22687	  7.55968	  5.69152	 -0.88681	 19.85844	705.36700	 22.50	
  0.141	 45.000	 19.90331	 10.33139	 10.68433	 10.26241	 10.59938	  0.18202	 19.88157	705.39600	 22.50	
  4.001	128.691	 19.85245	  8.75607	 12.14435	 11.98458	  8.65501	  0.11243	 19.87147	705.42401	 22.50	
  4.002	 76.995	 19.86690	 10.75322	 10.13678	 12.44793	  8.28268	  0.11256	 19.87370	705.56500	 22.50	
  4.002	 25.892	 19.81392	 12.35612	  8.55530	 11.08005	  9.48585	  0.09506	 19.83059	705.52802	 22.50	
  4.002	-25.892	 19.78403	 12.27301	  8.46253	  9.02224	 11.54088	  0.08114	 19.83998	705.38800	 22.50	
  4.002	-76.995	 19.81016	 10.58958	  9.94384	  7.79039	 12.87439	  0.06621	 19.88006	705.35400	 22.50	
  4.001	-128.691	 19.79868	  8.62521	 12.02420	  8.24334	 12.34499	  0.08710	 19.86664	705.40601	 22.50	
  4.000	180.000	 19.80842	  7.80640	 12.99197	 10.03082	 10.46332	  0.10647	 19.84653	706.87000	 22.50	
  8.000	180.000	 19.37021	  5.04739	 15.05650	  9.56513	  9.92062	 -0.18239	 19.83591	705.23798	 22.50	
  7.991	-152.370	 19.33098	  5.42602	 14.42813	  7.39843	 12.19609	 -0.18984	 19.84923	705.48499	 22.50	
  7.997	-124.550	 19.29932	  6.74968	 12.74002	  5.78459	 14.08414	 -0.21260	 19.85189	705.23199	 22.50	
  8.006	-96.837	 19.30760	  8.90049	 10.48048	  5.05758	 15.02343	 -0.29234	 19.86534	705.23199	 22.50	
  7.988	-69.228	 19.29880	 11.22038	  8.21803	  5.30393	 14.73658	 -0.30166	 19.84422	705.29199	 22.50	
  7.997	-41.563	 19.35557	 13.32819	  6.46887	  6.40183	 13.39895	 -0.26409	 19.86723	706.94897	 22.50	
  8.008	-13.821	 19.36642	 14.55071	  5.59028	  8.39150	 11.21835	 -0.22220	 19.83095	707.00000	 22.50	
  8.008	 13.821	 19.44177	 14.64521	  5.71509	 10.73250	  8.87989	 -0.20620	 19.85504	706.86200	 22.50	
  7.997	 41.563	 19.48595	 13.55235	  6.74719	 12.89460	  7.04495	 -0.16517	 19.86604	706.88702	 22.50	
  7.988	 69.228	 19.49420	 11.55224	  8.55842	 14.32628	  5.86016	 -0.15108	 19.84139	705.39600	 22.50	
  8.006	 96.837	 19.51191	  9.23038	 10.81162	 14.66630	  5.60116	 -0.19289	 19.85600	706.98297	 22.50	
  7.997	124.550	 19.46791	  7.04774	 12.98350	 13.76057	  6.27167	 -0.18746	 19.83393	706.96100	 22.50	
  7.991	152.370	 19.46208	  5.62132	 14.56715	 11.89497	  7.81421	 -0.15517	 19.86907	706.98297	 22.50	
 12.009	161.059	 18.65801	  2.58515	 16.49041	 11.27096	  6.97290	 -0.52360	 19.86242	707.12402	 22.50	
 12.013	142.081	 18.66356	  3.58395	 15.33488	 13.52849	  4.99643	 -0.51904	 19.84282	707.04700	 22.50	
 12.006	123.113	 18.71358	  5.22598	 13.56001	 15.30038	  3.58581	 -0.58767	 19.85867	706.48999	 22.50	
 12.007	104.200	 18.71160	  7.32882	 11.35001	 16.31187	  2.80091	 -0.62258	 19.84337	705.87701	 22.50	
 11.989	 85.301	 18.72586	  9.73651	  8.96406	 16.49920	  2.66292	 -0.58809	 19.84399	706.54999	 22.50	
 12.013	 66.294	 18.74441	 12.16513	  6.73900	 15.86779	  3.22007	 -0.49217	 19.87003	706.56598	 22.50	
 12.012	 47.388	 18.70448	 14.23565	  4.88668	 14.39481	  4.39854	 -0.49243	 19.85198	706.79498	 22.50	
 11.990	 28.440	 18.66982	 15.77270	  3.51066	 12.35345	  6.12651	 -0.55432	 19.85394	706.90399	 22.50	
 11.991	  9.464	 18.61049	 16.49911	  2.79792	 10.01365	  8.14935	 -0.58399	 19.83005	706.92401	 22.50	
 11.991	 -9.464	 18.57544	 16.45489	  2.66545	  7.66845	 10.55374	 -0.56715	 19.85247	706.85797	 22.50	
 11.990	-28.440	 18.51246	 15.54895	  3.18470	  5.46529	 12.91868	 -0.55656	 19.84978	706.89001	 22.50	
 12.012	-47.388	 18.44509	 13.88123	  4.43912	  3.70654	 14.88489	 -0.61591	 19.84328	706.92999	 22.50	
 12.013	-66.294	 18.40152	 11.68999	  6.24959	  2.56749	 16.23186	 -0.68620	 19.82888	706.98901	 22.50	
 11.989	-85.301	 18.41175	  9.28238	  8.48868	  2.13075	 16.79546	 -0.69236	 19.85403	706.96802	 22.50	
 12.007	-104.200	 18.40314	  6.87613	 10.89318	  2.25496	 16.56570	 -0.64946	 19.84898	705.35400	 22.50	
 12.006	-123.113	 18.40252	  4.82871	 13.19865	  3.11006	 15.51901	 -0.55483	 19.85533	705.32501	 22.50	
 12.013	-142.081	 18.42338	  3.34127	 15.10484	  4.59004	 13.75545	 -0.55548	 19.84675	705.22998	 22.50	
 12.009	-161.059	 18.49566	  2.44822	 16.37991	  6.57853	 11.52053	 -0.58591	 19.86696	706.95398	 22.50	
 16.000	180.000	 17.34430	 -0.55089	 18.18232	  7.81733	  8.07960	 -0.89098	 19.83055	705.85199	 22.50	
 15.990	-165.604	 17.26071	 -0.36415	 17.83882	  5.54875	 10.47680	 -0.89999	 19.83563	706.71503	 22.50	
 16.002	-151.165	 17.16729	  0.21744	 16.89188	  3.39742	 12.80267	 -0.88454	 19.83332	707.05603	 22.50	
 16.002	-136.836	 17.12458	  1.26837	 15.36625	  1.73162	 14.89765	 -0.83842	 19.84308	705.45697	 22.50	
 15.995	-122.439	 17.10272	  2.77194	 13.36776	  0.41171	 16.55803	 -0.80428	 19.84851	706.83899	 22.50	
 15.993	-107.966	 17.06816	  4.69735	 11.02000	 -0.43836	 17.66138	 -0.83301	 19.82202	706.97198	 22.50	
 16.005	-93.629	 17.08152	  6.96162	  8.61187	 -0.79696	 18.18558	 -0.76489	 19.83761	706.76898	 22.50	
 15.992	-79.234	 17.11226	  9.37229	  6.29141	 -0.69027	 18.09512	 -0.67808	 19.84437	707.07898	 22.50	
 16.009	-64.774	 17.11760	 11.80982	  4.12463	 -0.12868	 17.33447	 -0.68003	 19.82283	706.28400	 22.50	
 15.997	-50.364	 17.17570	 14.05296	  2.37174	  0.96832	 16.02292	 -0.70808	 19.83832	705.20502	 22.50	
 15.997	-36.045	 17.24121	 15.88050	  1.04179	  2.47577	 14.20803	 -0.70107	 19.84769	706.85101	 22.50	
 16.000	-21.597	 17.30214	 17.23591	  0.14908	  4.42396	 12.00841	 -0.68636	 19.85255	706.36700	 22.50	
 16.003	 -7.169	 17.32789	 17.92487	 -0.20870	  6.64679	  9.55945	 -0.69217	 19.81980	705.23999	 22.50	
 16.003	  7.169	 17.42353	 18.02851	 -0.09560	  8.97510	  7.25682	 -0.69315	 19.87154	706.90198	 22.50	
 16.000	 21.597	 17.45739	 17.46620	  0.45105	 11.38762	  5.03161	 -0.71025	 19.86469	706.84698	 22.50	
 15.997	 36.045	 17.46682	 16.25422	  1.46725	 13.63574	  3.06791	 -0.75167	 19.82015	706.89600	 22.50	
 15.997	 50.364	 17.51978	 14.55702	  2.91744	 15.57704	  1.45961	 -0.72447	 19.84210	706.94299	 22.50	
 16.009	 64.774	 17.54681	 12.42072	  4.75812	 16.99725	  0.49496	 -0.75637	 19.85236	706.95398	 22.60	
 15.992	 79.234	 17.52068	 10.03278	  6.88285	 17.80867	 -0.11449	 -0.84258	 19.82702	706.84003	 22.50	
 16.005	 93.629	 17.52382	  7.60339	  9.18119	 18.00019	 -0.25864	 -0.82267	 19.83264	706.90399	 22.50	
 15.993	107.966	 17.52126	  5.30091	 11.48733	 17.53077	  0.03924	 -0.81912	 19.83637	706.80603	 22.60	
 15.995	122.439	 17.52597	  3.26162	 13.71788	 16.43729	  0.82832	 -0.83967	 19.84010	706.28198	 22.50	
 16.002	136.836	 17.52820	  1.62766	 15.64224	 14.76976	  2.13048	 -0.81305	 19.86289	706.71802	 22.50	
 16.002	151.165	 17.49921	  0.46506	 17.04360	 12.66554	  3.83596	 -0.81098	 19.83715	706.76801	 22.60	
 15.990	165.604	 17.45169	 -0.28887	 17.92904	 10.27510	  5.91587	 -0.85210	 19.84017	706.78003	 22.60	
 20.003	168.362	 15.91461	 -2.99148	 18.93153	  9.04782	  4.55541	 -0.91132	 19.82143	706.84998	 22.60	
 20.008	156.764	 15.98689	 -2.40216	 18.27167	 11.40840	  2.49522	 -0.92448	 19.84193	706.84399	 22.60	
 20.000	145.147	 16.00986	 -1.61754	 17.10433	 13.66701	  0.67484	 -0.87141	 19.86378	706.77802	 22.60	
 19.995	133.545	 15.99962	 -0.31572	 15.48600	 15.62009	 -0.78365	 -0.83420	 19.83614	706.79401	 22.60	
 20.009	121.926	 16.00311	  1.33542	 13.52934	 17.23401	 -1.92232	 -0.73781	 19.85090	706.92102	 22.60	
 20.005	110.327	 16.02083	  3.20594	 11.41149	 18.34812	 -2.54919	 -0.65356	 19.85647	706.79102	 22.60	
 19.989	 98.733	 16.02558	  5.34234	  9.15201	 18.93871	 -2.94327	 -0.64022	 19.85497	706.86401	 22.60	
 19.999	 87.075	 16.02500	  7.68290	  6.82822	 19.02942	 -3.01601	 -0.67527	 19.83800	706.87799	 22.60	
 19.992	 75.457	 16.03277	 10.04994	  4.71734	 18.62148	 -2.71713	 -0.78968	 19.82235	706.75403	 22.60	
 20.009	 63.844	 16.05225	 12.38050	  2.74552	 17.73926	 -2.09454	 -0.84802	 19.84392	706.70697	 22.60	
 19.989	 52.269	 16.04332	 14.50208	  0.99966	 16.36386	 -1.11152	 -0.78393	 19.84676	706.36401	 22.60	
 19.999	 40.602	 16.00567	 16.34247	 -0.41644	 14.54111	  0.21950	 -0.71414	 19.85521	705.26001	 22.60	
 20.004	 29.051	 15.96230	 17.72662	 -1.46472	 12.41978	  1.88412	 -0.59291	 19.83747	705.21198	 22.60	
 20.005	 17.433	 15.89054	 18.63523	 -2.25667	 10.08269	  3.83260	 -0.51414	 19.82557	706.68701	 22.60	
 20.006	  5.780	 15.86003	 19.08009	 -2.65375	  7.72286	  6.04254	 -0.51740	 19.85239	705.89899	 22.60	
 20.006	 -5.780	 15.81296	 19.00345	 -2.77192	  5.46156	  8.34310	 -0.53414	 19.84654	706.76300	 22.60	
 20.005	-17.433	 15.72984	 18.41774	 -2.54165	  3.18817	 10.71169	 -0.55754	 19.82053	706.74402	 22.60	
 20.004	-29.051	 15.68990	 17.34332	 -1.98914	  1.26142	 13.00274	 -0.57701	 19.83576	706.68103	 22.60	
 19.999	-40.602	 15.63954	 15.77328	 -1.02250	 -0.42807	 15.05867	 -0.55681	 19.84243	706.67297	 22.60	
 19.989	-52.269	 15.58167	 13.81204	  0.29965	 -1.79550	 16.78765	 -0.53595	 19.84518	705.24402	 22.60	
 20.009	-63.844	 15.53763	 11.61904	  1.97535	 -2.72805	 18.05377	 -0.50610	 19.82643	706.62903	 22.60	
 19.992	-75.457	 15.52347	  9.25938	  3.99879	 -3.26479	 18.83183	 -0.51726	 19.82075	706.62000	 22.60	
 19.999	-87.075	 15.49568	  6.88654	  6.19486	 -3.51895	 19.15189	 -0.55585	 19.82962	706.59100	 22.60	
 19.989	-98.733	 15.49034	  4.62577	  8.55355	 -3.40579	 18.99598	 -0.63904	 19.83055	706.69501	 22.60	
 20.005	-110.327	 15.46490	  2.55208	 10.90153	 -2.97249	 18.35789	 -0.76565	 19.83150	706.41498	 22.60	
 20.009	-121.926	 15.47107	  0.76215	 13.16023	 -2.16651	 17.22373	 -0.86675	 19.83207	706.73999	 22.60	
 19.995	-133.545	 15.49800	 -0.78137	 15.22615	 -1.00863	 15.63781	 -0.87902	 19.85776	706.61603	 22.60	
 20.000	-145.147	 15.54963	 -1.88713	 16.93095	  0.52279	 13.67357	 -0.89906	 19.85544	706.67297	 22.60	
 20.008	-156.764	 15.61900	 -2.62616	 18.17236	  2.33847	 11.45319	 -0.85368	 19.85630	706.55200	 22.60	
 20.003	-168.362	 15.69832	 -3.05644	 18.89652	  4.33785	  9.15248	 -0.86944	 19.82422	706.69299	 22.60	
 20.000	180.000	 15.80857	 -3.21947	 19.14509	  6.63247	  6.82998	 -0.86818	 19.82718	706.59698	 22.70	
