FileType=PCF
NHL=14
Date=08/31/17	11:10:07
Facility=APL
Serial=16328-11
Customer=NASA
NP=6
Mach=0.150000
Calibration=1:1
CalPts=490
TstPts=95
PortNumbering=AP Standard
Units=Torr C m/s kg/m^3 deg mm 
Theta[deg]	Phi[deg]	P1[Torr]	P2[Torr]	P3[Torr]	P4[Torr]	P5[Torr]	P6[Torr]	Pt[Torr]	Ps[Abs,Torr]	Ts[C]	
  0.000	  0.000	 11.10870	  5.75691	  6.01157	  5.69375	  5.99332	  0.07253	 11.10352	706.67798	 23.10	
  1.691	128.401	 11.10732	  5.41470	  6.35202	  6.12890	  5.53542	  0.06948	 11.10592	706.66498	 23.10	
  1.692	 77.194	 11.11226	  5.89115	  5.90008	  6.23896	  5.44115	  0.07191	 11.11282	706.79102	 23.10	
  1.699	 26.182	 11.13367	  6.27594	  5.53348	  5.94829	  5.74919	  0.06615	 11.12979	706.69202	 23.10	
  1.699	-26.182	 11.11114	  6.24185	  5.51091	  5.44085	  6.22845	  0.05788	 11.10863	706.69800	 23.10	
  1.692	-77.194	 11.09668	  5.84163	  5.85804	  5.14862	  6.50354	  0.05826	 11.09893	706.64697	 23.10	
  1.691	-128.401	 11.11993	  5.39849	  6.32674	  5.26119	  6.40593	  0.06242	 11.12073	706.55701	 23.10	
  1.700	180.000	 11.11264	  5.19254	  6.55064	  5.68792	  5.96862	  0.06802	 11.11230	706.59802	 23.10	
  3.400	180.000	 11.10674	  4.61520	  7.07411	  5.63448	  5.91974	  0.03913	 11.12221	706.47699	 23.10	
  3.388	-152.325	 11.08179	  4.71804	  6.91137	  5.11936	  6.42376	  0.03303	 11.10390	706.42902	 23.10	
  3.397	-124.529	 11.08404	  5.02944	  6.56159	  4.74041	  6.84215	  0.03476	 11.11322	706.53198	 23.10	
  3.399	-96.763	 11.09290	  5.52302	  6.04137	  4.55475	  7.05169	  0.01769	 11.12225	706.56000	 23.10	
  3.394	-69.283	 11.08969	  6.05606	  5.52653	  4.61884	  6.98874	  0.01091	 11.11412	706.45697	 23.10	
  3.400	-41.398	 11.11314	  6.53073	  5.13005	  4.91348	  6.69446	  0.01436	 11.13575	706.49298	 23.10	
  3.401	-14.021	 11.10554	  6.80110	  4.92205	  5.36151	  6.22706	  0.02946	 11.12396	706.56403	 23.10	
  3.401	 14.021	 11.10940	  6.80823	  4.94834	  5.91862	  5.66992	  0.02868	 11.11983	706.51300	 23.10	
  3.400	 41.398	 11.10392	  6.57705	  5.19396	  6.39330	  5.20977	  0.04303	 11.10962	706.60602	 23.10	
  3.394	 69.283	 11.11218	  6.14840	  5.60824	  6.71452	  4.92933	  0.04719	 11.11759	706.73297	 23.10	
  3.399	 96.763	 11.12085	  5.62216	  6.12244	  6.78843	  4.86734	  0.04885	 11.12780	706.58899	 23.10	
  3.397	124.529	 11.11211	  5.11217	  6.61213	  6.59972	  5.01649	  0.05039	 11.11641	706.53302	 23.10	
  3.388	152.325	 11.10342	  4.76039	  6.94300	  6.17655	  5.39602	  0.03866	 11.11682	706.62201	 23.10	
  5.099	161.165	 11.06789	  4.08447	  7.52063	  6.12056	  5.27977	  0.00454	 11.12774	706.58099	 23.10	
  5.109	142.013	 11.08608	  4.35071	  7.26855	  6.65421	  4.79879	  0.00316	 11.13752	706.71503	 23.10	
  5.095	123.033	 11.06782	  4.74509	  6.84344	  7.03303	  4.45941	  0.00127	 11.11732	706.63898	 23.10	
  5.105	104.191	 11.07375	  5.25598	  6.33078	  7.27253	  4.26652	 -0.00162	 11.11427	706.58398	 23.10	
  5.093	 85.207	 11.05821	  5.79058	  5.79617	  7.30273	  4.23429	  0.00018	 11.09881	706.58801	 23.10	
  5.104	 66.290	 11.07681	  6.36299	  5.27773	  7.16940	  4.37183	 -0.00070	 11.11922	706.72601	 23.10	
  5.094	 47.331	 11.07423	  6.84993	  4.82978	  6.82691	  4.67294	 -0.00343	 11.12033	706.68701	 23.10	
  5.089	 28.397	 11.05640	  7.17583	  4.50147	  6.36948	  5.07090	 -0.00733	 11.10953	706.72900	 23.10	
  5.096	  9.576	 11.06466	  7.36095	  4.31539	  5.83475	  5.58636	 -0.01693	 11.12359	706.78003	 23.10	
  5.096	 -9.576	 11.05447	  7.35337	  4.27343	  5.24385	  6.16742	 -0.02240	 11.13124	706.70099	 23.10	
  5.089	-28.397	 11.03404	  7.12832	  4.41088	  4.73288	  6.69016	 -0.02905	 11.11582	706.70203	 23.10	
  5.094	-47.331	 11.02099	  6.75107	  4.69921	  4.31119	  7.13528	 -0.04297	 11.10877	706.63702	 23.10	
  5.104	-66.290	 11.03354	  6.25882	  5.13678	  4.02028	  7.47340	 -0.04775	 11.12687	706.68500	 23.10	
  5.093	-85.207	 11.02178	  5.69638	  5.64858	  3.88497	  7.60682	 -0.04556	 11.11501	706.61401	 23.10	
  5.105	-104.191	 11.02620	  5.13322	  6.22275	  3.93052	  7.55187	 -0.03729	 11.12234	706.64203	 23.10	
  5.095	-123.033	 11.02078	  4.64184	  6.74375	  4.14930	  7.29589	 -0.02410	 11.11814	706.52899	 23.10	
  5.109	-142.013	 11.02967	  4.26208	  7.18929	  4.51035	  6.89532	 -0.01693	 11.12172	706.60498	 23.10	
  5.099	-161.165	 11.05014	  4.04421	  7.49069	  5.00791	  6.37772	 -0.00811	 11.12736	706.54303	 23.10	
  5.100	180.000	 11.04810	  3.96643	  7.60440	  5.55001	  5.81363	 -0.00425	 11.11833	706.53198	 23.10	
  6.800	180.000	 10.96325	  3.30994	  8.10750	  5.44576	  5.70452	 -0.07392	 11.12754	706.62903	 23.10	
  6.796	-166.229	 10.93466	  3.34579	  8.00711	  4.89364	  6.24694	 -0.07020	 11.11067	706.59998	 23.10	
  6.808	-152.311	 10.92679	  3.50414	  7.78927	  4.38962	  6.78033	 -0.07818	 11.12152	706.48999	 23.10	
  6.795	-138.383	 10.91689	  3.77672	  7.44729	  3.94366	  7.26660	 -0.09031	 11.11744	706.69501	 23.10	
  6.792	-124.591	 10.91724	  4.15649	  7.01105	  3.59726	  7.66306	 -0.09046	 11.12107	705.00800	 23.10	
  6.787	-110.754	 10.91552	  4.62691	  6.49996	  3.35439	  7.94562	 -0.10605	 11.13045	706.57397	 23.10	
  6.800	-96.985	 10.90016	  5.13625	  5.94994	  3.21975	  8.09024	 -0.12608	 11.11133	706.53998	 23.10	
  6.800	-83.015	 10.90948	  5.70536	  5.39333	  3.23361	  8.09497	 -0.12989	 11.11654	706.57397	 23.10	
  6.787	-69.246	 10.90745	  6.25229	  4.88609	  3.34575	  7.96535	 -0.13177	 11.10871	706.69501	 23.10	
  6.792	-55.409	 10.91954	  6.77329	  4.43401	  3.57740	  7.71246	 -0.13055	 11.11693	706.63397	 23.10	
  6.795	-41.617	 10.92670	  7.23166	  4.06289	  3.92258	  7.32991	 -0.12104	 11.12070	706.60303	 23.10	
  6.808	-27.689	 10.93988	  7.58273	  3.79730	  4.36190	  6.85901	 -0.10499	 11.12326	706.60797	 23.10	
  6.796	-13.771	 10.94712	  7.81093	  3.64993	  4.86164	  6.32905	 -0.09359	 11.12029	706.67297	 23.10	
  6.800	  0.000	 10.97858	  7.91561	  3.62073	  5.42262	  5.78848	 -0.09174	 11.13991	706.63098	 23.10	
  6.796	 13.771	 10.96788	  7.84773	  3.69713	  5.97925	  5.22302	 -0.08093	 11.12036	706.53601	 23.10	
  6.808	 27.689	 10.98975	  7.66723	  3.89381	  6.52067	  4.72995	 -0.07034	 11.12299	706.47900	 23.10	
  6.795	 41.617	 10.99527	  7.33345	  4.20000	  7.01314	  4.29109	 -0.06925	 11.12749	706.56702	 23.10	
  6.792	 55.409	 11.00016	  6.90569	  4.59358	  7.40401	  3.94972	 -0.05723	 11.12203	706.67297	 23.10	
  6.787	 69.246	 10.99259	  6.39966	  5.04933	  7.67160	  3.71150	 -0.05909	 11.10538	706.64203	 23.10	
  6.800	 83.015	 11.00353	  5.85667	  5.57056	  7.83205	  3.58088	 -0.07060	 11.12097	706.54303	 23.10	
  6.800	 96.985	 11.01329	  5.30283	  6.11648	  7.84127	  3.57685	 -0.06877	 11.12818	706.53302	 23.10	
  6.787	110.754	 11.00838	  4.77405	  6.64240	  7.69623	  3.69065	 -0.06515	 11.12134	706.55200	 23.10	
  6.792	124.591	 10.98290	  4.28365	  7.12120	  7.41253	  3.90239	 -0.07023	 11.10848	704.84399	 23.10	
  6.795	138.383	 10.99854	  3.90434	  7.54418	  7.03965	  4.24150	 -0.06320	 11.12972	706.58301	 23.10	
  6.808	152.311	 10.99769	  3.59628	  7.86535	  6.56382	  4.66301	 -0.05675	 11.14134	706.63098	 23.10	
  6.796	166.229	 10.96316	  3.39483	  8.03889	  6.01333	  5.14698	 -0.06482	 11.11746	706.67401	 23.10	
  8.491	168.704	 10.83708	  2.70129	  8.52432	  5.89435	  4.99639	 -0.14573	 11.12027	706.63098	 23.10	
  8.502	157.493	 10.85610	  2.86966	  8.37371	  6.46200	  4.46869	 -0.13684	 11.12942	706.54901	 23.10	
  8.494	146.194	 10.84586	  3.11563	  8.09687	  6.96237	  4.01167	 -0.13962	 11.10365	706.65002	 23.10	
  8.495	135.039	 10.88084	  3.46046	  7.76301	  7.45666	  3.61190	 -0.15179	 11.13508	706.62903	 23.10	
  8.487	123.723	 10.88626	  3.88575	  7.31873	  7.83487	  3.29706	 -0.16037	 11.13378	706.56897	 23.10	
  8.492	112.575	 10.87147	  4.36166	  6.81042	  8.10303	  3.06406	 -0.15874	 11.11238	706.57397	 23.10	
  8.510	101.220	 10.89237	  4.90056	  6.28356	  8.30001	  2.91810	 -0.16026	 11.13134	706.61102	 23.10	
  8.500	 90.000	 10.90290	  5.46791	  5.73568	  8.35226	  2.89103	 -0.16321	 11.13497	706.65100	 23.10	
  8.510	 78.780	 10.89314	  6.03496	  5.18066	  8.28196	  2.94732	 -0.15533	 11.13430	706.61603	 23.10	
  8.492	 67.425	 10.88720	  6.58544	  4.66583	  8.09134	  3.10634	 -0.13819	 11.12340	706.63702	 23.10	
  8.487	 56.277	 10.87472	  7.09602	  4.19442	  7.79868	  3.33659	 -0.13489	 11.11958	706.62799	 23.10	
  8.495	 44.961	 10.88310	  7.56199	  3.78385	  7.41721	  3.67959	 -0.14635	 11.13447	706.63098	 23.10	
  8.494	 33.806	 10.87960	  7.92596	  3.46029	  6.95624	  4.08908	 -0.15268	 11.14006	706.65002	 23.10	
  8.502	 22.507	 10.84566	  8.18336	  3.18511	  6.41143	  4.55856	 -0.15876	 11.11895	706.54700	 23.10	
  8.491	 11.296	 10.83410	  8.34066	  3.02901	  5.84799	  5.08402	 -0.17374	 11.11514	706.58002	 23.10	
  8.500	  0.000	 10.83677	  8.40355	  2.93988	  5.27969	  5.64792	 -0.18641	 11.13641	706.63397	 23.10	
  8.491	-11.296	 10.81397	  8.31461	  2.95952	  4.71037	  6.21477	 -0.17713	 11.12334	706.64697	 23.10	
  8.502	-22.507	 10.80562	  8.11842	  3.08683	  4.18464	  6.76752	 -0.17943	 11.12576	706.56897	 23.10	
  8.494	-33.806	 10.78294	  7.80985	  3.29354	  3.69236	  7.28060	 -0.19871	 11.11303	706.72302	 23.10	
  8.495	-44.961	 10.77814	  7.42269	  3.59342	  3.28610	  7.73403	 -0.21325	 11.12118	706.64502	 23.10	
  8.487	-56.277	 10.76624	  6.93937	  3.98753	  2.95885	  8.10138	 -0.21992	 11.11171	706.59198	 23.10	
  8.492	-67.425	 10.76280	  6.41826	  4.44410	  2.72517	  8.36514	 -0.22875	 11.11665	706.63098	 23.10	
  8.510	-78.780	 10.76225	  5.84665	  4.96873	  2.57959	  8.53457	 -0.23328	 11.12344	706.62903	 23.10	
  8.500	-90.000	 10.75504	  5.27104	  5.51233	  2.52098	  8.58895	 -0.22387	 11.11679	706.59497	 23.10	
  8.510	-101.220	 10.75159	  4.70476	  6.07942	  2.57717	  8.51675	 -0.21131	 11.11575	706.02301	 23.10	
  8.492	-112.575	 10.75028	  4.17205	  6.64296	  2.73410	  8.32514	 -0.18377	 11.10663	706.80798	 23.10	
  8.487	-123.723	 10.76642	  3.71879	  7.16534	  2.98025	  8.04868	 -0.16915	 11.12519	706.72998	 23.10	
  8.495	-135.039	 10.75682	  3.31342	  7.61633	  3.30011	  7.66511	 -0.16656	 11.11161	705.18500	 23.10	
  8.494	-146.194	 10.76696	  2.99769	  8.01073	  3.71999	  7.19823	 -0.16616	 11.11317	706.76398	 23.10	
  8.502	-157.493	 10.79280	  2.77679	  8.31718	  4.21406	  6.67600	 -0.15747	 11.12541	706.59497	 23.10	
  8.491	-168.704	 10.80400	  2.66227	  8.49098	  4.74355	  6.12389	 -0.15417	 11.11931	706.59998	 23.10	
  8.500	180.000	 10.81021	  2.62445	  8.56259	  5.30576	  5.55014	 -0.15692	 11.11226	705.27698	 23.10	
 10.200	180.000	 10.65065	  1.95886	  8.99812	  5.16042	  5.38806	 -0.24660	 11.12474	706.70502	 23.10	
 10.191	-170.497	 10.62162	  1.96389	  8.93532	  4.58448	  5.95316	 -0.24980	 11.11663	706.83301	 23.10	
 10.210	-161.034	 10.61409	  2.06401	  8.79045	  4.04295	  6.52173	 -0.24542	 11.13088	706.59998	 23.10	
 10.194	-151.526	 10.59279	  2.25501	  8.52015	  3.52094	  7.07559	 -0.25303	 11.12158	706.70502	 23.10	
 10.190	-142.105	 10.57991	  2.51624	  8.18639	  3.06489	  7.57717	 -0.25424	 11.12615	706.79901	 23.10	
 10.215	-132.646	 10.58201	  2.85699	  7.77278	  2.67299	  8.03342	 -0.25578	 11.13454	706.80798	 23.10	
 10.203	-123.092	 10.57387	  3.26169	  7.29463	  2.34550	  8.41145	 -0.25661	 11.13239	706.83301	 23.10	
 10.192	-113.678	 10.56492	  3.72921	  6.75708	  2.09830	  8.70361	 -0.26998	 11.12373	706.73297	 23.10	
 10.208	-104.249	 10.54379	  4.22859	  6.19481	  1.91543	  8.90149	 -0.30266	 11.11182	706.70502	 23.10	
 10.210	-94.801	 10.55340	  4.78412	  5.63169	  1.82568	  9.02378	 -0.32519	 11.12369	705.05798	 23.10	
 10.210	-85.199	 10.57612	  5.39188	  5.05366	  1.82920	  9.04783	 -0.33764	 11.14305	706.42200	 23.10	
 10.208	-75.751	 10.54815	  5.95242	  4.49871	  1.90275	  8.93229	 -0.33443	 11.10876	706.69501	 23.10	
 10.192	-66.322	 10.56109	  6.52541	  3.99366	  2.06706	  8.74816	 -0.32836	 11.11390	706.70502	 23.10	
 10.203	-56.908	 10.56853	  7.05917	  3.53265	  2.30921	  8.47502	 -0.31710	 11.11633	706.59198	 23.10	
 10.215	-47.354	 10.58347	  7.56134	  3.13007	  2.63464	  8.11124	 -0.30718	 11.12075	706.71503	 23.10	
 10.190	-37.895	 10.59555	  7.99175	  2.80155	  3.02256	  7.67087	 -0.28859	 11.12144	706.63898	 23.10	
 10.194	-28.474	 10.61209	  8.34079	  2.54974	  3.47317	  7.18275	 -0.27165	 11.13069	706.61902	 23.10	
 10.210	-18.966	 10.61612	  8.60303	  2.36717	  3.97627	  6.63493	 -0.26399	 11.11892	706.69000	 23.10	
 10.191	 -9.503	 10.63365	  8.77013	  2.27549	  4.52937	  6.06812	 -0.26421	 11.12021	706.61902	 23.10	
 10.200	  0.000	 10.64573	  8.84660	  2.25586	  5.10132	  5.48928	 -0.27475	 11.12192	706.69897	 23.10	
 10.191	  9.503	 10.65525	  8.81515	  2.31636	  5.68982	  4.91227	 -0.27394	 11.12290	706.62201	 23.10	
 10.210	 18.966	 10.66700	  8.67516	  2.46573	  6.26209	  4.37696	 -0.26083	 11.11700	706.65997	 23.10	
 10.194	 28.474	 10.68942	  8.45832	  2.69107	  6.82349	  3.87521	 -0.24570	 11.12765	706.65100	 23.10	
 10.190	 37.895	 10.68095	  8.12739	  2.97379	  7.32525	  3.41451	 -0.24208	 11.10923	706.67603	 23.10	
 10.215	 47.354	 10.70884	  7.74090	  3.33673	  7.80380	  3.01728	 -0.23430	 11.13444	704.95398	 23.10	
 10.203	 56.908	 10.72464	  7.26957	  3.76624	  8.18303	  2.71199	 -0.21440	 11.13587	706.54401	 23.10	
 10.192	 66.322	 10.71422	  6.73789	  4.23594	  8.46476	  2.46869	 -0.21621	 11.11889	706.65698	 23.10	
 10.208	 75.751	 10.72143	  6.18730	  4.74410	  8.68224	  2.29025	 -0.24094	 11.12726	706.69800	 23.10	
 10.210	 85.199	 10.71415	  5.61130	  5.27641	  8.78508	  2.19358	 -0.26151	 11.11677	706.53998	 23.10	
 10.210	 94.801	 10.73887	  5.02632	  5.86714	  8.81216	  2.19027	 -0.26989	 11.14606	706.60797	 23.10	
 10.208	104.249	 10.72744	  4.47076	  6.40974	  8.70653	  2.26582	 -0.26678	 11.13027	706.59698	 23.10	
 10.192	113.678	 10.70933	  3.93286	  6.94832	  8.48960	  2.42577	 -0.26058	 11.11736	706.63702	 23.10	
 10.203	123.092	 10.71289	  3.45700	  7.45243	  8.20872	  2.65716	 -0.25741	 11.12419	706.58398	 23.10	
 10.215	132.646	 10.70818	  3.02034	  7.91284	  7.83686	  2.95650	 -0.24896	 11.12686	706.44202	 23.10	
 10.190	142.105	 10.70583	  2.66332	  8.30266	  7.38274	  3.34425	 -0.23260	 11.12552	706.81702	 23.10	
 10.194	151.526	 10.68458	  2.37147	  8.60171	  6.87030	  3.78175	 -0.22010	 11.11613	706.53497	 23.10	
 10.210	161.034	 10.66071	  2.13927	  8.82305	  6.31247	  4.27503	 -0.22073	 11.10500	706.61102	 23.10	
 10.191	170.497	 10.66906	  2.01115	  8.96552	  5.75709	  4.81527	 -0.23917	 11.12863	706.52899	 23.10	
 11.899	171.783	 10.45527	  1.31884	  9.38049	  5.57009	  4.61355	 -0.33218	 11.13114	706.59698	 23.10	
 11.890	163.610	 10.44943	  1.43636	  9.24596	  6.13367	  4.07121	 -0.31645	 11.11446	706.73798	 23.10	
 11.889	155.445	 10.47614	  1.62824	  9.06369	  6.70223	  3.56911	 -0.30675	 11.11816	706.66199	 23.10	
 11.909	147.299	 10.48627	  1.86681	  8.80275	  7.24923	  3.09052	 -0.31089	 11.13019	706.67297	 23.10	
 11.902	139.148	 10.48364	  2.19808	  8.43649	  7.72791	  2.67563	 -0.31983	 11.11151	706.54901	 23.10	
 11.894	130.867	 10.49378	  2.58688	  8.01938	  8.16164	  2.32910	 -0.33204	 11.11174	706.68701	 23.10	
 11.897	122.732	 10.49850	  3.01109	  7.55967	  8.54099	  2.02433	 -0.35053	 11.11825	706.77502	 23.10	
 11.903	114.597	 10.48862	  3.48860	  7.04366	  8.82460	  1.78816	 -0.35956	 11.10223	706.66699	 23.10	
 11.893	106.346	 10.50495	  4.02475	  6.50170	  9.05117	  1.62387	 -0.36263	 11.11745	705.60101	 23.10	
 11.892	 98.155	 10.52408	  4.58362	  5.95434	  9.19278	  1.53033	 -0.36821	 11.13515	705.08600	 23.10	
 11.900	 90.000	 10.50719	  5.14010	  5.38752	  9.21345	  1.50678	 -0.36584	 11.11215	706.57501	 23.10	
 11.892	 81.845	 10.51918	  5.72289	  4.84063	  9.16894	  1.55737	 -0.34819	 11.12097	705.72498	 23.10	
 11.893	 73.654	 10.52001	  6.31193	  4.30305	  9.03763	  1.65811	 -0.32527	 11.13160	704.95001	 23.10	
 11.903	 65.403	 10.50889	  6.86795	  3.78623	  8.80525	  1.84475	 -0.29683	 11.12421	705.54999	 23.10	
 11.897	 57.268	 10.50683	  7.39421	  3.33352	  8.49854	  2.09145	 -0.29222	 11.12054	705.65997	 23.10	
 11.894	 49.133	 10.50849	  7.87414	  2.91783	  8.12576	  2.40797	 -0.30123	 11.12888	706.71002	 23.10	
 11.902	 40.852	 10.48904	  8.29498	  2.53531	  7.67421	  2.77530	 -0.31403	 11.12101	706.64697	 23.10	
 11.909	 32.701	 10.47027	  8.63736	  2.22209	  7.17653	  3.19702	 -0.32726	 11.11502	706.77698	 23.10	
 11.889	 24.555	 10.45431	  8.91298	  1.96324	  6.63203	  3.68010	 -0.33639	 11.10883	706.83099	 23.10	
 11.890	 16.390	 10.46203	  9.12052	  1.77897	  6.08258	  4.19485	 -0.34819	 11.12705	706.69202	 23.10	
 11.899	  8.217	 10.43936	  9.22727	  1.65134	  5.50430	  4.72765	 -0.35267	 11.11896	706.74701	 23.10	
 11.900	  0.000	 10.44974	  9.28177	  1.58471	  4.92385	  5.31402	 -0.35136	 11.14930	706.80200	 23.20	
 11.899	 -8.217	 10.42730	  9.20472	  1.59302	  4.34349	  5.89470	 -0.34304	 11.13838	706.44299	 23.20	
 11.890	-16.390	 10.39961	  9.05725	  1.65388	  3.78450	  6.45197	 -0.33749	 11.12189	706.78601	 23.20	
 11.889	-24.555	 10.37917	  8.81294	  1.80777	  3.26702	  6.99911	 -0.34145	 11.11233	705.77502	 23.10	
 11.909	-32.701	 10.37307	  8.51010	  2.01691	  2.78134	  7.54131	 -0.35309	 11.12456	706.66998	 23.20	
 11.902	-40.852	 10.37126	  8.13474	  2.30397	  2.37436	  8.01149	 -0.36838	 11.13164	706.83301	 23.20	
 11.894	-49.133	 10.36079	  7.67456	  2.65672	  1.99740	  8.44444	 -0.38063	 11.12705	706.71002	 23.10	
 11.897	-57.268	 10.33233	  7.16828	  3.05119	  1.68101	  8.79074	 -0.39559	 11.11174	706.78302	 23.20	
 11.903	-65.403	 10.33837	  6.62677	  3.52282	  1.43961	  9.08683	 -0.40827	 11.12501	706.82001	 23.20	
 11.893	-73.654	 10.34694	  6.05994	  4.03766	  1.28453	  9.29116	 -0.42045	 11.13756	706.67401	 23.20	
 11.892	-81.845	 10.32313	  5.47842	  4.56060	  1.18581	  9.38659	 -0.41459	 11.11447	706.04498	 23.20	
 11.900	-90.000	 10.32661	  4.88675	  5.13006	  1.15192	  9.42744	 -0.41446	 11.11912	706.46301	 23.20	
 11.892	-98.155	 10.33983	  4.32935	  5.71275	  1.19191	  9.38785	 -0.40521	 11.13523	705.12598	 23.20	
 11.893	-106.346	 10.34648	  3.78805	  6.29045	  1.29668	  9.25739	 -0.38366	 11.14300	705.12201	 23.20	
 11.903	-114.597	 10.31415	  3.24878	  6.84106	  1.46266	  9.01864	 -0.35517	 11.11438	706.66699	 23.20	
 11.897	-122.732	 10.31911	  2.79486	  7.37215	  1.71638	  8.71102	 -0.33938	 11.11232	706.77100	 23.20	
 11.894	-130.867	 10.35058	  2.39308	  7.87487	  2.02970	  8.36283	 -0.33260	 11.13494	705.05798	 23.20	
 11.902	-139.148	 10.35195	  2.03058	  8.31235	  2.41408	  7.91129	 -0.33417	 11.13415	706.84399	 23.20	
 11.909	-147.299	 10.35657	  1.74875	  8.67478	  2.82988	  7.42782	 -0.34488	 11.12241	706.68402	 23.20	
 11.889	-155.445	 10.37004	  1.53404	  8.96750	  3.31613	  6.89686	 -0.34608	 11.12114	706.76300	 23.20	
 11.890	-163.610	 10.37638	  1.37192	  9.19104	  3.84204	  6.32025	 -0.34708	 11.10952	705.12201	 23.20	
 11.899	-171.783	 10.40730	  1.27925	  9.34589	  4.39508	  5.76530	 -0.34791	 11.12981	705.10797	 23.20	
 11.900	180.000	 10.43226	  1.26315	  9.40884	  4.97823	  5.18261	 -0.34205	 11.13530	706.69202	 23.20	
 13.600	180.000	 10.15307	  0.59285	  9.74155	  4.75072	  4.94414	 -0.43310	 11.10444	705.21198	 23.20	
 13.608	-172.853	 10.14179	  0.59522	  9.71053	  4.18121	  5.52322	 -0.44253	 11.12345	705.22302	 23.20	
 13.611	-165.583	 10.11413	  0.65909	  9.58867	  3.61226	  6.10175	 -0.44622	 11.11750	705.16803	 23.20	
 13.601	-158.353	 10.09716	  0.80462	  9.37457	  3.08257	  6.66964	 -0.44654	 11.11215	705.16199	 23.20	
 13.609	-151.210	 10.09488	  0.98653	  9.12609	  2.59770	  7.21875	 -0.44263	 11.13133	705.19098	 23.20	
 13.611	-143.999	 10.08232	  1.22744	  8.79741	  2.14231	  7.73939	 -0.43552	 11.13889	706.21198	 23.20	
 13.601	-136.825	 10.08591	  1.52993	  8.41665	  1.74375	  8.22208	 -0.41999	 11.15048	705.39600	 23.20	
 13.596	-129.640	 10.05074	  1.88924	  7.93468	  1.37630	  8.63163	 -0.41158	 11.12343	706.19501	 23.20	
 13.611	-122.431	 10.04065	  2.29664	  7.43764	  1.07957	  8.99026	 -0.41609	 11.11422	705.47400	 23.20	
 13.604	-115.211	 10.04390	  2.75957	  6.90392	  0.83903	  9.29861	 -0.42928	 11.11928	705.61798	 23.20	
 13.595	-108.042	 10.05654	  3.26951	  6.35242	  0.67294	  9.52718	 -0.45694	 11.12567	706.67798	 23.20	
 13.607	-100.793	 10.04460	  3.79701	  5.76626	  0.53196	  9.69455	 -0.47208	 11.12195	706.63898	 23.20	
 13.601	-93.617	 10.03024	  4.34799	  5.18269	  0.46559	  9.76498	 -0.48338	 11.10669	705.95001	 23.20	
 13.601	-86.383	 10.05273	  4.95033	  4.61418	  0.46122	  9.79313	 -0.47643	 11.12832	705.04401	 23.20	
 13.607	-79.207	 10.04793	  5.52975	  4.04910	  0.51353	  9.72267	 -0.46993	 11.12118	705.05798	 23.20	
 13.595	-71.958	 10.06218	  6.11922	  3.52374	  0.64026	  9.58412	 -0.46039	 11.12343	706.57202	 23.20	
 13.604	-64.789	 10.05528	  6.67304	  3.02638	  0.80375	  9.36913	 -0.44837	 11.11699	705.00500	 23.20	
 13.611	-57.569	 10.07538	  7.22647	  2.57691	  1.03211	  9.10085	 -0.44349	 11.13271	706.69800	 23.20	
 13.596	-50.360	 10.09060	  7.74114	  2.17169	  1.33371	  8.75499	 -0.42750	 11.13963	706.80902	 23.20	
 13.601	-43.175	 10.09577	  8.19944	  1.81835	  1.67865	  8.34096	 -0.41808	 11.12974	706.65900	 23.20	
 13.611	-36.001	 10.10559	  8.61091	  1.51275	  2.07732	  7.88103	 -0.40970	 11.13022	706.73199	 23.20	
 13.609	-28.790	 10.11248	  8.96197	  1.27047	  2.53148	  7.35586	 -0.39996	 11.12318	706.78497	 23.20	
 13.601	-21.647	 10.15792	  9.26559	  1.09344	  3.02824	  6.84379	 -0.40054	 11.15681	706.62799	 23.20	
 13.611	-14.417	 10.15572	  9.46062	  0.96896	  3.55763	  6.25904	 -0.40037	 11.13894	705.03601	 23.20	
 13.608	 -7.147	 10.15802	  9.58671	  0.90574	  4.11856	  5.66566	 -0.39958	 11.12891	706.55499	 23.20	
 13.600	  0.000	 10.17542	  9.64147	  0.90874	  4.68621	  5.09731	 -0.40937	 11.12678	705.02899	 23.20	
 13.608	  7.147	 10.18552	  9.61868	  0.96640	  5.27245	  4.52607	 -0.41717	 11.12744	705.02899	 23.20	
 13.611	 14.417	 10.19885	  9.52793	  1.07435	  5.85608	  3.97645	 -0.41732	 11.13180	705.04303	 23.20	
 13.601	 21.647	 10.20408	  9.35570	  1.23809	  6.43189	  3.44288	 -0.41055	 11.12552	706.62000	 23.30	
 13.609	 28.790	 10.22430	  9.10977	  1.46370	  6.99361	  2.95741	 -0.40701	 11.12795	705.02399	 23.20	
 13.611	 36.001	 10.23251	  8.79688	  1.73759	  7.52241	  2.50349	 -0.39705	 11.13242	705.60303	 23.20	
 13.601	 43.175	 10.25340	  8.42299	  2.07305	  8.00699	  2.10686	 -0.38212	 11.13852	705.50800	 23.20	
 13.596	 50.360	 10.24089	  7.96695	  2.44536	  8.41967	  1.75620	 -0.36714	 11.11660	705.43298	 23.20	
 13.611	 57.569	 10.24345	  7.48216	  2.85785	  8.79872	  1.43875	 -0.36834	 11.11754	706.58002	 23.20	
 13.604	 64.789	 10.24948	  6.94646	  3.32235	  9.11217	  1.19066	 -0.37840	 11.11535	705.90802	 23.30	
 13.595	 71.958	 10.26019	  6.40485	  3.81730	  9.34653	  1.00967	 -0.40489	 11.12364	706.77698	 23.30	
 13.607	 79.207	 10.26536	  5.82689	  4.34625	  9.51533	  0.88374	 -0.43179	 11.12613	706.12500	 23.20	
 13.601	 86.383	 10.26572	  5.25071	  4.88966	  9.59257	  0.82351	 -0.44811	 11.12673	705.15399	 23.20	
 13.601	 93.617	 10.27306	  4.66905	  5.47314	  9.60524	  0.81860	 -0.45693	 11.13291	705.42902	 23.20	
 13.607	100.793	 10.27526	  4.10639	  6.03692	  9.53829	  0.86535	 -0.45675	 11.14052	705.16498	 23.20	
 13.595	108.042	 10.24633	  3.54165	  6.58073	  9.36759	  0.97814	 -0.45273	 11.11283	705.15698	 23.20	
 13.604	115.211	 10.23861	  3.02785	  7.10934	  9.14131	  1.14319	 -0.44664	 11.11085	705.14502	 23.20	
 13.611	122.431	 10.26095	  2.55092	  7.64449	  8.86244	  1.37617	 -0.43730	 11.13597	705.00403	 23.20	
 13.596	129.640	 10.24988	  2.12318	  8.10237	  8.47555	  1.67650	 -0.41913	 11.11529	705.87402	 23.20	
 13.601	136.825	 10.24040	  1.72809	  8.53308	  8.04994	  2.01049	 -0.40352	 11.11277	705.06000	 23.20	
 13.611	143.999	 10.24573	  1.40556	  8.90950	  7.58982	  2.39486	 -0.39816	 11.12681	705.05798	 23.20	
 13.609	151.210	 10.22670	  1.12561	  9.20871	  7.06414	  2.83220	 -0.39074	 11.11552	705.16199	 23.20	
 13.601	158.353	 10.24242	  0.90446	  9.47793	  6.52110	  3.33265	 -0.39419	 11.14293	704.97900	 23.20	
 13.611	165.583	 10.21427	  0.73738	  9.63996	  5.94232	  3.83759	 -0.40661	 11.13075	705.14502	 23.20	
 13.608	172.853	 10.19133	  0.63794	  9.73334	  5.35064	  4.38391	 -0.42060	 11.12514	705.04102	 23.30	
 15.298	173.587	  9.89993	 -0.02308	 10.04823	  5.11055	  4.13371	 -0.50517	 11.12224	705.01801	 23.20	
 15.291	167.167	  9.91436	  0.05453	  9.96856	  5.68417	  3.59382	 -0.49167	 11.12564	705.17798	 23.20	
 15.307	160.676	  9.94433	  0.19060	  9.83167	  6.27959	  3.06985	 -0.47835	 11.13950	705.13898	 23.20	
 15.300	154.261	  9.94782	  0.39407	  9.59138	  6.84057	  2.57769	 -0.46843	 11.11868	705.18500	 23.20	
 15.288	147.854	  9.95713	  0.63231	  9.31851	  7.37692	  2.12349	 -0.46825	 11.12656	705.22900	 23.30	
 15.293	141.428	  9.96735	  0.92614	  8.98017	  7.88498	  1.70958	 -0.47423	 11.13002	706.35999	 23.20	
 15.299	134.985	  9.96298	  1.27201	  8.57517	  8.35200	  1.33034	 -0.48121	 11.12558	706.84198	 23.20	
 15.305	128.583	  9.95535	  1.65220	  8.14056	  8.75445	  1.00630	 -0.49165	 11.11318	705.22998	 23.30	
 15.309	122.142	  9.96179	  2.08004	  7.66611	  9.11673	  0.74144	 -0.49970	 11.11958	705.16803	 23.20	
 15.304	115.711	  9.97464	  2.55588	  7.16709	  9.41850	  0.51865	 -0.50093	 11.12617	705.29199	 23.20	
 15.297	109.291	  9.97760	  3.06236	  6.63717	  9.65262	  0.35018	 -0.50070	 11.13244	705.15399	 23.20	
 15.293	102.897	  9.97957	  3.59981	  6.08179	  9.82020	  0.23170	 -0.50012	 11.12961	705.04303	 23.30	
 15.293	 96.458	  9.97101	  4.14580	  5.52661	  9.90689	  0.15951	 -0.50182	 11.11990	706.79102	 23.30	
 15.300	 90.000	  9.98975	  4.73625	  4.97176	  9.95110	  0.14181	 -0.50363	 11.13716	706.67401	 23.30	
 15.293	 83.542	  9.97547	  5.31368	  4.41141	  9.89115	  0.17609	 -0.49761	 11.11173	705.07397	 23.30	
 15.293	 77.103	  9.99199	  5.90213	  3.85987	  9.80076	  0.25947	 -0.48273	 11.13285	705.15100	 23.30	
 15.297	 70.709	  9.98028	  6.46602	  3.33640	  9.61669	  0.39493	 -0.45746	 11.12719	705.07001	 23.30	
 15.304	 64.289	  9.98136	  7.01843	  2.85280	  9.37665	  0.58419	 -0.43428	 11.13138	706.55798	 23.20	
 15.309	 57.858	  9.97227	  7.54724	  2.39785	  9.07101	  0.81280	 -0.42261	 11.13521	706.54999	 23.30	
 15.305	 51.417	  9.97150	  8.03918	  1.98620	  8.70224	  1.10818	 -0.42644	 11.13083	705.12598	 23.30	
 15.299	 45.015	  9.95492	  8.48082	  1.61108	  8.26964	  1.44991	 -0.43118	 11.12156	705.14203	 23.30	
 15.293	 38.572	  9.95131	  8.88714	  1.28015	  7.79203	  1.84559	 -0.43551	 11.12539	705.13702	 23.30	
 15.288	 32.146	  9.93871	  9.22242	  0.99025	  7.28538	  2.26697	 -0.43720	 11.12270	705.11499	 23.30	
 15.300	 25.739	  9.93973	  9.51507	  0.74671	  6.76489	  2.72030	 -0.43546	 11.14084	705.04401	 23.30	
 15.307	 19.324	  9.91845	  9.72488	  0.54357	  6.18627	  3.21664	 -0.43594	 11.13254	705.02899	 23.30	
 15.291	 12.833	  9.90412	  9.87177	  0.40152	  5.61263	  3.74108	 -0.43410	 11.12717	705.53601	 23.30	
 15.298	  6.413	  9.87878	  9.94010	  0.30524	  5.02831	  4.27890	 -0.42424	 11.11260	705.60303	 23.30	
 15.300	  0.000	  9.87379	  9.97362	  0.24388	  4.44195	  4.85111	 -0.42114	 11.12777	705.27197	 23.30	
 15.298	 -6.413	  9.85016	  9.90813	  0.24031	  3.85639	  5.43189	 -0.41885	 11.11212	705.94702	 23.30	
 15.291	-12.833	  9.83877	  9.80352	  0.28186	  3.31120	  5.99537	 -0.41980	 11.11296	705.08600	 23.30	
 15.307	-19.324	  9.83910	  9.62951	  0.37755	  2.77550	  6.58818	 -0.42180	 11.13416	705.16803	 23.30	
 15.300	-25.739	  9.80594	  9.35395	  0.53194	  2.27809	  7.11880	 -0.42512	 11.11060	705.01001	 23.30	
 15.288	-32.146	  9.80944	  9.04809	  0.74838	  1.82760	  7.65092	 -0.42680	 11.12536	705.12598	 23.30	
 15.293	-38.572	  9.79584	  8.67329	  1.00434	  1.40212	  8.14283	 -0.42930	 11.12496	705.12903	 23.30	
 15.299	-45.015	  9.76874	  8.23292	  1.31417	  1.01589	  8.58584	 -0.43150	 11.11113	705.83099	 23.30	
 15.305	-51.417	  9.77099	  7.76187	  1.67233	  0.68890	  8.99961	 -0.43829	 11.12702	705.11902	 23.30	
 15.309	-57.858	  9.77360	  7.25906	  2.07913	  0.41228	  9.34818	 -0.43346	 11.13581	705.11200	 23.30	
 15.304	-64.289	  9.74774	  6.70402	  2.51735	  0.19003	  9.61327	 -0.43609	 11.11657	704.95300	 23.30	
 15.297	-70.709	  9.75070	  6.14252	  3.00742	  0.00929	  9.84593	 -0.43977	 11.13047	705.06598	 23.30	
 15.293	-77.103	  9.74801	  5.56197	  3.53351	 -0.11320	 10.00225	 -0.44381	 11.12670	705.08002	 23.30	
 15.293	-83.542	  9.74174	  4.97568	  4.07066	 -0.19173	 10.10014	 -0.45800	 11.12995	705.09399	 23.30	
 15.300	-90.000	  9.74123	  4.40014	  4.64183	 -0.21207	 10.11973	 -0.47568	 11.13505	705.06403	 23.30	
 15.293	-96.458	  9.73006	  3.81736	  5.22464	 -0.18047	 10.06799	 -0.48978	 11.12739	705.01898	 23.30	
 15.293	-102.897	  9.73742	  3.28781	  5.80249	 -0.08701	  9.95595	 -0.49284	 11.12316	705.78900	 23.30	
 15.297	-109.291	  9.74581	  2.76756	  6.37704	  0.03218	  9.80200	 -0.49203	 11.14003	705.28003	 23.30	
 15.304	-115.711	  9.72149	  2.26387	  6.92444	  0.21278	  9.54143	 -0.47882	 11.11629	706.90198	 23.30	
 15.309	-122.142	  9.73930	  1.81103	  7.47737	  0.45941	  9.24168	 -0.47160	 11.12994	705.65997	 23.30	
 15.305	-128.583	  9.73892	  1.41784	  7.96005	  0.74213	  8.87903	 -0.47108	 11.11894	706.34399	 23.30	
 15.299	-134.985	  9.71952	  1.04616	  8.40700	  1.06414	  8.44921	 -0.47928	 11.09344	705.25702	 23.30	
 15.293	-141.428	  9.74924	  0.73932	  8.83725	  1.45260	  8.00025	 -0.49656	 11.11420	704.98798	 23.30	
 15.288	-147.854	  9.77177	  0.48069	  9.20160	  1.88268	  7.50368	 -0.51435	 11.12132	705.09698	 23.30	
 15.300	-154.261	  9.78851	  0.26269	  9.50612	  2.34645	  6.97385	 -0.52024	 11.12172	705.14203	 23.30	
 15.307	-160.676	  9.79531	  0.09563	  9.74591	  2.84099	  6.41609	 -0.52310	 11.11814	705.57800	 23.30	
 15.291	-167.167	  9.82337	  0.00112	  9.91213	  3.39440	  5.84082	 -0.51999	 11.11431	705.16803	 23.30	
 15.298	-173.587	  9.86193	 -0.05765	 10.04148	  3.95387	  5.27323	 -0.52031	 11.13235	705.12903	 23.30	
 15.300	180.000	  9.87775	 -0.07462	 10.07959	  4.52266	  4.69933	 -0.51599	 11.12786	705.20502	 23.30	
 17.000	180.000	  9.54271	 -0.71192	 10.35355	  4.25811	  4.41414	 -0.56889	 11.12184	705.15900	 23.30	
 16.990	-174.179	  9.50494	 -0.70861	 10.31026	  3.68770	  4.97163	 -0.56969	 11.11361	705.26801	 23.30	
 17.009	-168.383	  9.50869	 -0.65756	 10.23960	  3.13913	  5.56579	 -0.56758	 11.14373	705.10797	 23.30	
 17.000	-162.596	  9.46336	 -0.57087	 10.06327	  2.60676	  6.12294	 -0.56795	 11.11824	705.03302	 23.30	
 16.990	-156.759	  9.44722	 -0.42063	  9.83786	  2.09496	  6.68685	 -0.56648	 11.11282	705.17297	 23.30	
 16.995	-150.919	  9.43520	 -0.24009	  9.57323	  1.63058	  7.22813	 -0.56534	 11.11829	705.01599	 23.30	
 16.988	-145.161	  9.40913	 -0.02256	  9.24204	  1.18570	  7.74071	 -0.55770	 11.11702	705.16998	 23.30	
 17.014	-139.343	  9.39616	  0.24698	  8.85878	  0.77744	  8.23305	 -0.55484	 11.11692	705.18103	 23.30	
 17.007	-133.546	  9.39599	  0.56063	  8.44441	  0.42619	  8.68301	 -0.53447	 11.12647	705.08899	 23.30	
 17.001	-127.699	  9.36489	  0.91861	  7.94892	  0.10736	  9.06901	 -0.52691	 11.10031	705.64398	 23.30	
 17.006	-121.937	  9.37619	  1.31664	  7.45875	 -0.16621	  9.43878	 -0.51857	 11.11664	705.14301	 23.30	
 17.002	-116.134	  9.38314	  1.76123	  6.93357	 -0.39110	  9.75326	 -0.51178	 11.13183	705.01599	 23.30	
 17.001	-110.310	  9.37266	  2.22448	  6.37655	 -0.58137	  9.99622	 -0.51094	 11.12583	705.06000	 23.30	
 16.988	-104.517	  9.36659	  2.74294	  5.80023	 -0.70717	 10.16961	 -0.50109	 11.11462	705.14203	 23.30	
 17.008	-98.662	  9.37987	  3.27339	  5.22555	 -0.80234	 10.31430	 -0.47953	 11.12562	705.17297	 23.30	
 16.996	-92.909	  9.36870	  3.82480	  4.65077	 -0.84471	 10.35956	 -0.44968	 11.10888	705.24902	 23.30	
 16.996	-87.091	  9.37199	  4.38185	  4.08365	 -0.85673	 10.37972	 -0.43364	 11.11541	705.20898	 23.30	
 17.012	-81.253	  9.37856	  4.96712	  3.51884	 -0.82409	 10.33824	 -0.42245	 11.11828	706.42603	 23.30	
 16.988	-75.483	  9.38405	  5.53739	  3.00232	 -0.72953	 10.22206	 -0.40877	 11.11085	706.78003	 23.30	
 17.001	-69.690	  9.38652	  6.12089	  2.48033	 -0.61872	 10.07086	 -0.39826	 11.12040	706.78802	 23.30	
 17.002	-63.866	  9.39634	  6.68156	  2.00628	 -0.44244	  9.84266	 -0.39431	 11.12146	705.19800	 23.30	
 17.006	-58.063	  9.41081	  7.21999	  1.58119	 -0.21883	  9.55916	 -0.39579	 11.12720	705.16199	 23.30	
 17.001	-52.301	  9.40793	  7.72734	  1.18014	  0.03640	  9.22014	 -0.40594	 11.10884	705.23297	 23.30	
 17.007	-46.454	  9.43539	  8.24603	  0.81258	  0.36350	  8.82746	 -0.41172	 11.12802	705.27197	 23.30	
 17.014	-40.657	  9.44476	  8.67824	  0.50464	  0.70239	  8.40594	 -0.40515	 11.12829	705.13599	 23.30	
 16.988	-34.839	  9.45090	  9.06178	  0.24089	  1.10634	  7.91259	 -0.41347	 11.11341	705.17297	 23.30	
 16.995	-29.081	  9.48032	  9.42014	  0.02593	  1.54368	  7.41485	 -0.41985	 11.12842	705.19897	 23.30	
 16.990	-23.241	  9.49044	  9.71386	 -0.15879	  2.01696	  6.87335	 -0.41224	 11.12797	705.25702	 23.30	
 17.000	-17.404	  9.49895	  9.95128	 -0.29420	  2.51494	  6.30340	 -0.41197	 11.12464	705.38501	 23.30	
 17.009	-11.617	  9.51467	 10.12032	 -0.37581	  3.04799	  5.74068	 -0.40036	 11.12683	705.20099	 23.30	
 16.990	 -5.821	  9.51356	 10.20906	 -0.40684	  3.59616	  5.15189	 -0.39359	 11.11249	705.19299	 23.30	
 17.000	  0.000	  9.52803	 10.25284	 -0.40042	  4.15911	  4.59561	 -0.39746	 11.11076	705.96399	 23.30	
 16.990	  5.821	  9.54379	 10.24266	 -0.34717	  4.74910	  4.02063	 -0.39528	 11.10734	706.83600	 23.30	
 17.009	 11.617	  9.55436	 10.17238	 -0.26449	  5.32388	  3.48272	 -0.40194	 11.11209	705.16803	 23.30	
 17.000	 17.404	  9.58327	 10.05291	 -0.13425	  5.91051	  2.96417	 -0.40745	 11.13114	705.30200	 23.30	
 16.990	 23.241	  9.57117	  9.83976	  0.03384	  6.46841	  2.44875	 -0.41227	 11.10471	705.26001	 23.30	
 16.995	 29.081	  9.58863	  9.58807	  0.25194	  7.01950	  1.99150	 -0.42266	 11.10895	705.16998	 23.30	
 16.988	 34.839	  9.62308	  9.30451	  0.50270	  7.56100	  1.55979	 -0.43808	 11.13813	705.33698	 23.30	
 17.014	 40.657	  9.60739	  8.91766	  0.79890	  8.05181	  1.14069	 -0.45292	 11.11282	705.37500	 23.30	
 17.007	 46.454	  9.62324	  8.51547	  1.12636	  8.51492	  0.78182	 -0.45846	 11.12356	705.15399	 23.30	
 17.001	 52.301	  9.63462	  8.06251	  1.50083	  8.93468	  0.45847	 -0.46161	 11.12728	705.39301	 23.30	
 17.006	 58.063	  9.62847	  7.55979	  1.90921	  9.27321	  0.19244	 -0.46772	 11.10869	705.31403	 23.40	
 17.002	 63.866	  9.64204	  7.04350	  2.35177	  9.59629	 -0.04318	 -0.47912	 11.12773	705.22302	 23.40	
 17.001	 69.690	  9.63355	  6.48554	  2.81856	  9.84139	 -0.23766	 -0.49232	 11.11639	706.16400	 23.40	
 16.988	 75.483	  9.63670	  5.91864	  3.35019	 10.03178	 -0.37712	 -0.50448	 11.11756	705.47198	 23.40	
 17.012	 81.253	  9.62492	  5.34208	  3.86308	 10.15741	 -0.48647	 -0.50989	 11.10996	705.23999	 23.40	
 16.996	 87.091	  9.64540	  4.77134	  4.41352	 10.24205	 -0.53249	 -0.50665	 11.13109	705.30798	 23.40	
 16.996	 92.909	  9.63189	  4.19081	  4.95579	 10.23607	 -0.54005	 -0.50110	 11.11681	705.33301	 23.40	
 17.008	 98.662	  9.62897	  3.62741	  5.50686	 10.17520	 -0.49755	 -0.48930	 11.11050	705.38702	 23.40	
 16.988	104.517	  9.63091	  3.08482	  6.06885	 10.05525	 -0.40796	 -0.49342	 11.11006	705.23602	 23.40	
 17.001	110.310	  9.64169	  2.56626	  6.61707	  9.89202	 -0.28165	 -0.50075	 11.12650	705.26801	 23.40	
 17.002	116.134	  9.64037	  2.07459	  7.14943	  9.64541	 -0.10678	 -0.50487	 11.12182	705.25500	 23.40	
 17.006	121.937	  9.64055	  1.62350	  7.65185	  9.34641	  0.11468	 -0.51729	 11.11542	705.22998	 23.40	
 17.001	127.699	  9.63788	  1.19378	  8.13320	  8.99096	  0.37096	 -0.52681	 11.11501	705.16699	 23.40	
 17.007	133.546	  9.62749	  0.80186	  8.57364	  8.58660	  0.66682	 -0.52632	 11.10968	705.12903	 23.40	
 17.014	139.343	  9.65074	  0.46401	  9.00004	  8.15391	  1.02543	 -0.53387	 11.13267	705.13397	 23.40	
 16.988	145.161	  9.64733	  0.16543	  9.36053	  7.65745	  1.41354	 -0.53083	 11.13018	705.20099	 23.40	
 16.995	150.919	  9.63478	 -0.08975	  9.65890	  7.13443	  1.84032	 -0.53300	 11.11986	705.22400	 23.40	
 16.990	156.759	  9.61883	 -0.29983	  9.91029	  6.57762	  2.30024	 -0.53421	 11.11505	705.17297	 23.40	
 17.000	162.596	  9.61623	 -0.47453	 10.12698	  6.01409	  2.79825	 -0.54397	 11.13088	705.08099	 23.40	
 17.009	168.383	  9.59793	 -0.59830	 10.26620	  5.42888	  3.31108	 -0.55664	 11.13485	705.17603	 23.40	
 16.990	174.179	  9.57651	 -0.66667	 10.33408	  4.85761	  3.85247	 -0.56486	 11.12990	705.18201	 23.40	
 18.709	174.675	  9.19944	 -1.29786	 10.56910	  4.55866	  3.55338	 -0.58639	 11.12250	705.21198	 23.40	
 18.703	169.441	  9.22547	 -1.22519	 10.49902	  5.12256	  3.03343	 -0.58259	 11.11860	705.09399	 23.40	
 18.691	164.085	  9.25141	 -1.11512	 10.38087	  5.71620	  2.51191	 -0.58027	 11.12534	705.18799	 23.40	
 18.706	158.818	  9.25595	 -0.97665	 10.19281	  6.28062	  2.01209	 -0.58245	 11.11936	705.12299	 23.40	
 18.695	153.537	  9.27515	 -0.79000	  9.96650	  6.83425	  1.55689	 -0.57798	 11.11852	705.16199	 23.40	
 18.704	148.255	  9.27460	 -0.57122	  9.68059	  7.36729	  1.12067	 -0.56980	 11.11464	705.23602	 23.40	
 18.698	142.952	  9.28868	 -0.29813	  9.35102	  7.88289	  0.72849	 -0.56028	 11.12034	705.08600	 23.30	
 18.699	137.625	  9.27691	  0.00015	  8.96705	  8.35203	  0.36176	 -0.55417	 11.11147	705.22900	 23.30	
 18.705	132.343	  9.28907	  0.34480	  8.55676	  8.79772	  0.03984	 -0.54504	 11.12531	705.20099	 23.30	
 18.713	127.067	  9.28092	  0.70977	  8.10435	  9.18835	 -0.25527	 -0.52751	 11.12190	705.18103	 23.30	
 18.700	121.794	  9.27530	  1.12847	  7.61652	  9.53500	 -0.50450	 -0.50376	 11.11437	705.19598	 23.30	
 18.698	116.504	  9.28821	  1.59098	  7.11388	  9.84772	 -0.71335	 -0.48023	 11.13161	705.32501	 23.30	
 18.707	111.165	  9.28464	  2.06477	  6.58584	 10.09574	 -0.88583	 -0.46635	 11.12977	705.24701	 23.40	
 18.690	105.863	  9.29070	  2.58157	  6.04559	 10.27581	 -1.00527	 -0.45960	 11.12934	705.22302	 23.40	
 18.696	100.583	  9.27923	  3.10176	  5.50199	 10.39372	 -1.08881	 -0.44149	 11.11922	705.17798	 23.40	
 18.700	 95.309	  9.29963	  3.65089	  4.96164	 10.49053	 -1.14228	 -0.44855	 11.13361	705.37097	 23.40	
 18.700	 90.000	  9.28656	  4.20644	  4.41346	 10.48820	 -1.14463	 -0.45964	 11.11364	705.19098	 23.40	
 18.700	 84.691	  9.28765	  4.78371	  3.87330	 10.45567	 -1.12198	 -0.47422	 11.11766	705.33301	 23.40	
 18.696	 79.417	  9.30250	  5.35921	  3.35666	 10.38490	 -1.06217	 -0.49139	 11.12951	705.25201	 23.40	
 18.690	 74.137	  9.29391	  5.92460	  2.85054	 10.23406	 -0.95573	 -0.49662	 11.11818	705.29901	 23.40	
 18.707	 68.835	  9.26871	  6.46983	  2.35575	 10.01512	 -0.81569	 -0.50204	 11.09837	705.31097	 23.40	
 18.698	 63.496	  9.28252	  7.02631	  1.87197	  9.78159	 -0.63767	 -0.49726	 11.12031	705.23199	 23.40	
 18.700	 58.206	  9.28807	  7.56042	  1.43696	  9.47516	 -0.40932	 -0.49120	 11.12621	705.22998	 23.40	
 18.713	 52.933	  9.27374	  8.05066	  1.03747	  9.10959	 -0.14401	 -0.47403	 11.11524	705.39600	 23.40	
 18.705	 47.657	  9.27916	  8.52311	  0.67437	  8.71105	  0.16127	 -0.46494	 11.12833	705.21198	 23.40	
 18.699	 42.375	  9.26640	  8.93018	  0.35211	  8.27040	  0.49379	 -0.44783	 11.11999	705.39301	 23.40	
 18.698	 37.048	  9.26668	  9.32481	  0.04754	  7.79007	  0.87631	 -0.42991	 11.13175	705.36401	 23.40	
 18.704	 31.745	  9.23616	  9.64349	 -0.21805	  7.25998	  1.28102	 -0.40440	 11.11371	705.38202	 23.40	
 18.695	 26.463	  9.22826	  9.93050	 -0.44134	  6.72402	  1.72824	 -0.38723	 11.11630	705.19098	 23.40	
 18.706	 21.182	  9.23587	 10.17180	 -0.62715	  6.18503	  2.19566	 -0.36926	 11.13869	705.33099	 23.40	
 18.691	 15.915	  9.20696	 10.32190	 -0.77142	  5.60411	  2.68419	 -0.36029	 11.10973	705.18500	 23.40	
 18.703	 10.559	  9.20611	 10.45390	 -0.88607	  5.02149	  3.22322	 -0.36068	 11.12668	705.19897	 23.40	
 18.709	  5.325	  9.18525	 10.51074	 -0.96856	  4.45231	  3.74822	 -0.35918	 11.11817	705.25702	 23.40	
 18.700	  0.000	  9.18261	 10.52542	 -1.01191	  3.87222	  4.32453	 -0.34971	 11.13120	705.33301	 23.40	
 18.709	 -5.325	  9.15250	 10.47594	 -1.03611	  3.31157	  4.87217	 -0.36556	 11.11690	705.25201	 23.40	
 18.703	-10.559	  9.14148	 10.37044	 -0.99137	  2.77225	  5.43888	 -0.36295	 11.11124	706.07703	 23.40	
 18.691	-15.915	  9.14742	 10.23994	 -0.92903	  2.24094	  6.02924	 -0.38262	 11.13480	705.27100	 23.40	
 18.706	-21.182	  9.11854	 10.01259	 -0.82779	  1.73659	  6.57247	 -0.38882	 11.11881	705.27802	 23.40	
 18.695	-26.463	  9.11574	  9.76244	 -0.68096	  1.27563	  7.11675	 -0.38809	 11.12939	705.34802	 23.40	
 18.704	-31.745	  9.10000	  9.44322	 -0.49660	  0.83236	  7.63756	 -0.38900	 11.12956	705.24701	 23.40	
 18.698	-37.048	  9.09318	  9.07766	 -0.26215	  0.43176	  8.13780	 -0.39490	 11.13622	705.28302	 23.40	
 18.699	-42.375	  9.06774	  8.65773	  0.01460	  0.06770	  8.58465	 -0.37987	 11.12179	705.32202	 23.40	
 18.705	-47.657	  9.04654	  8.18843	  0.32737	 -0.27518	  9.00794	 -0.37279	 11.11197	705.30902	 23.40	
 18.713	-52.933	  9.04054	  7.71217	  0.66796	 -0.56861	  9.39906	 -0.36857	 11.12395	705.32202	 23.40	
 18.700	-58.206	  9.03326	  7.18470	  1.07047	 -0.80468	  9.72205	 -0.35779	 11.11514	705.30798	 23.40	
 18.698	-63.496	  9.03221	  6.65407	  1.50077	 -1.00977	 10.01194	 -0.35476	 11.12247	705.40601	 23.40	
 18.707	-68.835	  9.01947	  6.09874	  1.95542	 -1.18237	 10.23829	 -0.35108	 11.12339	705.34198	 23.40	
 18.690	-74.137	  9.01811	  5.52488	  2.45608	 -1.30068	 10.40989	 -0.35083	 11.11777	705.41998	 23.40	
 18.696	-79.417	  9.02154	  4.95333	  2.97253	 -1.39695	 10.54374	 -0.36199	 11.13469	705.29102	 23.40	
 18.700	-84.691	  9.00691	  4.38094	  3.51025	 -1.45152	 10.60155	 -0.37614	 11.12503	705.41199	 23.40	
 18.700	-90.000	  9.00561	  3.82394	  4.06243	 -1.46041	 10.61679	 -0.40372	 11.11968	705.43500	 23.40	
 18.700	-95.309	  9.01011	  3.27277	  4.63542	 -1.42982	 10.58486	 -0.41779	 11.12739	705.44299	 23.40	
 18.696	-100.583	  8.99806	  2.72905	  5.20745	 -1.37391	 10.49267	 -0.45346	 11.12085	705.29401	 23.40	
 18.690	-105.863	  9.01967	  2.23223	  5.79273	 -1.27740	 10.36979	 -0.48214	 11.14223	705.37097	 23.40	
 18.707	-111.165	  8.98749	  1.72136	  6.33913	 -1.14394	 10.15433	 -0.50973	 11.11217	705.44397	 23.40	
 18.698	-116.504	  9.00242	  1.27160	  6.89909	 -0.95956	  9.90725	 -0.52127	 11.12085	705.28601	 23.40	
 18.700	-121.794	  8.98050	  0.83592	  7.41134	 -0.75827	  9.59408	 -0.54118	 11.10245	705.37097	 23.40	
 18.713	-127.067	  8.99602	  0.44740	  7.91904	 -0.49944	  9.25430	 -0.55129	 11.11348	705.39001	 23.40	
 18.705	-132.343	  9.01570	  0.08597	  8.41320	 -0.20305	  8.87211	 -0.56205	 11.13278	705.26398	 23.40	
 18.699	-137.625	  9.04881	 -0.21169	  8.86005	  0.14061	  8.45037	 -0.57611	 11.14956	705.46802	 23.40	
 18.698	-142.952	  9.04074	 -0.49094	  9.24433	  0.50625	  7.96323	 -0.57499	 11.13311	705.29401	 23.40	
 18.704	-148.255	  9.05035	 -0.72247	  9.59574	  0.92537	  7.45282	 -0.57325	 11.12724	705.44397	 23.40	
 18.695	-153.537	  9.07885	 -0.91161	  9.90092	  1.37576	  6.92782	 -0.56758	 11.13275	705.37903	 23.40	
 18.706	-158.818	  9.08057	 -1.08585	 10.14202	  1.83452	  6.37915	 -0.56322	 11.12493	705.56500	 23.40	
 18.691	-164.085	  9.09822	 -1.20005	 10.32991	  2.33224	  5.81866	 -0.56264	 11.11796	705.41199	 23.40	
 18.703	-169.441	  9.11650	 -1.27525	 10.46408	  2.87172	  5.23434	 -0.56701	 11.10821	705.34698	 23.40	
 18.709	-174.675	  9.15472	 -1.31717	 10.56129	  3.40968	  4.68502	 -0.57040	 11.12611	705.31403	 23.40	
 18.700	180.000	  9.18404	 -1.31414	 10.58858	  3.98417	  4.11764	 -0.57835	 11.12212	705.29199	 23.40	
 20.400	180.000	  8.78904	 -1.91413	 10.78489	  3.69071	  3.79812	 -0.54796	 11.12473	705.33301	 23.30	
 20.401	-175.153	  8.76135	 -1.91716	 10.76880	  3.12821	  4.35106	 -0.53919	 11.13370	705.30798	 23.40	
 20.407	-170.264	  8.73372	 -1.88062	 10.69022	  2.58838	  4.91204	 -0.52736	 11.12786	705.22601	 23.30	
 20.410	-165.423	  8.70476	 -1.81734	 10.56930	  2.06331	  5.46933	 -0.52480	 11.13350	705.34198	 23.30	
 20.392	-160.496	  8.69039	 -1.71085	 10.39095	  1.56303	  6.04309	 -0.52878	 11.13385	705.38800	 23.40	
 20.401	-155.705	  8.67006	 -1.58713	 10.17403	  1.09616	  6.57708	 -0.52848	 11.13589	705.33301	 23.30	
 20.405	-150.835	  8.63047	 -1.42366	  9.88421	  0.63659	  7.10095	 -0.53890	 11.11816	705.39301	 23.30	
 20.397	-145.903	  8.61954	 -1.20601	  9.55196	  0.22829	  7.62080	 -0.54897	 11.11406	705.39301	 23.40	
 20.392	-141.062	  8.62082	 -0.96692	  9.20617	 -0.14946	  8.11972	 -0.55777	 11.13648	705.36401	 23.40	
 20.396	-136.227	  8.60549	 -0.69442	  8.79212	 -0.50445	  8.58466	 -0.55812	 11.13357	705.33301	 23.40	
 20.408	-131.372	  8.59738	 -0.39293	  8.35458	 -0.82462	  9.00941	 -0.55867	 11.13799	705.42401	 23.40	
 20.410	-126.511	  8.58201	 -0.03929	  7.86184	 -1.09182	  9.38177	 -0.55538	 11.11941	705.43201	 23.40	
 20.400	-121.604	  8.58025	  0.33926	  7.35264	 -1.33802	  9.73467	 -0.53989	 11.12076	705.36200	 23.40	
 20.403	-116.741	  8.57281	  0.75183	  6.81890	 -1.55175	 10.03156	 -0.52253	 11.11878	705.37097	 23.40	
 20.413	-111.900	  8.57337	  1.18302	  6.28776	 -1.72831	 10.29198	 -0.48942	 11.13301	705.26801	 23.40	
 20.398	-107.004	  8.58303	  1.67378	  5.71849	 -1.86240	 10.50200	 -0.45315	 11.13198	705.45502	 23.40	
 20.394	-102.132	  8.57861	  2.15161	  5.16335	 -1.96667	 10.64989	 -0.42346	 11.12876	705.46802	 23.40	
 20.403	-97.332	  8.57789	  2.67003	  4.58842	 -2.04109	 10.75454	 -0.38880	 11.12832	705.40900	 23.40	
 20.392	-92.440	  8.57022	  3.19789	  4.02769	 -2.07504	 10.79678	 -0.36994	 11.11841	705.49103	 23.40	
 20.392	-87.560	  8.57689	  3.75896	  3.46651	 -2.08559	 10.81642	 -0.35642	 11.12729	705.34698	 23.40	
 20.403	-82.668	  8.58082	  4.31571	  2.92153	 -2.05259	 10.77652	 -0.34791	 11.12346	705.47400	 23.40	
 20.394	-77.868	  8.58201	  4.85754	  2.41684	 -1.99740	 10.69604	 -0.33261	 11.11959	705.35101	 23.40	
 20.398	-72.996	  8.60148	  5.44054	  1.91441	 -1.90006	 10.57546	 -0.32318	 11.13359	705.35101	 23.40	
 20.413	-68.100	  8.59829	  6.00629	  1.43258	 -1.77273	 10.38665	 -0.32048	 11.12393	705.43701	 23.40	
 20.403	-63.259	  8.60079	  6.55449	  0.98037	 -1.59920	 10.14228	 -0.32311	 11.10725	705.35400	 23.40	
 20.400	-58.396	  8.62693	  7.10134	  0.56873	 -1.40400	  9.88137	 -0.33516	 11.12706	705.22601	 23.40	
 20.410	-53.489	  8.63260	  7.62661	  0.17153	 -1.17363	  9.55448	 -0.34273	 11.13059	705.33099	 23.40	
 20.408	-48.628	  8.64438	  8.11731	 -0.17885	 -0.90151	  9.18036	 -0.35137	 11.12859	705.46100	 23.40	
 20.396	-43.773	  8.65931	  8.58147	 -0.47358	 -0.58943	  8.76546	 -0.35197	 11.12277	705.50500	 23.40	
 20.392	-38.938	  8.66756	  8.99462	 -0.73938	 -0.24533	  8.31545	 -0.34794	 11.11876	705.37299	 23.40	
 20.397	-34.097	  8.69053	  9.40258	 -0.98329	  0.12659	  7.84872	 -0.35786	 11.13859	705.46100	 23.40	
 20.405	-29.165	  8.69828	  9.73540	 -1.18594	  0.53679	  7.32999	 -0.35559	 11.12873	705.48798	 23.40	
 20.401	-24.295	  8.71253	 10.03822	 -1.34261	  0.98935	  6.79070	 -0.36022	 11.12885	705.42102	 23.40	
 20.392	-19.504	  8.73273	 10.28149	 -1.45602	  1.45453	  6.25920	 -0.35063	 11.13521	705.51398	 23.40	
 20.410	-14.577	  8.73470	 10.47025	 -1.55206	  1.95040	  5.69316	 -0.34139	 11.13035	705.44702	 23.40	
 20.407	 -9.736	  8.72923	 10.58332	 -1.59921	  2.45755	  5.12572	 -0.33898	 11.10275	705.50500	 23.40	
 20.401	 -4.847	  8.75942	 10.69358	 -1.62135	  3.00822	  4.56562	 -0.32707	 11.12410	705.49701	 23.40	
 20.400	  0.000	  8.78339	 10.73676	 -1.60391	  3.56270	  4.02090	 -0.32454	 11.12979	705.36700	 23.40	
 20.401	  4.847	  8.78959	 10.72295	 -1.55909	  4.12919	  3.45967	 -0.31897	 11.12231	705.50000	 23.40	
 20.407	  9.736	  8.80121	 10.67528	 -1.49894	  4.69824	  2.93200	 -0.31646	 11.12957	705.39301	 23.40	
 20.410	 14.577	  8.81405	 10.57165	 -1.39805	  5.27144	  2.41360	 -0.32783	 11.12727	705.39502	 23.40	
 20.392	 19.504	  8.83022	 10.42315	 -1.26191	  5.85498	  1.91021	 -0.33016	 11.13634	705.50000	 23.40	
 20.401	 24.295	  8.83887	 10.22245	 -1.10925	  6.40072	  1.44830	 -0.34148	 11.13123	705.33099	 23.40	
 20.405	 29.165	  8.85196	  9.96822	 -0.91482	  6.95160	  0.99773	 -0.35960	 11.13577	705.46600	 23.40	
 20.397	 34.097	  8.85005	  9.64414	 -0.67691	  7.48149	  0.57660	 -0.37562	 11.12255	705.50299	 23.40	
 20.392	 38.938	  8.86564	  9.29789	 -0.40678	  7.98043	  0.19441	 -0.40412	 11.12556	705.43500	 23.40	
 20.396	 43.773	  8.88337	  8.91688	 -0.11988	  8.44471	 -0.14631	 -0.42684	 11.13601	705.40100	 23.40	
 20.408	 48.628	  8.86387	  8.46679	  0.19974	  8.87031	 -0.48051	 -0.45286	 11.11286	705.45801	 23.40	
 20.410	 53.489	  8.86953	  7.99685	  0.55451	  9.26899	 -0.76526	 -0.47620	 11.10967	705.43701	 23.40	
 20.400	 58.396	  8.88265	  7.50524	  0.94988	  9.63554	 -1.01762	 -0.48140	 11.12965	705.41302	 23.40	
 20.403	 63.259	  8.88329	  6.98770	  1.37206	  9.93297	 -1.23115	 -0.49240	 11.12720	705.45203	 23.40	
 20.413	 68.100	  8.90111	  6.45638	  1.84864	 10.19926	 -1.40088	 -0.49131	 11.13552	705.45099	 23.40	
 20.398	 72.996	  8.89684	  5.89705	  2.31421	 10.39506	 -1.53843	 -0.47098	 11.12446	705.39502	 23.40	
 20.394	 77.868	  8.90802	  5.33737	  2.80811	 10.56418	 -1.64472	 -0.45326	 11.14481	705.35400	 23.40	
 20.403	 82.668	  8.89501	  4.77208	  3.30380	 10.65556	 -1.72240	 -0.43276	 11.13232	705.50500	 23.40	
 20.392	 87.560	  8.87663	  4.20112	  3.81481	 10.69414	 -1.76197	 -0.40039	 11.11076	705.30298	 23.40	
 20.392	 92.440	  8.90398	  3.65458	  4.36615	 10.72320	 -1.76247	 -0.38817	 11.14027	705.40100	 23.40	
 20.403	 97.332	  8.88386	  3.09018	  4.90540	 10.66837	 -1.74169	 -0.38615	 11.12346	705.37903	 23.40	
 20.394	102.132	  8.88551	  2.56761	  5.44388	 10.57685	 -1.67835	 -0.39257	 11.12581	705.35699	 23.40	
 20.398	107.004	  8.89456	  2.05981	  5.98931	 10.43946	 -1.57661	 -0.41002	 11.13402	705.39801	 23.40	
 20.413	111.900	  8.89502	  1.56932	  6.52341	 10.24673	 -1.45305	 -0.42957	 11.13005	705.44702	 23.40	
 20.403	116.741	  8.86968	  1.10508	  7.01681	  9.97910	 -1.29484	 -0.45087	 11.10055	705.42603	 23.40	
 20.400	121.604	  8.89179	  0.66133	  7.53418	  9.71179	 -1.10408	 -0.46975	 11.12947	705.40198	 23.40	
 20.410	126.511	  8.89682	  0.25037	  8.02534	  9.36574	 -0.86336	 -0.49575	 11.13436	705.44702	 23.40	
 20.408	131.372	  8.88856	 -0.11297	  8.47318	  8.96701	 -0.59153	 -0.51956	 11.11387	705.40997	 23.40	
 20.396	136.227	  8.91393	 -0.44082	  8.91589	  8.55031	 -0.27364	 -0.54756	 11.13550	705.31702	 23.40	
 20.392	141.062	  8.90943	 -0.74596	  9.30005	  8.08702	  0.05641	 -0.56527	 11.13054	705.44897	 23.40	
 20.397	145.903	  8.91092	 -1.01181	  9.65104	  7.59676	  0.42264	 -0.57797	 11.13287	705.33698	 23.40	
 20.405	150.835	  8.90405	 -1.25160	  9.96429	  7.06303	  0.83263	 -0.58550	 11.12861	705.40198	 23.40	
 20.401	155.705	  8.89196	 -1.44150	 10.22026	  6.51391	  1.27436	 -0.57989	 11.12193	705.42700	 23.40	
 20.392	160.496	  8.88263	 -1.59894	 10.43135	  5.97409	  1.72012	 -0.57885	 11.12845	705.40601	 23.40	
 20.410	165.423	  8.86604	 -1.73430	 10.60177	  5.39691	  2.21151	 -0.57249	 11.13329	705.46600	 23.40	
 20.407	170.264	  8.84099	 -1.82397	 10.70464	  4.81771	  2.73022	 -0.56317	 11.12189	705.44397	 23.40	
 20.401	175.153	  8.82759	 -1.87756	 10.77285	  4.25868	  3.25844	 -0.55262	 11.13191	705.45801	 23.40	
  0.141	 45.000	 11.11638	  5.79128	  5.99107	  5.73487	  5.96064	  0.07437	 11.10859	705.43701	 23.40	
  4.001	128.691	 11.11994	  4.91369	  6.79918	  6.69996	  4.89863	  0.04080	 11.13627	705.28802	 23.40	
  4.002	 76.995	 11.11311	  6.02374	  5.70188	  6.93508	  4.69898	  0.03063	 11.12342	705.45697	 23.40	
  4.002	 25.892	 11.09570	  6.91028	  4.84129	  6.20441	  5.35477	  0.02627	 11.11179	705.45801	 23.40	
  4.002	-25.892	 11.09614	  6.89117	  4.78167	  5.03292	  6.51426	  0.01173	 11.12668	705.33301	 23.40	
  4.002	-76.995	 11.08649	  5.93057	  5.58855	  4.35687	  7.23957	 -0.00343	 11.13099	705.39801	 23.40	
  4.001	-128.691	 11.08333	  4.81641	  6.73271	  4.60977	  6.94455	  0.01659	 11.12612	705.40601	 23.40	
  4.000	180.000	 11.09366	  4.39906	  7.26014	  5.60343	  5.89715	  0.02701	 11.11870	705.37903	 23.40	
  8.000	180.000	 10.88406	  2.83326	  8.45175	  5.36473	  5.60977	 -0.12840	 11.14307	705.35901	 23.40	
  7.991	-152.370	 10.83306	  3.05428	  8.08138	  4.10977	  6.88420	 -0.13309	 11.12583	705.28003	 23.40	
  7.997	-124.550	 10.83196	  3.83314	  7.15924	  3.17531	  7.93804	 -0.14615	 11.14460	705.31702	 23.40	
  8.006	-96.837	 10.80833	  4.98847	  5.89784	  2.74134	  8.43209	 -0.19049	 11.12153	705.50500	 23.40	
  7.988	-69.228	 10.82619	  6.31341	  4.64030	  2.88604	  8.29738	 -0.20094	 11.12943	705.46600	 23.40	
  7.997	-41.563	 10.82621	  7.45825	  3.66470	  3.55281	  7.52774	 -0.18344	 11.11759	705.33398	 23.40	
  8.008	-13.821	 10.84895	  8.14380	  3.17553	  4.65996	  6.34501	 -0.15324	 11.11708	705.36401	 23.40	
  8.008	 13.821	 10.89638	  8.19212	  3.25405	  5.98680	  5.05394	 -0.14306	 11.13039	705.36499	 23.40	
  7.997	 41.563	 10.92814	  7.59212	  3.83492	  7.20954	  3.95085	 -0.12134	 11.13911	705.43201	 23.40	
  7.988	 69.228	 10.93928	  6.47997	  4.84880	  8.01391	  3.26739	 -0.11079	 11.13696	705.48901	 23.40	
  8.006	 96.837	 10.93748	  5.18666	  6.08418	  8.19157	  3.10642	 -0.13017	 11.13113	705.47400	 23.40	
  7.997	124.550	 10.91438	  3.98883	  7.28001	  7.70240	  3.47942	 -0.13033	 11.11808	705.53601	 23.40	
  7.991	152.370	 10.91288	  3.17264	  8.15253	  6.66394	  4.38588	 -0.11107	 11.13068	705.48798	 23.40	
 12.009	161.059	 10.45543	  1.45962	  9.22364	  6.32207	  3.88667	 -0.31496	 11.12022	705.41302	 23.40	
 12.013	142.081	 10.48513	  2.02920	  8.60957	  7.58709	  2.78436	 -0.32353	 11.13625	705.41998	 23.40	
 12.006	123.113	 10.49404	  2.96908	  7.59327	  8.54788	  2.00249	 -0.35532	 11.12079	705.37097	 23.40	
 12.007	104.200	 10.50016	  4.14289	  6.36650	  9.12883	  1.54779	 -0.37209	 11.12495	705.45801	 23.40	
 11.989	 85.301	 10.52064	  5.48611	  5.06129	  9.23917	  1.48158	 -0.36141	 11.13909	705.42401	 23.40	
 12.013	 66.294	 10.51105	  6.81960	  3.82642	  8.87883	  1.76655	 -0.30600	 11.14121	705.46802	 23.40	
 12.012	 47.388	 10.47723	  7.97688	  2.78680	  8.04477	  2.44354	 -0.30841	 11.11529	705.54199	 23.40	
 11.990	 28.440	 10.47949	  8.83087	  2.04763	  6.92821	  3.42607	 -0.33860	 11.14211	705.48901	 23.40	
 11.991	  9.464	 10.44282	  9.24961	  1.62768	  5.59382	  4.63623	 -0.36438	 11.13274	705.41199	 23.40	
 11.991	 -9.464	 10.41140	  9.20591	  1.56421	  4.23330	  5.97645	 -0.34971	 11.13387	705.45801	 23.40	
 11.990	-28.440	 10.38135	  8.71126	  1.86629	  3.01167	  7.27442	 -0.35593	 11.13206	705.44397	 23.40	
 12.012	-47.388	 10.34244	  7.79171	  2.53689	  2.03052	  8.36867	 -0.38129	 11.12260	705.45203	 23.40	
 12.013	-66.294	 10.31399	  6.56457	  3.54140	  1.37762	  9.12309	 -0.41507	 11.11533	705.38202	 23.40	
 11.989	-85.301	 10.31482	  5.21432	  4.78864	  1.12255	  9.44373	 -0.42287	 11.12399	705.49103	 23.40	
 12.007	-104.200	 10.31304	  3.89659	  6.12497	  1.21278	  9.31198	 -0.39532	 11.12722	705.47998	 23.40	
 12.006	-123.113	 10.32389	  2.74848	  7.41267	  1.68755	  8.73423	 -0.34456	 11.13282	705.42603	 23.40	
 12.013	-142.081	 10.34661	  1.89089	  8.47238	  2.52514	  7.75722	 -0.34428	 11.13548	705.46600	 23.40	
 12.009	-161.059	 10.36897	  1.36979	  9.16455	  3.65347	  6.50700	 -0.35287	 11.12069	705.54999	 23.40	
 16.000	180.000	  9.75154	 -0.33707	 10.20344	  4.41725	  4.58852	 -0.54242	 11.13084	705.59003	 23.40	
 15.990	-165.604	  9.69085	 -0.24450	 10.00329	  3.10581	  5.92576	 -0.54605	 11.12271	705.44098	 23.40	
 16.002	-151.165	  9.64671	  0.10632	  9.46959	  1.92792	  7.22339	 -0.53979	 11.12253	705.37000	 23.40	
 16.002	-136.836	  9.62121	  0.71348	  8.62920	  0.94178	  8.39332	 -0.51383	 11.13592	705.48798	 23.40	
 15.995	-122.439	  9.60143	  1.58982	  7.50923	  0.21986	  9.31042	 -0.48756	 11.12926	705.42401	 23.40	
 15.993	-107.966	  9.58839	  2.69271	  6.21101	 -0.26408	  9.93455	 -0.50030	 11.12155	705.22400	 23.40	
 16.005	-93.629	  9.59251	  3.94243	  4.86955	 -0.47702	 10.22547	 -0.47646	 11.12815	705.34998	 23.40	
 15.992	-79.234	  9.60378	  5.28818	  3.56322	 -0.42400	 10.16173	 -0.43849	 11.12947	705.39301	 23.40	
 16.009	-64.774	  9.61435	  6.63921	  2.36405	 -0.10268	  9.75627	 -0.41630	 11.12857	705.47699	 23.40	
 15.997	-50.364	  9.64830	  7.88160	  1.39007	  0.49559	  9.02301	 -0.42158	 11.13737	705.40100	 23.40	
 15.997	-36.045	  9.65359	  8.88595	  0.64346	  1.33846	  7.98714	 -0.42206	 11.11318	705.45099	 23.40	
 16.000	-21.597	  9.70201	  9.65130	  0.17007	  2.40986	  6.76872	 -0.41736	 11.13460	705.45697	 23.40	
 16.003	 -7.169	  9.73996	 10.04974	 -0.02442	  3.67423	  5.42879	 -0.40927	 11.13515	705.46002	 23.40	
 16.003	  7.169	  9.76065	 10.08479	  0.03890	  5.00740	  4.09131	 -0.41579	 11.12638	705.49902	 23.40	
 16.000	 21.597	  9.79920	  9.78544	  0.34397	  6.37477	  2.85197	 -0.42899	 11.14137	705.53003	 23.40	
 15.997	 36.045	  9.82852	  9.13230	  0.90754	  7.64321	  1.78151	 -0.44822	 11.14033	705.62097	 23.40	
 15.997	 50.364	  9.83909	  8.16692	  1.69630	  8.70912	  0.91384	 -0.44172	 11.13219	705.46600	 23.40	
 16.009	 64.774	  9.84286	  6.97586	  2.69109	  9.50427	  0.29239	 -0.45285	 11.12474	705.42102	 23.50	
 15.992	 79.234	  9.85608	  5.65237	  3.90634	  9.97465	 -0.05954	 -0.50371	 11.12965	705.53400	 23.40	
 16.005	 93.629	  9.84641	  4.29929	  5.17269	 10.07719	 -0.14893	 -0.50317	 11.12966	705.50598	 23.40	
 15.993	107.966	  9.84626	  3.01486	  6.47149	  9.81001	  0.05647	 -0.50065	 11.12620	705.49902	 23.40	
 15.995	122.439	  9.86032	  1.87537	  7.71420	  9.21634	  0.50222	 -0.51016	 11.14704	705.58398	 23.40	
 16.002	136.836	  9.83562	  0.93701	  8.75245	  8.27681	  1.19849	 -0.50298	 11.12146	705.49701	 23.40	
 16.002	151.165	  9.85329	  0.25604	  9.58000	  7.12952	  2.15348	 -0.49473	 11.15109	705.51898	 23.40	
 15.990	165.604	  9.80791	 -0.16448	 10.05261	  5.79132	  3.30684	 -0.51017	 11.12794	705.47998	 23.50	
 20.003	168.362	  8.95905	 -1.65066	 10.64316	  5.10171	  2.63025	 -0.57596	 11.13837	705.53101	 23.50	
 20.008	156.764	  8.99923	 -1.35100	 10.25944	  6.43860	  1.47978	 -0.58475	 11.14940	705.51099	 23.40	
 20.000	145.147	  8.98598	 -0.84695	  9.56628	  7.66472	  0.48523	 -0.57442	 11.11651	705.46503	 23.50	
 19.995	133.545	  8.98934	 -0.14235	  8.66959	  8.75984	 -0.32278	 -0.53237	 11.11741	705.41602	 23.40	
 20.009	121.926	  8.99158	  0.74025	  7.59828	  9.65969	 -0.94982	 -0.47069	 11.13324	705.46002	 23.50	
 20.005	110.327	  9.00126	  1.81592	  6.40129	 10.28727	 -1.36287	 -0.42787	 11.14616	705.47699	 23.40	
 19.989	 98.733	  8.98863	  3.02284	  5.12848	 10.59524	 -1.57068	 -0.39923	 11.12266	705.50800	 23.40	
 19.999	 87.075	  8.99433	  4.33220	  3.86146	 10.65914	 -1.60982	 -0.42495	 11.12786	705.49597	 23.40	
 19.992	 75.457	  9.00801	  5.65775	  2.67421	 10.44196	 -1.44372	 -0.47468	 11.13478	705.59198	 23.40	
 20.009	 63.844	  8.99494	  6.94315	  1.57442	  9.93173	 -1.09374	 -0.48928	 11.12419	705.60101	 23.40	
 19.989	 52.269	  8.99047	  8.13188	  0.60082	  9.15525	 -0.53632	 -0.46665	 11.12928	705.53699	 23.40	
 19.999	 40.602	  8.97491	  9.14835	 -0.17111	  8.13540	  0.21422	 -0.41764	 11.12462	705.64398	 23.40	
 20.004	 29.051	  8.94896	  9.92556	 -0.76784	  6.95408	  1.13743	 -0.36658	 11.12687	705.45203	 23.40	
 20.005	 17.433	  8.92137	 10.44749	 -1.18483	  5.65860	  2.21485	 -0.34074	 11.13302	705.51099	 23.40	
 20.006	  5.780	  8.89133	 10.67090	 -1.40535	  4.31144	  3.43719	 -0.32922	 11.12366	705.46600	 23.40	
 20.006	 -5.780	  8.86866	 10.64719	 -1.47853	  3.00059	  4.73462	 -0.33778	 11.13575	705.44397	 23.40	
 20.005	-17.433	  8.83283	 10.33090	 -1.36300	  1.75827	  6.06731	 -0.35166	 11.13723	705.53699	 23.40	
 20.004	-29.051	  8.80638	  9.72338	 -1.04806	  0.67103	  7.33509	 -0.36515	 11.13501	705.55103	 23.40	
 19.999	-40.602	  8.76199	  8.84946	 -0.52030	 -0.22801	  8.45331	 -0.36436	 11.11489	705.65698	 23.40	
 19.989	-52.269	  8.73792	  7.76205	  0.21721	 -0.96137	  9.42881	 -0.34577	 11.12185	705.59003	 23.40	
 20.009	-63.844	  8.72147	  6.54485	  1.14737	 -1.47385	 10.15185	 -0.32374	 11.12825	705.49200	 23.40	
 19.992	-75.457	  8.70872	  5.23301	  2.26306	 -1.78974	 10.59809	 -0.32175	 11.13072	705.53400	 23.40	
 19.999	-87.075	  8.69840	  3.89226	  3.50511	 -1.91799	 10.76874	 -0.35595	 11.13015	705.53101	 23.40	
 19.989	-98.733	  8.69646	  2.62662	  4.82634	 -1.85973	 10.69072	 -0.40584	 11.13638	705.56097	 23.40	
 20.005	-110.327	  8.67962	  1.45548	  6.14173	 -1.62124	 10.32136	 -0.47704	 11.12303	705.56201	 23.40	
 20.009	-121.926	  8.68000	  0.44276	  7.39118	 -1.18472	  9.68737	 -0.53582	 11.11813	705.54999	 23.40	
 19.995	-133.545	  8.71874	 -0.39591	  8.55542	 -0.54979	  8.82980	 -0.55740	 11.14986	705.63800	 23.40	
 20.000	-145.147	  8.73187	 -1.01895	  9.47562	  0.28784	  7.72725	 -0.55354	 11.12738	705.50800	 23.40	
 20.008	-156.764	  8.77211	 -1.47148	 10.18246	  1.30712	  6.50062	 -0.53395	 11.13270	705.58099	 23.40	
 20.003	-168.362	  8.82807	 -1.71003	 10.60499	  2.48619	  5.18957	 -0.53229	 11.13089	705.62097	 23.40	
 20.000	180.000	  8.89953	 -1.77605	 10.76235	  3.76043	  3.88596	 -0.55597	 11.14524	705.56097	 23.40	
