FileType=PCF
NHL=14
Date=08/31/17	11:45:35
Facility=APL
Serial=16328-11
Customer=NASA
NP=6
Mach=0.100000
Calibration=1:1
CalPts=490
TstPts=95
PortNumbering=AP Standard
Units=Torr C m/s kg/m^3 deg mm 
Theta[deg]	Phi[deg]	P1[Torr]	P2[Torr]	P3[Torr]	P4[Torr]	P5[Torr]	P6[Torr]	Pt[Torr]	Ps[Abs,Torr]	Ts[C]	
  0.000	  0.000	  5.06461	  2.65522	  2.77005	  2.62741	  2.76705	  0.03547	  5.06319	705.51898	 23.60	
  1.691	128.401	  5.05889	  2.51446	  2.88860	  2.80461	  2.56549	  0.03324	  5.05774	705.57800	 23.60	
  1.692	 77.194	  5.07077	  2.71482	  2.72143	  2.87071	  2.52725	  0.03343	  5.06948	705.52197	 23.60	
  1.699	 26.182	  5.05673	  2.86782	  2.55257	  2.72582	  2.65255	  0.03070	  5.05445	705.51898	 23.60	
  1.699	-26.182	  5.07077	  2.86039	  2.54656	  2.52107	  2.85438	  0.02424	  5.07241	705.57800	 23.60	
  1.692	-77.194	  5.06722	  2.69150	  2.68862	  2.39504	  2.98066	  0.02349	  5.06804	705.62402	 23.60	
  1.691	-128.401	  5.07073	  2.49270	  2.89984	  2.44271	  2.93158	  0.02619	  5.07270	705.75000	 23.60	
  1.700	180.000	  5.07138	  2.41812	  2.98673	  2.60922	  2.76301	  0.03019	  5.07054	705.53601	 23.60	
  3.400	180.000	  5.05945	  2.13747	  3.23273	  2.58562	  2.71596	  0.01576	  5.06713	705.58600	 23.60	
  3.388	-152.325	  5.05397	  2.17567	  3.16303	  2.35260	  2.95032	  0.01408	  5.06679	705.56500	 23.60	
  3.397	-124.529	  5.04846	  2.31813	  2.98831	  2.18053	  3.13655	  0.00917	  5.06154	705.60303	 23.60	
  3.399	-96.763	  5.04824	  2.53299	  2.75894	  2.10571	  3.22722	  0.00596	  5.06332	705.59302	 23.60	
  3.394	-69.283	  5.04685	  2.77045	  2.52616	  2.12915	  3.20033	  0.00246	  5.06077	705.69098	 23.60	
  3.400	-41.398	  5.05221	  2.98613	  2.34884	  2.25714	  3.06253	  0.00566	  5.06215	705.63800	 23.60	
  3.401	-14.021	  5.06435	  3.11340	  2.26641	  2.46567	  2.85525	  0.00736	  5.07642	705.70599	 23.60	
  3.401	 14.021	  5.06015	  3.11390	  2.28731	  2.70044	  2.61606	  0.01127	  5.06648	705.52197	 23.60	
  3.400	 41.398	  5.07160	  3.01694	  2.40254	  2.93215	  2.42230	  0.01670	  5.07349	705.59003	 23.60	
  3.394	 69.283	  5.05978	  2.80917	  2.57872	  3.05653	  2.29643	  0.01786	  5.06223	705.57501	 23.60	
  3.399	 96.763	  5.06668	  2.58325	  2.80515	  3.09407	  2.26670	  0.01914	  5.06974	705.61298	 23.50	
  3.397	124.529	  5.07008	  2.36559	  3.02361	  3.01350	  2.33422	  0.01992	  5.07117	705.52802	 23.50	
  3.388	152.325	  5.06039	  2.20637	  3.17277	  2.82813	  2.48473	  0.01870	  5.06833	705.45203	 23.50	
  5.099	161.165	  5.04146	  1.89662	  3.43345	  2.80648	  2.43078	 -0.00119	  5.06763	705.46802	 23.50	
  5.109	142.013	  5.04892	  2.01250	  3.31922	  3.03963	  2.22365	  0.00177	  5.07061	705.51898	 23.50	
  5.095	123.033	  5.05289	  2.19132	  3.13234	  3.22232	  2.07037	  0.00078	  5.07065	705.42902	 23.50	
  5.105	104.191	  5.05636	  2.41716	  2.90529	  3.32675	  1.99063	 -0.00098	  5.07561	705.56500	 23.50	
  5.093	 85.207	  5.05590	  2.66745	  2.66066	  3.34496	  1.97767	 -0.00161	  5.07076	705.63800	 23.50	
  5.104	 66.290	  5.06171	  2.92267	  2.42934	  3.27978	  2.03568	 -0.00069	  5.07713	705.62903	 23.50	
  5.094	 47.331	  5.04844	  3.13161	  2.22522	  3.12160	  2.16306	 -0.00075	  5.06758	705.73401	 23.50	
  5.089	 28.397	  5.05144	  3.28748	  2.08451	  2.91804	  2.34958	 -0.00201	  5.07601	705.68500	 23.50	
  5.096	  9.576	  5.04452	  3.37075	  1.99362	  2.67320	  2.57739	 -0.00798	  5.07194	705.63202	 23.50	
  5.096	 -9.576	  5.04304	  3.36486	  1.97935	  2.41416	  2.83644	 -0.01167	  5.07593	705.52197	 23.50	
  5.089	-28.397	  5.03061	  3.26278	  2.03957	  2.18526	  3.06638	 -0.01579	  5.06816	705.56702	 23.60	
  5.094	-47.331	  5.02741	  3.09560	  2.17060	  1.99461	  3.27508	 -0.01967	  5.06898	705.62402	 23.60	
  5.104	-66.290	  5.02746	  2.87154	  2.36210	  1.86554	  3.42161	 -0.01981	  5.07019	705.55902	 23.60	
  5.093	-85.207	  5.02653	  2.61923	  2.59463	  1.80735	  3.48392	 -0.02233	  5.07119	705.54700	 23.60	
  5.105	-104.191	  5.01644	  2.35932	  2.84607	  1.81736	  3.45546	 -0.01692	  5.06107	705.52802	 23.60	
  5.095	-123.033	  5.03258	  2.14732	  3.09210	  1.92411	  3.34703	 -0.00921	  5.07467	705.47400	 23.60	
  5.109	-142.013	  5.03607	  1.97912	  3.29200	  2.08761	  3.16731	 -0.00656	  5.08039	705.54999	 23.60	
  5.099	-161.165	  5.03294	  1.86912	  3.42335	  2.30515	  2.92680	 -0.00113	  5.07019	705.69897	 23.60	
  5.100	180.000	  5.03689	  1.84755	  3.47171	  2.55112	  2.67568	 -0.00163	  5.06864	705.45697	 23.60	
  6.800	180.000	  5.00002	  1.54454	  3.70314	  2.50092	  2.62696	 -0.02853	  5.07414	705.57001	 23.60	
  6.796	-166.229	  4.97922	  1.55256	  3.65704	  2.25195	  2.86571	 -0.02904	  5.06006	705.60999	 23.60	
  6.808	-152.311	  4.98708	  1.63407	  3.56491	  2.02649	  3.11367	 -0.03427	  5.07650	705.58197	 23.60	
  6.795	-138.383	  4.97992	  1.75131	  3.40721	  1.81942	  3.33566	 -0.03868	  5.07049	705.61499	 23.60	
  6.792	-124.591	  4.96973	  1.92013	  3.20153	  1.66307	  3.50778	 -0.03962	  5.06250	705.63000	 23.60	
  6.787	-110.754	  4.96126	  2.12701	  2.96626	  1.55160	  3.63011	 -0.04551	  5.05738	705.63702	 23.60	
  6.800	-96.985	  4.97361	  2.36635	  2.72941	  1.50328	  3.70745	 -0.05610	  5.07057	705.62903	 23.60	
  6.800	-83.015	  4.97238	  2.62133	  2.47618	  1.50003	  3.70989	 -0.05921	  5.06829	705.68500	 23.60	
  6.787	-69.246	  4.97038	  2.86877	  2.24166	  1.55075	  3.64969	 -0.05517	  5.06172	705.48798	 23.60	
  6.792	-55.409	  4.97964	  3.10709	  2.04123	  1.66095	  3.53411	 -0.05605	  5.06893	705.57001	 23.60	
  6.795	-41.617	  4.98116	  3.31045	  1.87652	  1.81584	  3.36137	 -0.05407	  5.06860	705.74200	 23.60	
  6.808	-27.689	  4.97809	  3.46514	  1.75595	  2.00839	  3.14362	 -0.04576	  5.05951	705.67999	 23.60	
  6.796	-13.771	  4.99589	  3.57512	  1.69426	  2.24221	  2.91236	 -0.04017	  5.07364	705.47498	 23.60	
  6.800	  0.000	  5.00027	  3.61716	  1.67713	  2.48721	  2.66184	 -0.04154	  5.07352	705.58698	 23.60	
  6.796	 13.771	  5.00894	  3.59510	  1.71756	  2.74231	  2.41814	 -0.03549	  5.07475	705.72803	 23.60	
  6.808	 27.689	  5.00613	  3.50425	  1.80140	  2.97750	  2.19083	 -0.03195	  5.06616	705.66498	 23.60	
  6.795	 41.617	  5.01732	  3.35776	  1.94469	  3.20726	  1.99634	 -0.02985	  5.07719	705.71600	 23.60	
  6.792	 55.409	  5.01800	  3.16313	  2.11903	  3.38663	  1.83847	 -0.02568	  5.07336	705.62097	 23.60	
  6.787	 69.246	  5.02103	  2.93675	  2.32929	  3.51669	  1.72905	 -0.02455	  5.07306	705.66199	 23.60	
  6.800	 83.015	  5.01680	  2.68884	  2.55733	  3.57858	  1.67410	 -0.02832	  5.06755	705.65399	 23.60	
  6.800	 96.985	  5.01877	  2.43527	  2.80516	  3.57972	  1.67521	 -0.02980	  5.06838	705.74799	 23.60	
  6.787	110.754	  5.01308	  2.20003	  3.03881	  3.50890	  1.72475	 -0.02769	  5.06309	705.73602	 23.60	
  6.792	124.591	  5.01198	  1.99017	  3.25607	  3.39319	  1.82044	 -0.02674	  5.06680	705.67102	 23.60	
  6.795	138.383	  5.00580	  1.80941	  3.44225	  3.21589	  1.96718	 -0.02531	  5.06441	705.58197	 23.60	
  6.808	152.311	  4.99830	  1.66547	  3.58688	  2.99632	  2.15107	 -0.02319	  5.06063	705.63800	 23.60	
  6.796	166.229	  4.99338	  1.57786	  3.67285	  2.75349	  2.37471	 -0.02732	  5.06035	705.60699	 23.60	
  8.491	168.704	  4.94217	  1.27129	  3.89164	  2.70851	  2.30385	 -0.06462	  5.07021	705.70801	 23.60	
  8.502	157.493	  4.94697	  1.33861	  3.82582	  2.96058	  2.06916	 -0.05974	  5.07017	705.64099	 23.60	
  8.494	146.194	  4.95339	  1.45531	  3.70153	  3.19732	  1.86295	 -0.06099	  5.06791	705.56799	 23.60	
  8.495	135.039	  4.95097	  1.60756	  3.53764	  3.40066	  1.68215	 -0.06471	  5.06351	705.63202	 23.60	
  8.487	123.723	  4.96231	  1.80076	  3.34280	  3.58160	  1.53868	 -0.06750	  5.07245	705.61499	 23.60	
  8.492	112.575	  4.96070	  2.01684	  3.11579	  3.70663	  1.43744	 -0.06731	  5.06501	705.59003	 23.60	
  8.510	101.220	  4.96392	  2.25475	  2.87699	  3.78269	  1.37956	 -0.06665	  5.06581	705.62903	 23.60	
  8.500	 90.000	  4.96990	  2.50984	  2.62880	  3.81451	  1.35953	 -0.07098	  5.07387	705.57599	 23.60	
  8.510	 78.780	  4.95969	  2.76202	  2.37928	  3.78057	  1.38211	 -0.06652	  5.06550	705.59900	 23.60	
  8.492	 67.425	  4.95704	  3.01504	  2.14024	  3.69731	  1.44368	 -0.05923	  5.06371	705.63202	 23.60	
  8.487	 56.277	  4.95889	  3.24900	  1.93243	  3.56661	  1.55652	 -0.05841	  5.06519	705.57501	 23.60	
  8.495	 44.961	  4.96150	  3.46019	  1.74829	  3.39205	  1.71243	 -0.06447	  5.07226	705.63702	 23.60	
  8.494	 33.806	  4.95042	  3.62411	  1.59623	  3.17309	  1.89551	 -0.06495	  5.06631	705.65399	 23.60	
  8.502	 22.507	  4.94210	  3.74563	  1.47634	  2.93517	  2.10802	 -0.06827	  5.06404	705.74200	 23.60	
  8.491	 11.296	  4.93965	  3.81755	  1.40326	  2.67806	  2.34743	 -0.07594	  5.06763	705.79303	 23.60	
  8.500	  0.000	  4.94491	  3.84502	  1.37405	  2.42216	  2.60807	 -0.08009	  5.07732	705.65198	 23.60	
  8.491	-11.296	  4.92732	  3.80188	  1.37819	  2.16562	  2.85548	 -0.07892	  5.06905	705.65698	 23.60	
  8.502	-22.507	  4.92169	  3.71467	  1.43049	  1.92295	  3.11007	 -0.08004	  5.06783	705.69598	 23.60	
  8.494	-33.806	  4.90824	  3.57331	  1.52328	  1.70989	  3.33204	 -0.08590	  5.06271	705.63800	 23.60	
  8.495	-44.961	  4.91263	  3.39678	  1.66432	  1.52612	  3.54442	 -0.09517	  5.07203	705.67200	 23.60	
  8.487	-56.277	  4.90671	  3.18120	  1.83868	  1.37604	  3.71146	 -0.09735	  5.06800	705.71997	 23.60	
  8.492	-67.425	  4.90515	  2.94250	  2.04619	  1.27279	  3.82868	 -0.09663	  5.06612	705.72400	 23.60	
  8.510	-78.780	  4.90417	  2.68411	  2.28054	  1.20245	  3.90975	 -0.10119	  5.06860	705.62097	 23.60	
  8.500	-90.000	  4.90225	  2.42595	  2.52972	  1.18144	  3.93057	 -0.09981	  5.06506	705.62299	 23.60	
  8.510	-101.220	  4.90323	  2.16945	  2.78881	  1.20144	  3.90578	 -0.09323	  5.07063	705.68597	 23.60	
  8.492	-112.575	  4.90630	  1.93303	  3.04198	  1.27186	  3.82165	 -0.08139	  5.07509	705.81201	 23.60	
  8.487	-123.723	  4.90466	  1.72407	  3.27391	  1.38961	  3.68272	 -0.07561	  5.06777	705.72400	 23.70	
  8.495	-135.039	  4.91091	  1.54506	  3.48871	  1.53602	  3.51807	 -0.07572	  5.07411	705.77301	 23.70	
  8.494	-146.194	  4.91380	  1.40680	  3.66010	  1.72688	  3.30159	 -0.07272	  5.07039	705.76501	 23.70	
  8.502	-157.493	  4.91064	  1.30351	  3.78954	  1.94286	  3.05651	 -0.06671	  5.05909	705.64099	 23.70	
  8.491	-168.704	  4.92187	  1.24621	  3.87631	  2.18180	  2.81118	 -0.06526	  5.06301	705.64899	 23.70	
  8.500	180.000	  4.93225	  1.22908	  3.91720	  2.43968	  2.55856	 -0.06850	  5.06835	705.65399	 23.70	
 10.200	180.000	  4.84933	  0.92363	  4.11028	  2.36891	  2.47682	 -0.10974	  5.06922	705.74799	 23.60	
 10.191	-170.497	  4.84063	  0.93048	  4.08381	  2.10474	  2.73646	 -0.10894	  5.06526	705.74402	 23.60	
 10.210	-161.034	  4.83849	  0.97768	  4.01402	  1.86285	  2.99719	 -0.10673	  5.07452	705.70001	 23.60	
 10.194	-151.526	  4.82512	  1.06097	  3.89318	  1.62902	  3.24158	 -0.11171	  5.06909	705.74200	 23.60	
 10.190	-142.105	  4.82539	  1.18143	  3.74108	  1.42691	  3.47374	 -0.11443	  5.07275	705.78699	 23.60	
 10.215	-132.646	  4.81603	  1.33099	  3.54977	  1.24723	  3.67390	 -0.11462	  5.06753	705.72400	 23.60	
 10.203	-123.092	  4.81447	  1.51578	  3.33057	  1.10234	  3.84534	 -0.11455	  5.06837	705.75897	 23.60	
 10.192	-113.678	  4.81993	  1.73133	  3.09417	  0.99568	  3.98317	 -0.12101	  5.07644	705.67999	 23.60	
 10.208	-104.249	  4.81706	  1.96068	  2.84286	  0.91240	  4.07800	 -0.13528	  5.07588	705.66498	 23.70	
 10.210	-94.801	  4.81222	  2.20596	  2.58257	  0.87178	  4.12494	 -0.14413	  5.07059	705.75500	 23.70	
 10.210	-85.199	  4.80533	  2.46948	  2.31444	  0.86709	  4.12486	 -0.14609	  5.06446	705.78101	 23.70	
 10.208	-75.751	  4.82243	  2.73979	  2.07509	  0.90833	  4.09841	 -0.14699	  5.07877	705.83099	 23.70	
 10.192	-66.322	  4.81720	  2.99300	  1.84214	  0.98238	  4.00549	 -0.13909	  5.07037	705.88300	 23.70	
 10.203	-56.908	  4.81749	  3.23240	  1.63638	  1.09076	  3.87574	 -0.13664	  5.06611	705.71100	 23.70	
 10.215	-47.354	  4.83709	  3.47442	  1.45270	  1.23376	  3.72618	 -0.13605	  5.08362	705.81799	 23.70	
 10.190	-37.895	  4.82702	  3.65188	  1.30624	  1.40642	  3.51621	 -0.12920	  5.06768	705.78601	 23.70	
 10.194	-28.474	  4.84213	  3.82300	  1.19045	  1.60587	  3.30034	 -0.12159	  5.07699	705.84601	 23.70	
 10.210	-18.966	  4.85007	  3.94058	  1.11556	  1.83658	  3.05642	 -0.11520	  5.07678	705.87598	 23.70	
 10.191	 -9.503	  4.84769	  4.01014	  1.07136	  2.08637	  2.79086	 -0.11528	  5.06932	705.82703	 23.70	
 10.200	  0.000	  4.86701	  4.04936	  1.06863	  2.34695	  2.53951	 -0.11939	  5.07927	705.74402	 23.70	
 10.191	  9.503	  4.85844	  4.02875	  1.09071	  2.60781	  2.27105	 -0.11970	  5.06852	705.67700	 23.70	
 10.210	 18.966	  4.86752	  3.96906	  1.15911	  2.87294	  2.02642	 -0.10939	  5.06978	705.75800	 23.70	
 10.194	 28.474	  4.86906	  3.86268	  1.25596	  3.12016	  1.80186	 -0.10829	  5.06777	705.66803	 23.70	
 10.190	 37.895	  4.88208	  3.72594	  1.38916	  3.36019	  1.59629	 -0.10705	  5.07514	706.01099	 23.70	
 10.215	 47.354	  4.88442	  3.54184	  1.54572	  3.57003	  1.41516	 -0.10216	  5.07335	705.80103	 23.70	
 10.203	 56.908	  4.88583	  3.32701	  1.74221	  3.73709	  1.27377	 -0.09734	  5.07108	705.76703	 23.70	
 10.192	 66.322	  4.89503	  3.09401	  1.95841	  3.87392	  1.16965	 -0.09536	  5.07628	705.77802	 23.70	
 10.208	 75.751	  4.89942	  2.84242	  2.18959	  3.97555	  1.08929	 -0.10532	  5.07864	705.67200	 23.70	
 10.210	 85.199	  4.89610	  2.58175	  2.43232	  4.02154	  1.04759	 -0.11414	  5.07812	705.77002	 23.70	
 10.210	 94.801	  4.89101	  2.30929	  2.68911	  4.01913	  1.04376	 -0.11607	  5.07293	705.67499	 23.70	
 10.208	104.249	  4.89562	  2.06436	  2.94146	  3.97659	  1.08202	 -0.11276	  5.07919	705.78998	 23.70	
 10.192	113.678	  4.89361	  1.82658	  3.18562	  3.88662	  1.15315	 -0.11044	  5.07595	705.85400	 23.70	
 10.203	123.092	  4.87876	  1.60269	  3.40576	  3.74734	  1.25326	 -0.11004	  5.06313	705.83502	 23.70	
 10.215	132.646	  4.87794	  1.40893	  3.61445	  3.57915	  1.38783	 -0.10733	  5.06624	705.86200	 23.70	
 10.190	142.105	  4.88300	  1.24875	  3.79197	  3.38323	  1.56022	 -0.10192	  5.07499	705.75897	 23.70	
 10.194	151.526	  4.88024	  1.12020	  3.93494	  3.15073	  1.76112	 -0.09622	  5.07449	705.91901	 23.70	
 10.210	161.034	  4.86900	  1.01506	  4.03644	  2.89777	  1.98109	 -0.09943	  5.06948	705.87402	 23.70	
 10.191	170.497	  4.86294	  0.95272	  4.09450	  2.64071	  2.22169	 -0.10463	  5.07190	705.68500	 23.70	
 11.899	171.783	  4.76766	  0.64286	  4.28003	  2.56210	  2.12907	 -0.14602	  5.07685	705.83801	 23.70	
 11.890	163.610	  4.77340	  0.69653	  4.22853	  2.81733	  1.88715	 -0.14188	  5.07079	705.72400	 23.70	
 11.889	155.445	  4.78101	  0.78086	  4.14155	  3.07272	  1.66186	 -0.13499	  5.07170	705.76703	 23.70	
 11.909	147.299	  4.78004	  0.88967	  4.01500	  3.31836	  1.44185	 -0.13868	  5.07064	705.66302	 23.70	
 11.902	139.148	  4.78391	  1.03552	  3.86039	  3.53932	  1.25938	 -0.14259	  5.06794	705.82397	 23.70	
 11.894	130.867	  4.79621	  1.21153	  3.67610	  3.73862	  1.10588	 -0.14810	  5.07483	705.87598	 23.70	
 11.897	122.732	  4.79114	  1.40357	  3.45932	  3.90739	  0.96343	 -0.15424	  5.07004	705.90698	 23.70	
 11.903	114.597	  4.79459	  1.61904	  3.23278	  4.04175	  0.85949	 -0.15889	  5.07086	705.74701	 23.70	
 11.893	106.346	  4.79539	  1.85694	  2.98539	  4.13597	  0.78777	 -0.15825	  5.07107	705.81201	 23.70	
 11.892	 98.155	  4.79874	  2.10830	  2.73456	  4.20129	  0.73900	 -0.16025	  5.07501	705.76202	 23.70	
 11.900	 90.000	  4.79821	  2.36436	  2.48150	  4.21633	  0.72887	 -0.15943	  5.07284	705.77802	 23.70	
 11.892	 81.845	  4.79341	  2.62656	  2.22741	  4.18510	  0.75032	 -0.15260	  5.06482	705.75800	 23.70	
 11.893	 73.654	  4.79725	  2.89207	  1.98849	  4.12725	  0.80113	 -0.14266	  5.06839	705.83502	 23.70	
 11.903	 65.403	  4.79301	  3.14851	  1.75164	  4.02171	  0.88230	 -0.13192	  5.06710	705.86798	 23.70	
 11.897	 57.268	  4.79090	  3.38395	  1.54139	  3.88673	  0.99319	 -0.13095	  5.07117	705.78900	 23.70	
 11.894	 49.133	  4.78759	  3.60126	  1.35262	  3.71583	  1.13188	 -0.13406	  5.06813	705.82397	 23.70	
 11.902	 40.852	  4.78830	  3.79470	  1.18580	  3.51123	  1.30698	 -0.14029	  5.07039	705.82703	 23.70	
 11.909	 32.701	  4.78423	  3.95787	  1.04379	  3.29086	  1.49687	 -0.14463	  5.07670	705.82397	 23.70	
 11.889	 24.555	  4.77744	  4.07871	  0.93723	  3.04460	  1.71503	 -0.14687	  5.06946	705.70001	 23.70	
 11.890	 16.390	  4.76843	  4.16921	  0.84202	  2.78099	  1.94686	 -0.15560	  5.06726	705.67999	 23.70	
 11.899	  8.217	  4.76023	  4.22175	  0.78105	  2.52636	  2.18422	 -0.15850	  5.07079	705.83698	 23.70	
 11.900	  0.000	  4.75471	  4.23130	  0.75508	  2.25193	  2.45019	 -0.15876	  5.06778	705.81403	 23.70	
 11.899	 -8.217	  4.75335	  4.20710	  0.76017	  2.00076	  2.71147	 -0.15168	  5.07697	705.77899	 23.70	
 11.890	-16.390	  4.73991	  4.13469	  0.79405	  1.74619	  2.96358	 -0.15029	  5.06504	705.83801	 23.70	
 11.889	-24.555	  4.72899	  4.02646	  0.85794	  1.50895	  3.21701	 -0.15354	  5.06466	705.80603	 23.70	
 11.909	-32.701	  4.73752	  3.89437	  0.95583	  1.30228	  3.45860	 -0.16028	  5.07676	705.81799	 23.70	
 11.902	-40.852	  4.72708	  3.71437	  1.08523	  1.11050	  3.67104	 -0.16251	  5.07191	705.86798	 23.70	
 11.894	-49.133	  4.72321	  3.50978	  1.24030	  0.94698	  3.86333	 -0.16669	  5.07176	705.89697	 23.70	
 11.897	-57.268	  4.71298	  3.27745	  1.41889	  0.80314	  4.02223	 -0.17431	  5.06576	705.90698	 23.70	
 11.903	-65.403	  4.71548	  3.03744	  1.62853	  0.69628	  4.15780	 -0.17776	  5.07338	705.79602	 23.70	
 11.893	-73.654	  4.70927	  2.77676	  1.85509	  0.61538	  4.24745	 -0.18243	  5.07173	705.81201	 23.70	
 11.892	-81.845	  4.71294	  2.51827	  2.10220	  0.57828	  4.29844	 -0.18729	  5.07414	705.86499	 23.70	
 11.900	-90.000	  4.71170	  2.25289	  2.35633	  0.56340	  4.31442	 -0.18786	  5.07378	705.90698	 23.70	
 11.892	-98.155	  4.71349	  1.99744	  2.61805	  0.58438	  4.28955	 -0.18109	  5.07600	705.76501	 23.70	
 11.893	-106.346	  4.70417	  1.74650	  2.87344	  0.62543	  4.22470	 -0.17146	  5.07242	705.84601	 23.70	
 11.903	-114.597	  4.71023	  1.51716	  3.13379	  0.70113	  4.13201	 -0.16125	  5.07634	705.85999	 23.70	
 11.897	-122.732	  4.70679	  1.30458	  3.37209	  0.81382	  3.99335	 -0.15180	  5.07047	705.81000	 23.70	
 11.894	-130.867	  4.70890	  1.12288	  3.59616	  0.95417	  3.82059	 -0.14965	  5.06982	705.85999	 23.70	
 11.902	-139.148	  4.70542	  0.95825	  3.78881	  1.12659	  3.61550	 -0.15126	  5.05916	705.85400	 23.70	
 11.909	-147.299	  4.72376	  0.83034	  3.96619	  1.32066	  3.40683	 -0.15311	  5.07737	705.92700	 23.70	
 11.889	-155.445	  4.72906	  0.73413	  4.09905	  1.53514	  3.16625	 -0.15247	  5.07097	705.86798	 23.70	
 11.890	-163.610	  4.73544	  0.66255	  4.20198	  1.77594	  2.90885	 -0.15235	  5.06914	705.83801	 23.70	
 11.899	-171.783	  4.74389	  0.62314	  4.26809	  2.02383	  2.64887	 -0.15372	  5.07021	705.75598	 23.70	
 11.900	180.000	  4.75573	  0.61482	  4.29289	  2.28706	  2.38901	 -0.15105	  5.07253	705.86499	 23.70	
 13.600	180.000	  4.63495	  0.30601	  4.45417	  2.19042	  2.28440	 -0.19307	  5.07007	705.86499	 23.70	
 13.608	-172.853	  4.63361	  0.31101	  4.44274	  1.93343	  2.54800	 -0.19737	  5.08186	705.83398	 23.70	
 13.611	-165.583	  4.61393	  0.34265	  4.37760	  1.67607	  2.80258	 -0.19950	  5.06816	705.80603	 23.70	
 13.601	-158.353	  4.60768	  0.40347	  4.28811	  1.43492	  3.06283	 -0.19971	  5.07104	705.88300	 23.70	
 13.609	-151.210	  4.60198	  0.48767	  4.16954	  1.21398	  3.30971	 -0.19825	  5.07440	705.76398	 23.70	
 13.611	-143.999	  4.59667	  0.59876	  4.02033	  1.01122	  3.54216	 -0.19404	  5.07603	705.87598	 23.70	
 13.601	-136.825	  4.58677	  0.73524	  3.83612	  0.82446	  3.75454	 -0.18768	  5.07175	705.82397	 23.70	
 13.596	-129.640	  4.58354	  0.90166	  3.62677	  0.66497	  3.94979	 -0.18493	  5.07279	705.83801	 23.70	
 13.611	-122.431	  4.57920	  1.08684	  3.40099	  0.53115	  4.11294	 -0.18618	  5.06868	705.72498	 23.70	
 13.604	-115.211	  4.57245	  1.28809	  3.15886	  0.42122	  4.24639	 -0.19116	  5.06309	705.87701	 23.70	
 13.595	-108.042	  4.58204	  1.51710	  2.91006	  0.33966	  4.35834	 -0.20253	  5.07238	705.79602	 23.70	
 13.607	-100.793	  4.58036	  1.75736	  2.64508	  0.28175	  4.43152	 -0.21366	  5.07052	705.88000	 23.70	
 13.601	-93.617	  4.58175	  2.01395	  2.38507	  0.25449	  4.46984	 -0.21823	  5.07324	705.85699	 23.70	
 13.601	-86.383	  4.57537	  2.27192	  2.12084	  0.25315	  4.46861	 -0.21573	  5.06421	705.82098	 23.70	
 13.607	-79.207	  4.58127	  2.53817	  1.86861	  0.27512	  4.44449	 -0.21154	  5.06912	705.89899	 23.70	
 13.595	-71.958	  4.58533	  2.80440	  1.63068	  0.33066	  4.38089	 -0.20315	  5.07233	705.93799	 23.70	
 13.604	-64.789	  4.59187	  3.06260	  1.40771	  0.40487	  4.29292	 -0.19875	  5.07474	705.98602	 23.70	
 13.611	-57.569	  4.59481	  3.31160	  1.20173	  0.51347	  4.16200	 -0.19502	  5.07681	705.88300	 23.70	
 13.596	-50.360	  4.59995	  3.54415	  1.01738	  0.64427	  4.00726	 -0.19365	  5.07978	705.89600	 23.70	
 13.601	-43.175	  4.60303	  3.75229	  0.85966	  0.79974	  3.81943	 -0.19058	  5.07427	705.88300	 23.80	
 13.611	-36.001	  4.60768	  3.93582	  0.72567	  0.97904	  3.60611	 -0.18724	  5.07008	705.77301	 23.70	
 13.609	-28.790	  4.61797	  4.10021	  0.61374	  1.18731	  3.37865	 -0.18052	  5.07834	706.04901	 23.70	
 13.601	-21.647	  4.62258	  4.22686	  0.53265	  1.40409	  3.13816	 -0.17732	  5.07464	705.93597	 23.70	
 13.611	-14.417	  4.62510	  4.32012	  0.47452	  1.64498	  2.87501	 -0.17594	  5.07115	705.89301	 23.70	
 13.608	 -7.147	  4.64062	  4.38335	  0.45361	  1.90372	  2.61716	 -0.17689	  5.07887	705.81799	 23.70	
 13.600	  0.000	  4.64940	  4.41230	  0.45247	  2.16350	  2.35818	 -0.18346	  5.08265	705.86902	 23.70	
 13.608	  7.147	  4.64745	  4.40052	  0.47004	  2.42339	  2.09683	 -0.18111	  5.07689	705.94702	 23.70	
 13.611	 14.417	  4.65890	  4.36036	  0.52810	  2.69198	  1.84951	 -0.18541	  5.07958	706.00702	 23.70	
 13.601	 21.647	  4.65670	  4.27554	  0.59981	  2.95223	  1.60632	 -0.18157	  5.07237	705.98401	 23.70	
 13.609	 28.790	  4.66379	  4.16397	  0.70231	  3.20130	  1.38573	 -0.17785	  5.07196	705.88800	 23.70	
 13.611	 36.001	  4.65814	  4.01520	  0.82445	  3.43408	  1.17858	 -0.17328	  5.06144	705.95599	 23.70	
 13.601	 43.175	  4.67121	  3.84706	  0.97515	  3.65713	  1.00338	 -0.17222	  5.07143	705.89301	 23.70	
 13.596	 50.360	  4.67611	  3.64865	  1.14695	  3.85556	  0.83974	 -0.16922	  5.07124	705.96100	 23.70	
 13.611	 57.569	  4.67854	  3.42545	  1.33613	  4.02830	  0.69950	 -0.16603	  5.07195	705.83099	 23.70	
 13.604	 64.789	  4.68399	  3.19012	  1.54593	  4.17109	  0.58787	 -0.16920	  5.07458	705.85101	 23.70	
 13.595	 71.958	  4.68826	  2.93874	  1.77163	  4.28121	  0.50625	 -0.18152	  5.07868	705.91302	 23.70	
 13.607	 79.207	  4.68602	  2.67636	  2.00999	  4.34561	  0.45292	 -0.19008	  5.07225	705.77197	 23.70	
 13.601	 86.383	  4.69121	  2.41708	  2.25865	  4.38766	  0.42367	 -0.19793	  5.07836	705.88000	 23.70	
 13.601	 93.617	  4.68337	  2.14790	  2.51005	  4.38152	  0.42425	 -0.20099	  5.07001	705.98401	 23.70	
 13.607	100.793	  4.68248	  1.89260	  2.76141	  4.35257	  0.44201	 -0.20248	  5.07172	705.94702	 23.70	
 13.595	108.042	  4.68423	  1.64569	  3.01620	  4.28287	  0.49818	 -0.19976	  5.07006	705.90399	 23.70	
 13.604	115.211	  4.68882	  1.41397	  3.26648	  4.18979	  0.57179	 -0.20033	  5.07956	705.74701	 23.70	
 13.611	122.431	  4.67264	  1.19332	  3.48922	  4.04287	  0.67052	 -0.19768	  5.06423	705.84497	 23.70	
 13.596	129.640	  4.68437	  1.00194	  3.71281	  3.88377	  0.80969	 -0.19145	  5.07636	705.82898	 23.70	
 13.601	136.825	  4.66727	  0.82843	  3.89363	  3.67526	  0.95954	 -0.18430	  5.05696	705.98401	 23.70	
 13.611	143.999	  4.67871	  0.68173	  4.07387	  3.47487	  1.13523	 -0.17905	  5.07393	705.93103	 23.70	
 13.609	151.210	  4.67235	  0.54997	  4.21645	  3.23499	  1.33453	 -0.17440	  5.07081	705.84302	 23.70	
 13.601	158.353	  4.65738	  0.45090	  4.31458	  2.98115	  1.54709	 -0.17644	  5.06353	705.96698	 23.70	
 13.611	165.583	  4.65780	  0.37540	  4.40343	  2.72307	  1.78531	 -0.18527	  5.07340	705.94397	 23.70	
 13.608	172.853	  4.65214	  0.32985	  4.44830	  2.46418	  2.02770	 -0.18898	  5.07740	705.99200	 23.70	
 15.298	173.587	  4.50723	  0.03000	  4.58167	  2.34946	  1.91144	 -0.22696	  5.06226	705.90698	 23.70	
 15.291	167.167	  4.52469	  0.07233	  4.54948	  2.61524	  1.66791	 -0.22245	  5.06885	705.97803	 23.70	
 15.307	160.676	  4.52855	  0.12861	  4.48211	  2.87885	  1.43306	 -0.21614	  5.06908	705.91302	 23.70	
 15.300	154.261	  4.53873	  0.22533	  4.38058	  3.13492	  1.21378	 -0.21107	  5.06806	705.80603	 23.70	
 15.288	147.854	  4.54610	  0.33170	  4.25956	  3.37382	  1.01521	 -0.21087	  5.07178	705.80103	 23.70	
 15.293	141.428	  4.54693	  0.46402	  4.10454	  3.60200	  0.82775	 -0.21394	  5.07005	705.85901	 23.70	
 15.299	134.985	  4.55291	  0.61866	  3.92729	  3.82021	  0.65796	 -0.21948	  5.07660	705.78302	 23.70	
 15.305	128.583	  4.55219	  0.78953	  3.72836	  4.00494	  0.51267	 -0.22315	  5.07224	705.86798	 23.70	
 15.309	122.142	  4.54685	  0.98402	  3.50543	  4.16894	  0.38466	 -0.22374	  5.06947	705.96698	 23.70	
 15.304	115.711	  4.54629	  1.19835	  3.27047	  4.29715	  0.29010	 -0.22715	  5.06522	705.89001	 23.70	
 15.297	109.291	  4.54449	  1.42439	  3.02683	  4.39446	  0.21619	 -0.22468	  5.05867	705.80103	 23.70	
 15.293	102.897	  4.55538	  1.66791	  2.78719	  4.48315	  0.15809	 -0.22539	  5.07177	705.92102	 23.70	
 15.293	 96.458	  4.56140	  1.92017	  2.53698	  4.53308	  0.12239	 -0.22553	  5.07825	705.81000	 23.70	
 15.300	 90.000	  4.56101	  2.18150	  2.28085	  4.54761	  0.11361	 -0.22608	  5.07898	705.93799	 23.70	
 15.293	 83.542	  4.56222	  2.44493	  2.03346	  4.52508	  0.13387	 -0.22470	  5.07473	705.91101	 23.70	
 15.293	 77.103	  4.55264	  2.70700	  1.78530	  4.46980	  0.16845	 -0.21727	  5.06804	705.90503	 23.70	
 15.297	 70.709	  4.54401	  2.95640	  1.55477	  4.37703	  0.23439	 -0.20508	  5.05400	705.89899	 23.70	
 15.304	 64.289	  4.54472	  3.21151	  1.32836	  4.27405	  0.31155	 -0.19649	  5.06341	705.96198	 23.70	
 15.309	 57.858	  4.55612	  3.46036	  1.12771	  4.14785	  0.42219	 -0.19386	  5.07672	705.89301	 23.70	
 15.305	 51.417	  4.54867	  3.67699	  0.94101	  3.97777	  0.55313	 -0.19669	  5.07320	705.93799	 23.70	
 15.299	 45.015	  4.54968	  3.88464	  0.76992	  3.78861	  0.70614	 -0.19602	  5.07796	705.93597	 23.70	
 15.293	 38.572	  4.54124	  4.05756	  0.62365	  3.56711	  0.88388	 -0.19642	  5.07008	705.91302	 23.70	
 15.288	 32.146	  4.53069	  4.21189	  0.48794	  3.33863	  1.06983	 -0.19510	  5.06602	705.96698	 23.70	
 15.300	 25.739	  4.51896	  4.33555	  0.37529	  3.08819	  1.27433	 -0.19165	  5.06019	706.01703	 23.70	
 15.307	 19.324	  4.52844	  4.44839	  0.29004	  2.84214	  1.50398	 -0.19557	  5.07472	705.89001	 23.70	
 15.291	 12.833	  4.51121	  4.50076	  0.22446	  2.56893	  1.74453	 -0.19528	  5.06042	705.82397	 23.70	
 15.298	  6.413	  4.51336	  4.54727	  0.17754	  2.31142	  1.99074	 -0.19385	  5.07122	705.91101	 23.70	
 15.300	  0.000	  4.50151	  4.55768	  0.14637	  2.04007	  2.24524	 -0.18950	  5.06917	705.93597	 23.70	
 15.298	 -6.413	  4.49996	  4.53397	  0.15132	  1.78848	  2.50801	 -0.18376	  5.07264	706.06000	 23.70	
 15.291	-12.833	  4.49153	  4.48148	  0.16919	  1.54230	  2.76182	 -0.18573	  5.07179	706.00702	 23.70	
 15.307	-19.324	  4.48140	  4.39021	  0.21638	  1.29655	  3.02252	 -0.18734	  5.06923	705.88501	 23.70	
 15.300	-25.739	  4.48637	  4.28593	  0.28772	  1.07725	  3.27767	 -0.19092	  5.07912	706.05200	 23.70	
 15.288	-32.146	  4.47263	  4.13030	  0.38385	  0.86980	  3.50839	 -0.19295	  5.06994	705.96899	 23.70	
 15.293	-38.572	  4.46156	  3.95802	  0.49773	  0.67818	  3.72622	 -0.19309	  5.06481	705.86603	 23.70	
 15.299	-45.015	  4.44546	  3.75656	  0.63345	  0.49988	  3.92776	 -0.19964	  5.05867	705.85400	 23.70	
 15.305	-51.417	  4.45471	  3.55648	  0.79154	  0.35746	  4.11193	 -0.20041	  5.06931	705.90002	 23.70	
 15.309	-57.858	  4.44945	  3.31652	  0.98015	  0.23628	  4.26692	 -0.19878	  5.07086	705.95599	 23.70	
 15.304	-64.289	  4.44192	  3.07037	  1.17759	  0.13090	  4.39045	 -0.19934	  5.06457	706.03198	 23.70	
 15.297	-70.709	  4.43749	  2.81493	  1.39613	  0.04873	  4.49538	 -0.20452	  5.06464	706.09302	 23.70	
 15.293	-77.103	  4.44365	  2.55889	  1.63487	 -0.00177	  4.56475	 -0.20826	  5.07029	706.00598	 23.70	
 15.293	-83.542	  4.43505	  2.29140	  1.87882	 -0.03536	  4.59841	 -0.21514	  5.06413	705.93103	 23.70	
 15.300	-90.000	  4.43807	  2.03070	  2.13589	 -0.04983	  4.61710	 -0.21956	  5.07138	706.05402	 23.70	
 15.293	-96.458	  4.44170	  1.77636	  2.40198	 -0.03237	  4.60143	 -0.22737	  5.07581	706.06201	 23.70	
 15.293	-102.897	  4.43473	  1.52521	  2.66095	 -0.00302	  4.54999	 -0.22264	  5.07108	705.98999	 23.70	
 15.297	-109.291	  4.44260	  1.29585	  2.92303	  0.06197	  4.47575	 -0.22266	  5.07661	706.08502	 23.70	
 15.304	-115.711	  4.43447	  1.07394	  3.16927	  0.14080	  4.36182	 -0.21680	  5.06817	705.89001	 23.70	
 15.309	-122.142	  4.44567	  0.86986	  3.42204	  0.25443	  4.22836	 -0.21593	  5.07799	705.84302	 23.70	
 15.305	-128.583	  4.43736	  0.68602	  3.63820	  0.38027	  4.05708	 -0.21561	  5.06661	705.98401	 23.70	
 15.299	-134.985	  4.44479	  0.52447	  3.84883	  0.52783	  3.88076	 -0.21817	  5.07393	706.00000	 23.70	
 15.293	-141.428	  4.45233	  0.38159	  4.04336	  0.70173	  3.67049	 -0.22382	  5.07416	705.88000	 23.70	
 15.288	-147.854	  4.45888	  0.26758	  4.20281	  0.89934	  3.43938	 -0.22918	  5.07123	705.80298	 23.70	
 15.300	-154.261	  4.46102	  0.16419	  4.33943	  1.10214	  3.20138	 -0.23353	  5.06955	705.92700	 23.70	
 15.307	-160.676	  4.47548	  0.09443	  4.45194	  1.32853	  2.95414	 -0.23539	  5.07328	705.89697	 23.70	
 15.291	-167.167	  4.47788	  0.04746	  4.52255	  1.57443	  2.68745	 -0.23765	  5.06312	705.79498	 23.70	
 15.298	-173.587	  4.49486	  0.01825	  4.57947	  1.82658	  2.42936	 -0.23401	  5.07347	705.97601	 23.70	
 15.300	180.000	  4.50741	  0.01184	  4.60211	  2.08410	  2.17532	 -0.22916	  5.07623	705.97803	 23.70	
 17.000	180.000	  4.34968	 -0.27225	  4.71933	  1.96640	  2.04898	 -0.25392	  5.06601	705.94501	 23.70	
 16.990	-174.179	  4.34291	 -0.27146	  4.70754	  1.71715	  2.30576	 -0.25953	  5.07122	705.86902	 23.70	
 17.009	-168.383	  4.32761	 -0.25248	  4.66217	  1.46784	  2.55819	 -0.26080	  5.06861	705.86798	 23.70	
 17.000	-162.596	  4.32481	 -0.20735	  4.60075	  1.22746	  2.82221	 -0.26202	  5.07605	705.87701	 23.70	
 16.990	-156.759	  4.31252	 -0.14215	  4.49908	  1.00052	  3.07223	 -0.26171	  5.07495	705.87701	 23.70	
 16.995	-150.919	  4.30044	 -0.05851	  4.36988	  0.78754	  3.31404	 -0.25909	  5.06735	706.04498	 23.70	
 16.988	-145.161	  4.30179	  0.04582	  4.22750	  0.58931	  3.55337	 -0.25597	  5.07641	705.86200	 23.70	
 17.014	-139.343	  4.28598	  0.17060	  4.04636	  0.40375	  3.77107	 -0.25217	  5.06476	705.91602	 23.70	
 17.007	-133.546	  4.29033	  0.31475	  3.86124	  0.24782	  3.97484	 -0.24680	  5.07561	706.00702	 23.70	
 17.001	-127.699	  4.27587	  0.47356	  3.63924	  0.10366	  4.15068	 -0.24305	  5.06572	705.90698	 23.70	
 17.006	-121.937	  4.27425	  0.65497	  3.41411	 -0.01919	  4.31277	 -0.23876	  5.06659	705.92700	 23.70	
 17.002	-116.134	  4.27931	  0.85389	  3.17285	 -0.12123	  4.45451	 -0.23457	  5.07241	705.91302	 23.70	
 17.001	-110.310	  4.27522	  1.06133	  2.92576	 -0.20850	  4.56403	 -0.23503	  5.07228	705.95203	 23.70	
 16.988	-104.517	  4.27985	  1.29633	  2.66798	 -0.26645	  4.64936	 -0.22909	  5.07226	705.90698	 23.80	
 17.008	-98.662	  4.26920	  1.52681	  2.40173	 -0.31578	  4.70126	 -0.21862	  5.06215	705.97803	 23.70	
 16.996	-92.909	  4.28052	  1.77708	  2.15143	 -0.33353	  4.74221	 -0.21099	  5.07554	706.02100	 23.80	
 16.996	-87.091	  4.27941	  2.03314	  1.89256	 -0.33300	  4.74203	 -0.20097	  5.07283	705.91400	 23.80	
 17.012	-81.253	  4.28296	  2.29882	  1.64219	 -0.31919	  4.72526	 -0.20056	  5.07364	705.90802	 23.70	
 16.988	-75.483	  4.28422	  2.55625	  1.40153	 -0.28193	  4.67775	 -0.19433	  5.07272	705.91101	 23.70	
 17.001	-69.690	  4.28063	  2.80843	  1.16956	 -0.23024	  4.59947	 -0.19004	  5.07081	705.84601	 23.70	
 17.002	-63.866	  4.28514	  3.06794	  0.95328	 -0.15013	  4.50023	 -0.18865	  5.07254	705.96198	 23.70	
 17.006	-58.063	  4.29360	  3.31436	  0.75956	 -0.04861	  4.37352	 -0.19278	  5.07501	705.85901	 23.70	
 17.001	-52.301	  4.29559	  3.54171	  0.58188	  0.07264	  4.21755	 -0.19523	  5.06926	705.96198	 23.70	
 17.007	-46.454	  4.30045	  3.76470	  0.41966	  0.21041	  4.04107	 -0.19283	  5.06664	705.89301	 23.70	
 17.014	-40.657	  4.30291	  3.96371	  0.27375	  0.36972	  3.84446	 -0.18912	  5.06822	705.84900	 23.80	
 16.988	-34.839	  4.31913	  4.14775	  0.15876	  0.55298	  3.63494	 -0.19220	  5.07225	705.85901	 23.80	
 16.995	-29.081	  4.32662	  4.30754	  0.05364	  0.74541	  3.40565	 -0.19034	  5.07548	705.93103	 23.80	
 16.990	-23.241	  4.32863	  4.43566	 -0.02533	  0.95925	  3.15818	 -0.19285	  5.07189	705.92700	 23.70	
 17.000	-17.404	  4.32753	  4.53466	 -0.08829	  1.18219	  2.90283	 -0.18602	  5.06546	705.89697	 23.80	
 17.009	-11.617	  4.34802	  4.62756	 -0.12704	  1.42597	  2.65098	 -0.18532	  5.07966	705.95203	 23.70	
 16.990	 -5.821	  4.35138	  4.67070	 -0.14046	  1.67570	  2.39106	 -0.17919	  5.07508	705.97498	 23.80	
 17.000	  0.000	  4.35936	  4.69015	 -0.13629	  1.93108	  2.13655	 -0.17862	  5.07524	705.89001	 23.80	
 16.990	  5.821	  4.35624	  4.67750	 -0.11695	  2.19023	  1.87505	 -0.18074	  5.06496	705.86200	 23.80	
 17.009	 11.617	  4.36477	  4.65141	 -0.07826	  2.45174	  1.62903	 -0.18372	  5.07220	705.89301	 23.80	
 17.000	 17.404	  4.37476	  4.59859	 -0.02148	  2.71711	  1.39232	 -0.18788	  5.07589	705.82898	 23.80	
 16.990	 23.241	  4.37353	  4.49745	  0.06254	  2.97294	  1.16318	 -0.18741	  5.06716	705.84302	 23.80	
 16.995	 29.081	  4.38110	  4.38862	  0.16032	  3.21882	  0.95552	 -0.19278	  5.06681	705.92999	 23.80	
 16.988	 34.839	  4.39510	  4.25288	  0.28044	  3.46602	  0.76048	 -0.20213	  5.07667	705.93799	 23.80	
 17.014	 40.657	  4.39237	  4.08982	  0.40650	  3.68257	  0.57335	 -0.20355	  5.07125	705.95203	 23.80	
 17.007	 46.454	  4.39251	  3.89556	  0.55918	  3.89540	  0.40707	 -0.21153	  5.07016	705.97198	 23.80	
 17.001	 52.301	  4.39780	  3.68750	  0.72832	  4.08086	  0.26510	 -0.21356	  5.07172	705.91901	 23.80	
 17.006	 58.063	  4.40941	  3.47192	  0.91419	  4.25002	  0.13984	 -0.21546	  5.07712	705.85199	 23.70	
 17.002	 63.866	  4.39899	  3.22380	  1.11408	  4.38155	  0.03569	 -0.22140	  5.06513	705.81000	 23.70	
 17.001	 69.690	  4.40979	  2.98136	  1.33054	  4.50906	 -0.05615	 -0.22603	  5.07953	705.88202	 23.80	
 16.988	 75.483	  4.41098	  2.72318	  1.55745	  4.58681	 -0.11300	 -0.23133	  5.07398	705.91400	 23.70	
 17.012	 81.253	  4.40989	  2.46422	  1.78877	  4.65079	 -0.16380	 -0.23264	  5.07686	705.82098	 23.80	
 16.996	 87.091	  4.39953	  2.19509	  2.03064	  4.66576	 -0.18141	 -0.23187	  5.06242	705.85999	 23.70	
 16.996	 92.909	  4.41039	  1.93981	  2.28684	  4.67963	 -0.18535	 -0.23050	  5.07483	705.84100	 23.70	
 17.008	 98.662	  4.41363	  1.69242	  2.53435	  4.66366	 -0.17110	 -0.22929	  5.08224	705.86499	 23.70	
 16.988	104.517	  4.40110	  1.44323	  2.77723	  4.59591	 -0.12997	 -0.23146	  5.06678	705.91302	 23.70	
 17.001	110.310	  4.40285	  1.20565	  3.02953	  4.51946	 -0.07407	 -0.23240	  5.07241	705.87598	 23.70	
 17.002	116.134	  4.40900	  0.98707	  3.27565	  4.41281	  0.00918	 -0.23930	  5.07576	705.98602	 23.70	
 17.006	121.937	  4.40316	  0.77823	  3.50272	  4.27672	  0.10304	 -0.24094	  5.07082	705.86902	 23.80	
 17.001	127.699	  4.40228	  0.58818	  3.71821	  4.11351	  0.22530	 -0.24075	  5.06677	705.81403	 23.70	
 17.007	133.546	  4.40994	  0.41237	  3.93191	  3.94056	  0.35942	 -0.24286	  5.08179	705.93500	 23.70	
 17.014	139.343	  4.39925	  0.25568	  4.11206	  3.72563	  0.51774	 -0.24206	  5.07027	705.87201	 23.80	
 16.988	145.161	  4.40173	  0.12450	  4.27310	  3.50146	  0.70001	 -0.24079	  5.06710	705.97601	 23.80	
 16.995	150.919	  4.39234	  0.00883	  4.40589	  3.26459	  0.88490	 -0.24010	  5.06015	705.78998	 23.70	
 16.990	156.759	  4.39863	 -0.08504	  4.53016	  3.02704	  1.09109	 -0.24393	  5.07518	705.88000	 23.80	
 17.000	162.596	  4.38551	 -0.16630	  4.62103	  2.76105	  1.32265	 -0.24723	  5.07030	705.93903	 23.80	
 17.009	168.383	  4.37876	 -0.22716	  4.68740	  2.49713	  1.55416	 -0.25326	  5.07452	706.00098	 23.70	
 16.990	174.179	  4.36074	 -0.25798	  4.70816	  2.23668	  1.79025	 -0.25235	  5.06522	706.08502	 23.70	
 18.709	174.675	  4.21065	 -0.53645	  4.82987	  2.12026	  1.67125	 -0.26390	  5.07828	706.05603	 23.80	
 18.703	169.441	  4.21731	 -0.50573	  4.79801	  2.37145	  1.43269	 -0.27071	  5.07192	705.80603	 23.70	
 18.691	164.085	  4.22543	 -0.45235	  4.73837	  2.63546	  1.20171	 -0.27112	  5.07190	705.90698	 23.70	
 18.706	158.818	  4.22351	 -0.38707	  4.65085	  2.88189	  0.97390	 -0.26559	  5.06070	705.94702	 23.70	
 18.695	153.537	  4.24050	 -0.30276	  4.55669	  3.13911	  0.77341	 -0.26479	  5.07234	705.98297	 23.70	
 18.704	148.255	  4.24309	 -0.20324	  4.42832	  3.38134	  0.57506	 -0.25941	  5.07217	706.06000	 23.70	
 18.698	142.952	  4.24766	 -0.08037	  4.27997	  3.61592	  0.39419	 -0.25787	  5.07456	705.98602	 23.70	
 18.699	137.625	  4.24156	  0.05938	  4.09830	  3.82575	  0.22859	 -0.25756	  5.06536	706.08698	 23.70	
 18.705	132.343	  4.24411	  0.21377	  3.91338	  4.02417	  0.08375	 -0.25363	  5.06987	706.06201	 23.70	
 18.713	127.067	  4.24051	  0.38196	  3.70601	  4.20230	 -0.05060	 -0.24745	  5.07026	706.06799	 23.70	
 18.700	121.794	  4.24400	  0.57075	  3.49094	  4.36417	 -0.16293	 -0.24136	  5.07412	706.02399	 23.70	
 18.698	116.504	  4.24796	  0.77473	  3.26485	  4.50379	 -0.26234	 -0.23338	  5.07848	706.03101	 23.70	
 18.707	111.165	  4.24320	  0.98812	  3.02092	  4.60780	 -0.33428	 -0.22486	  5.07090	706.08801	 23.70	
 18.690	105.863	  4.25362	  1.22013	  2.78535	  4.69853	 -0.38879	 -0.21968	  5.08235	706.02600	 23.70	
 18.696	100.583	  4.24621	  1.46005	  2.53066	  4.74813	 -0.43161	 -0.21505	  5.07102	706.05603	 23.70	
 18.700	 95.309	  4.24650	  1.70370	  2.28629	  4.78134	 -0.45334	 -0.21175	  5.07148	705.99799	 23.70	
 18.700	 90.000	  4.24953	  1.95759	  2.04051	  4.79387	 -0.45997	 -0.21969	  5.07354	706.01703	 23.70	
 18.700	 84.691	  4.25550	  2.21960	  1.80364	  4.78391	 -0.44829	 -0.22238	  5.07930	706.10101	 23.70	
 18.696	 79.417	  4.24434	  2.46946	  1.56299	  4.73511	 -0.41987	 -0.22957	  5.06674	706.00897	 23.70	
 18.690	 74.137	  4.25309	  2.72544	  1.33974	  4.67663	 -0.37145	 -0.23092	  5.07348	706.02399	 23.70	
 18.707	 68.835	  4.24456	  2.97924	  1.11427	  4.58668	 -0.31024	 -0.23203	  5.07205	705.96399	 23.70	
 18.698	 63.496	  4.24663	  3.23011	  0.90482	  4.47149	 -0.22456	 -0.22883	  5.07542	705.97198	 23.70	
 18.700	 58.206	  4.24753	  3.46838	  0.71284	  4.33273	 -0.11929	 -0.22300	  5.07337	705.98401	 23.70	
 18.713	 52.933	  4.24912	  3.69394	  0.53588	  4.17487	  0.00282	 -0.22372	  5.07754	705.96399	 23.70	
 18.705	 47.657	  4.24585	  3.90529	  0.36850	  3.99094	  0.14062	 -0.21581	  5.07891	706.06299	 23.70	
 18.699	 42.375	  4.23082	  4.08453	  0.21665	  3.78075	  0.29228	 -0.21092	  5.06646	706.08197	 23.70	
 18.698	 37.048	  4.22933	  4.25740	  0.08147	  3.56739	  0.45868	 -0.20010	  5.07064	706.05402	 23.70	
 18.704	 31.745	  4.22301	  4.41163	 -0.04179	  3.33564	  0.64219	 -0.19064	  5.07255	705.89899	 23.70	
 18.695	 26.463	  4.22147	  4.53777	 -0.14103	  3.08993	  0.84730	 -0.18427	  5.07125	705.94501	 23.70	
 18.706	 21.182	  4.21120	  4.63911	 -0.23250	  2.84158	  1.05050	 -0.17641	  5.06986	705.93597	 23.70	
 18.691	 15.915	  4.21333	  4.72236	 -0.29726	  2.58596	  1.28622	 -0.17240	  5.07511	706.03998	 23.70	
 18.703	 10.559	  4.20434	  4.77312	 -0.35442	  2.32084	  1.51666	 -0.16937	  5.07257	706.05402	 23.70	
 18.709	  5.325	  4.19025	  4.79448	 -0.39612	  2.06131	  1.75273	 -0.16993	  5.06692	705.99500	 23.70	
 18.700	  0.000	  4.19146	  4.80564	 -0.41225	  1.80638	  2.01147	 -0.16728	  5.07508	705.98297	 23.70	
 18.709	 -5.325	  4.18088	  4.78020	 -0.41816	  1.54860	  2.26836	 -0.17385	  5.06875	705.96899	 23.70	
 18.703	-10.559	  4.17961	  4.74436	 -0.40693	  1.31441	  2.51422	 -0.17609	  5.07621	705.89697	 23.70	
 18.691	-15.915	  4.17489	  4.67399	 -0.37289	  1.07219	  2.78024	 -0.18168	  5.07789	705.97198	 23.70	
 18.706	-21.182	  4.17609	  4.58526	 -0.32241	  0.84600	  3.03928	 -0.18502	  5.08444	706.12500	 23.70	
 18.695	-26.463	  4.15808	  4.45796	 -0.25576	  0.63599	  3.26976	 -0.18463	  5.07184	706.00702	 23.70	
 18.704	-31.745	  4.15183	  4.30966	 -0.16859	  0.43698	  3.50413	 -0.18558	  5.07251	706.07397	 23.70	
 18.698	-37.048	  4.14735	  4.14346	 -0.06295	  0.25223	  3.72920	 -0.18004	  5.07170	706.07098	 23.70	
 18.699	-42.375	  4.14752	  3.96437	  0.06226	  0.09120	  3.93971	 -0.18261	  5.08011	706.01099	 23.70	
 18.705	-47.657	  4.13846	  3.76145	  0.20127	 -0.06409	  4.13232	 -0.18101	  5.08017	706.03198	 23.70	
 18.713	-52.933	  4.12713	  3.53190	  0.36446	 -0.19494	  4.29695	 -0.17821	  5.06996	705.97198	 23.70	
 18.700	-58.206	  4.12762	  3.30053	  0.54016	 -0.30630	  4.44804	 -0.17657	  5.07743	706.09003	 23.70	
 18.698	-63.496	  4.11820	  3.05620	  0.73200	 -0.40195	  4.56861	 -0.17524	  5.07071	706.02600	 23.70	
 18.707	-68.835	  4.11370	  2.80674	  0.93958	 -0.47804	  4.67151	 -0.17319	  5.06707	706.04797	 23.70	
 18.690	-74.137	  4.11395	  2.54852	  1.16365	 -0.53584	  4.74995	 -0.17508	  5.06877	706.08502	 23.70	
 18.696	-79.417	  4.11312	  2.28842	  1.40098	 -0.58040	  4.80622	 -0.17550	  5.06770	706.07397	 23.70	
 18.700	-84.691	  4.11331	  2.03385	  1.64300	 -0.60340	  4.83651	 -0.18406	  5.06926	705.96399	 23.70	
 18.700	-90.000	  4.11374	  1.77822	  1.89374	 -0.61212	  4.85064	 -0.18952	  5.07778	705.97601	 23.70	
 18.700	-95.309	  4.09874	  1.52328	  2.14190	 -0.60311	  4.82163	 -0.19465	  5.06109	705.96698	 23.70	
 18.696	-100.583	  4.10500	  1.28887	  2.39940	 -0.57757	  4.79216	 -0.20855	  5.07128	706.12799	 23.70	
 18.690	-105.863	  4.10332	  1.05693	  2.65502	 -0.52902	  4.72153	 -0.22216	  5.06415	706.00702	 23.70	
 18.707	-111.165	  4.10275	  0.83242	  2.91303	 -0.46894	  4.63908	 -0.23436	  5.07066	706.08502	 23.70	
 18.698	-116.504	  4.10766	  0.63002	  3.16363	 -0.38376	  4.52849	 -0.24869	  5.07301	706.15198	 23.70	
 18.700	-121.794	  4.11492	  0.43766	  3.40775	 -0.28591	  4.39978	 -0.25432	  5.08010	706.12799	 23.70	
 18.713	-127.067	  4.10958	  0.26207	  3.63039	 -0.17037	  4.23588	 -0.26178	  5.07309	706.12402	 23.70	
 18.705	-132.343	  4.11501	  0.10484	  3.84412	 -0.03268	  4.05685	 -0.26404	  5.07398	706.08698	 23.70	
 18.699	-137.625	  4.12315	 -0.04004	  4.04701	  0.12762	  3.85833	 -0.26759	  5.07687	706.19397	 23.70	
 18.698	-142.952	  4.12390	 -0.17038	  4.22265	  0.28583	  3.64756	 -0.27067	  5.07457	706.11798	 23.70	
 18.704	-148.255	  4.12792	 -0.27603	  4.37972	  0.47423	  3.41933	 -0.27004	  5.07082	706.10999	 23.70	
 18.695	-153.537	  4.14133	 -0.36754	  4.52191	  0.67483	  3.18317	 -0.26984	  5.07786	706.03101	 23.70	
 18.706	-158.818	  4.15216	 -0.43981	  4.63484	  0.88832	  2.93809	 -0.26796	  5.07658	706.11798	 23.70	
 18.691	-164.085	  4.15723	 -0.49086	  4.71686	  1.11342	  2.68316	 -0.26950	  5.07348	706.22803	 23.70	
 18.703	-169.441	  4.16342	 -0.53210	  4.77745	  1.35538	  2.42295	 -0.26745	  5.06841	706.13898	 23.70	
 18.709	-174.675	  4.17866	 -0.54962	  4.81836	  1.59673	  2.17441	 -0.26749	  5.07457	706.14203	 23.70	
 18.700	180.000	  4.19459	 -0.54843	  4.83299	  1.85449	  1.92308	 -0.26687	  5.07372	706.10101	 23.70	
 20.400	180.000	  4.01085	 -0.84301	  4.91879	  1.71002	  1.77592	 -0.25612	  5.07021	706.08002	 23.70	
 20.401	-175.153	  3.99377	 -0.84725	  4.90892	  1.45972	  2.01405	 -0.25676	  5.06974	706.14697	 23.70	
 20.407	-170.264	  3.97679	 -0.83406	  4.87203	  1.21184	  2.26549	 -0.25279	  5.06783	706.06000	 23.70	
 20.410	-165.423	  3.96485	 -0.80606	  4.81581	  0.96800	  2.52449	 -0.25435	  5.06852	706.10797	 23.70	
 20.392	-160.496	  3.96155	 -0.75526	  4.74390	  0.75092	  2.77611	 -0.25383	  5.07312	706.14203	 23.70	
 20.401	-155.705	  3.95142	 -0.69639	  4.64440	  0.53490	  3.02299	 -0.25375	  5.07707	706.14398	 23.70	
 20.405	-150.835	  3.93790	 -0.61730	  4.51569	  0.32930	  3.26219	 -0.26123	  5.07351	705.95001	 23.70	
 20.397	-145.903	  3.93526	 -0.51777	  4.36661	  0.14168	  3.49706	 -0.26432	  5.07533	706.09399	 23.70	
 20.392	-141.062	  3.93488	 -0.41262	  4.20970	 -0.02904	  3.72029	 -0.26774	  5.08311	706.08502	 23.70	
 20.396	-136.227	  3.91108	 -0.27950	  4.00612	 -0.19351	  3.91598	 -0.26459	  5.05919	706.19000	 23.70	
 20.408	-131.372	  3.91460	 -0.14368	  3.81455	 -0.34414	  4.11945	 -0.26266	  5.07327	706.07397	 23.70	
 20.410	-126.511	  3.90816	  0.01315	  3.59817	 -0.47578	  4.29600	 -0.25866	  5.07429	706.01801	 23.80	
 20.400	-121.604	  3.91437	  0.18967	  3.37204	 -0.58102	  4.45317	 -0.25022	  5.07856	706.00000	 23.80	
 20.403	-116.741	  3.91274	  0.38135	  3.12947	 -0.67954	  4.58711	 -0.24138	  5.07686	706.05603	 23.80	
 20.413	-111.900	  3.91340	  0.57432	  2.88880	 -0.76697	  4.70829	 -0.22592	  5.08560	706.18701	 23.80	
 20.398	-107.004	  3.91068	  0.78627	  2.63579	 -0.82882	  4.79591	 -0.21318	  5.08180	706.10400	 23.70	
 20.394	-102.132	  3.90974	  1.01698	  2.37110	 -0.87147	  4.86003	 -0.19953	  5.07230	705.92798	 23.70	
 20.403	-97.332	  3.90977	  1.24248	  2.12276	 -0.91276	  4.91119	 -0.18676	  5.07834	706.15802	 23.70	
 20.392	-92.440	  3.90987	  1.48746	  1.86833	 -0.92574	  4.93118	 -0.17766	  5.07593	706.15002	 23.70	
 20.392	-87.560	  3.91644	  1.74032	  1.61590	 -0.93067	  4.94421	 -0.17088	  5.08489	706.13501	 23.70	
 20.403	-82.668	  3.90560	  1.99200	  1.36033	 -0.91750	  4.91815	 -0.16451	  5.07076	706.12701	 23.70	
 20.394	-77.868	  3.91589	  2.24198	  1.13580	 -0.88882	  4.88609	 -0.16466	  5.07509	706.25098	 23.70	
 20.398	-72.996	  3.92316	  2.50852	  0.90528	 -0.83939	  4.83250	 -0.16240	  5.07976	706.02600	 23.70	
 20.413	-68.100	  3.92509	  2.76686	  0.68022	 -0.77932	  4.74734	 -0.16293	  5.07957	706.11603	 23.70	
 20.403	-63.259	  3.92377	  3.01466	  0.47802	 -0.70196	  4.64134	 -0.15910	  5.07427	706.13501	 23.70	
 20.400	-58.396	  3.93150	  3.25758	  0.29667	 -0.60406	  4.51329	 -0.15849	  5.07355	706.11102	 23.70	
 20.410	-53.489	  3.93503	  3.49297	  0.11603	 -0.49726	  4.36673	 -0.16495	  5.07321	706.03101	 23.70	
 20.408	-48.628	  3.93892	  3.71365	 -0.04011	 -0.37435	  4.19913	 -0.16882	  5.07377	705.92700	 23.70	
 20.396	-43.773	  3.94813	  3.92036	 -0.17646	 -0.22322	  4.01143	 -0.17021	  5.06997	705.99500	 23.70	
 20.392	-38.938	  3.95542	  4.12000	 -0.30134	 -0.06674	  3.81001	 -0.16882	  5.07494	706.00000	 23.70	
 20.397	-34.097	  3.96294	  4.29141	 -0.40774	  0.10534	  3.59734	 -0.16684	  5.07533	706.00897	 23.70	
 20.405	-29.165	  3.96568	  4.44578	 -0.50342	  0.28875	  3.36495	 -0.16999	  5.06979	705.84100	 23.70	
 20.401	-24.295	  3.97384	  4.57856	 -0.57491	  0.49566	  3.12146	 -0.17053	  5.06918	706.01703	 23.70	
 20.392	-19.504	  3.98287	  4.68610	 -0.63016	  0.70804	  2.88350	 -0.17255	  5.07085	705.97803	 23.80	
 20.410	-14.577	  3.98412	  4.77540	 -0.67918	  0.92884	  2.62811	 -0.16741	  5.07439	706.06897	 23.80	
 20.407	 -9.736	  3.99660	  4.84272	 -0.70014	  1.17226	  2.37526	 -0.16500	  5.07455	705.99200	 23.70	
 20.401	 -4.847	  4.00046	  4.88187	 -0.71061	  1.41278	  2.12138	 -0.15776	  5.07629	706.06897	 23.80	
 20.400	  0.000	  4.00366	  4.89619	 -0.70349	  1.65752	  1.87145	 -0.15815	  5.07231	706.06799	 23.80	
 20.401	  4.847	  4.01297	  4.90059	 -0.68668	  1.91904	  1.62018	 -0.15493	  5.07672	706.00702	 23.80	
 20.407	  9.736	  4.02215	  4.88293	 -0.65616	  2.17722	  1.37977	 -0.15339	  5.08479	705.96100	 23.80	
 20.410	 14.577	  4.01653	  4.81883	 -0.60178	  2.43026	  1.14467	 -0.15558	  5.06666	705.97601	 23.80	
 20.392	 19.504	  4.03279	  4.75706	 -0.53413	  2.69319	  0.92638	 -0.16036	  5.07358	706.00702	 23.80	
 20.401	 24.295	  4.03668	  4.66593	 -0.45650	  2.93861	  0.71641	 -0.16510	  5.07409	705.94702	 23.80	
 20.405	 29.165	  4.04868	  4.55846	 -0.36403	  3.19484	  0.51339	 -0.17363	  5.08234	706.04199	 23.80	
 20.397	 34.097	  4.05006	  4.41449	 -0.25848	  3.43158	  0.32204	 -0.18450	  5.07593	705.89001	 23.80	
 20.392	 38.938	  4.05182	  4.25541	 -0.13682	  3.65524	  0.14642	 -0.18987	  5.07494	705.92401	 23.80	
 20.396	 43.773	  4.05305	  4.07291	  0.00129	  3.86120	 -0.00858	 -0.20500	  5.06798	706.01099	 23.80	
 20.408	 48.628	  4.06036	  3.88529	  0.14644	  4.06947	 -0.15743	 -0.21624	  5.07843	706.00897	 23.80	
 20.410	 53.489	  4.06295	  3.67283	  0.30956	  4.24875	 -0.28733	 -0.22174	  5.08025	705.97601	 23.80	
 20.400	 58.396	  4.06319	  3.44695	  0.48736	  4.40592	 -0.40540	 -0.22332	  5.07561	706.03998	 23.80	
 20.403	 63.259	  4.05743	  3.20622	  0.67631	  4.53828	 -0.50324	 -0.22860	  5.07016	706.00897	 23.80	
 20.413	 68.100	  4.06716	  2.96750	  0.87720	  4.65683	 -0.58349	 -0.22785	  5.07383	705.94397	 23.80	
 20.398	 72.996	  4.06273	  2.71169	  1.08907	  4.74292	 -0.64936	 -0.22415	  5.06551	706.00702	 23.80	
 20.394	 77.868	  4.06209	  2.45889	  1.30964	  4.81474	 -0.70061	 -0.22159	  5.06924	705.91602	 23.80	
 20.403	 82.668	  4.05994	  2.20382	  1.53240	  4.85813	 -0.73560	 -0.21154	  5.06720	706.04602	 23.80	
 20.392	 87.560	  4.06758	  1.94674	  1.77327	  4.89242	 -0.75693	 -0.20218	  5.07414	705.96698	 23.80	
 20.392	 92.440	  4.06104	  1.69673	  2.01196	  4.88576	 -0.75418	 -0.19756	  5.06642	705.97198	 23.70	
 20.403	 97.332	  4.06698	  1.44595	  2.26270	  4.87407	 -0.74154	 -0.19425	  5.07525	706.05701	 23.80	
 20.394	102.132	  4.06011	  1.21005	  2.49618	  4.83228	 -0.71898	 -0.19802	  5.07339	706.00702	 23.70	
 20.398	107.004	  4.05536	  0.97951	  2.73762	  4.75497	 -0.66489	 -0.20423	  5.06187	705.89001	 23.80	
 20.413	111.900	  4.06333	  0.75262	  2.99101	  4.68134	 -0.61291	 -0.21027	  5.07629	706.10400	 23.80	
 20.403	116.741	  4.07084	  0.55188	  3.22613	  4.57878	 -0.53882	 -0.22369	  5.08176	706.10199	 23.80	
 20.400	121.604	  4.06517	  0.35167	  3.45344	  4.43777	 -0.44603	 -0.22767	  5.07486	706.06500	 23.80	
 20.410	126.511	  4.05626	  0.16262	  3.66385	  4.27152	 -0.33636	 -0.23166	  5.06166	705.95203	 23.80	
 20.408	131.372	  4.06654	 -0.00358	  3.87912	  4.10679	 -0.21586	 -0.24876	  5.07510	705.96899	 23.80	
 20.396	136.227	  4.06855	 -0.16320	  4.07395	  3.91392	 -0.07526	 -0.25419	  5.07770	705.91602	 23.70	
 20.392	141.062	  4.07290	 -0.29081	  4.24979	  3.70764	  0.08086	 -0.26372	  5.07650	706.01398	 23.80	
 20.397	145.903	  4.05884	 -0.41587	  4.39926	  3.47601	  0.24308	 -0.26748	  5.06493	706.10101	 23.70	
 20.405	150.835	  4.05606	 -0.52917	  4.54032	  3.23201	  0.43152	 -0.26640	  5.05869	706.07397	 23.70	
 20.401	155.705	  4.06440	 -0.62284	  4.67243	  2.99711	  0.63095	 -0.27060	  5.07662	705.96100	 23.70	
 20.392	160.496	  4.05486	 -0.69447	  4.76195	  2.74254	  0.83465	 -0.26870	  5.07267	706.02399	 23.70	
 20.410	165.423	  4.04091	 -0.75878	  4.83365	  2.48405	  1.05467	 -0.27009	  5.06996	706.04901	 23.70	
 20.407	170.264	  4.03346	 -0.80542	  4.88786	  2.22441	  1.28833	 -0.26889	  5.07326	705.92999	 23.70	
 20.401	175.153	  4.02149	 -0.83124	  4.91269	  1.96947	  1.52353	 -0.26232	  5.07234	705.97601	 23.70	
  0.141	 45.000	  5.06295	  2.67302	  2.75443	  2.64076	  2.75226	  0.03546	  5.05773	706.02600	 23.70	
  4.001	128.691	  5.06489	  2.26306	  3.10685	  3.05844	  2.26593	  0.01400	  5.06902	705.97601	 23.70	
  4.002	 76.995	  5.06516	  2.76045	  2.61539	  3.17060	  2.17852	  0.01505	  5.06964	705.93500	 23.80	
  4.002	 25.892	  5.06334	  3.16433	  2.23789	  2.83827	  2.47204	  0.00840	  5.06984	705.92700	 23.70	
  4.002	-25.892	  5.06295	  3.15348	  2.20568	  2.31614	  2.98946	  0.00168	  5.07602	705.92102	 23.70	
  4.002	-76.995	  5.06365	  2.72786	  2.56693	  2.01740	  3.32504	 -0.00320	  5.08277	705.90503	 23.70	
  4.001	-128.691	  5.05937	  2.22475	  3.08395	  2.12576	  3.18905	  0.00652	  5.07908	705.96100	 23.70	
  4.000	180.000	  5.05824	  2.03915	  3.32092	  2.57734	  2.70340	  0.01281	  5.07184	706.04602	 23.70	
  8.000	180.000	  4.95512	  1.32052	  3.85997	  2.46087	  2.57843	 -0.05456	  5.07285	705.89301	 23.70	
  7.991	-152.370	  4.94169	  1.42650	  3.69484	  1.89872	  3.16003	 -0.05816	  5.07209	705.89099	 23.70	
  7.997	-124.550	  4.92987	  1.77441	  3.27020	  1.47675	  3.62915	 -0.06452	  5.07176	705.97601	 23.70	
  8.006	-96.837	  4.93164	  2.29884	  2.70446	  1.28186	  3.86444	 -0.08567	  5.07329	706.04602	 23.70	
  7.988	-69.228	  4.93324	  2.89511	  2.13532	  1.34933	  3.79415	 -0.08554	  5.06979	706.08698	 23.70	
  7.997	-41.563	  4.94875	  3.42413	  1.69821	  1.64941	  3.46195	 -0.08003	  5.08322	706.04199	 23.70	
  8.008	-13.821	  4.96158	  3.73943	  1.47769	  2.15124	  2.92501	 -0.06516	  5.08143	705.86798	 23.70	
  8.008	 13.821	  4.97681	  3.75535	  1.51334	  2.75183	  2.33304	 -0.06341	  5.08580	705.97601	 23.70	
  7.997	 41.563	  4.98035	  3.47429	  1.77019	  3.29776	  1.83347	 -0.05406	  5.07402	705.95898	 23.70	
  7.988	 69.228	  4.98845	  2.97402	  2.23120	  3.66107	  1.52839	 -0.04603	  5.07619	706.08197	 23.70	
  8.006	 96.837	  4.98605	  2.38233	  2.78915	  3.74425	  1.45370	 -0.05683	  5.07247	706.06000	 23.70	
  7.997	124.550	  4.97801	  1.84505	  3.33134	  3.52223	  1.62819	 -0.05448	  5.06931	706.08002	 23.70	
  7.991	152.370	  4.97596	  1.47535	  3.72703	  3.05137	  2.03490	 -0.04614	  5.07316	706.04498	 23.70	
 12.009	161.059	  4.77370	  0.70230	  4.21781	  2.90058	  1.80619	 -0.14064	  5.07219	706.13300	 23.70	
 12.013	142.081	  4.78746	  0.96798	  3.93318	  3.47094	  1.31498	 -0.14271	  5.07864	706.14099	 23.70	
 12.006	123.113	  4.79362	  1.38514	  3.47998	  3.91021	  0.96101	 -0.15503	  5.07418	706.01099	 23.70	
 12.007	104.200	  4.79956	  1.91592	  2.92458	  4.17793	  0.75450	 -0.16338	  5.08135	706.06897	 23.70	
 11.989	 85.301	  4.80375	  2.51804	  2.33924	  4.22820	  0.72200	 -0.15872	  5.08376	705.97498	 23.70	
 12.013	 66.294	  4.78812	  3.11763	  1.77274	  4.04858	  0.85331	 -0.13585	  5.06819	706.09601	 23.70	
 12.012	 47.388	  4.78108	  3.64739	  1.30271	  3.68058	  1.15381	 -0.13838	  5.06731	706.07703	 23.70	
 11.990	 28.440	  4.77819	  4.03964	  0.96950	  3.16555	  1.59888	 -0.14974	  5.07573	705.97198	 23.70	
 11.991	  9.464	  4.77033	  4.23353	  0.78176	  2.56655	  2.14917	 -0.15649	  5.07866	705.90698	 23.70	
 11.991	 -9.464	  4.74859	  4.20880	  0.75054	  1.95132	  2.75388	 -0.15179	  5.07475	705.95898	 23.70	
 11.990	-28.440	  4.72810	  3.97607	  0.88469	  1.38770	  3.34493	 -0.15725	  5.07383	706.15900	 23.70	
 12.012	-47.388	  4.71847	  3.56159	  1.18831	  0.96059	  3.83470	 -0.16864	  5.07435	706.06201	 23.70	
 12.013	-66.294	  4.70884	  3.01388	  1.63813	  0.66464	  4.17875	 -0.17809	  5.07482	706.21198	 23.70	
 11.989	-85.301	  4.69857	  2.39539	  2.20148	  0.54577	  4.31618	 -0.18861	  5.06881	706.01703	 23.70	
 12.007	-104.200	  4.69792	  1.79597	  2.80758	  0.58936	  4.25730	 -0.17616	  5.06866	705.95203	 23.70	
 12.006	-123.113	  4.69686	  1.27916	  3.38514	  0.80456	  3.98951	 -0.15243	  5.06674	705.93500	 23.80	
 12.013	-142.081	  4.70672	  0.89138	  3.86713	  1.18306	  3.54495	 -0.15421	  5.06855	705.94397	 23.80	
 12.009	-161.059	  4.73457	  0.66382	  4.19158	  1.69526	  2.99159	 -0.15620	  5.08133	705.96100	 23.70	
 16.000	180.000	  4.45643	 -0.10890	  4.66512	  2.04760	  2.12826	 -0.24175	  5.08397	706.12701	 23.70	
 15.990	-165.604	  4.41468	 -0.06968	  4.56466	  1.44797	  2.72288	 -0.24959	  5.06593	706.20300	 23.70	
 16.002	-151.165	  4.39170	  0.09590	  4.31460	  0.91631	  3.31112	 -0.24427	  5.06417	705.98700	 23.70	
 16.002	-136.836	  4.38544	  0.36951	  3.94043	  0.47025	  3.84309	 -0.23709	  5.07521	706.02399	 23.70	
 15.995	-122.439	  4.37920	  0.76773	  3.43313	  0.14722	  4.25906	 -0.22797	  5.07416	706.03699	 23.70	
 15.993	-107.966	  4.38360	  1.26705	  2.85538	 -0.06673	  4.54498	 -0.22833	  5.08105	706.10199	 23.70	
 16.005	-93.629	  4.37797	  1.82448	  2.24791	 -0.17314	  4.67593	 -0.22215	  5.07819	706.01703	 23.70	
 15.992	-79.234	  4.37226	  2.42939	  1.64780	 -0.14534	  4.63549	 -0.20711	  5.06485	706.06897	 23.70	
 16.009	-64.774	  4.37916	  3.03919	  1.11123	  0.00201	  4.45287	 -0.19514	  5.06475	706.06897	 23.70	
 15.997	-50.364	  4.39530	  3.60412	  0.66958	  0.27321	  4.12189	 -0.19809	  5.07370	706.03101	 23.70	
 15.997	-36.045	  4.40991	  4.07136	  0.33633	  0.64936	  3.66504	 -0.19108	  5.07634	706.01703	 23.70	
 16.000	-21.597	  4.42266	  4.40322	  0.12024	  1.13196	  3.10864	 -0.19180	  5.07027	706.04602	 23.70	
 16.003	 -7.169	  4.44677	  4.59252	  0.03064	  1.70118	  2.51025	 -0.18546	  5.08102	706.16998	 23.70	
 16.003	  7.169	  4.45603	  4.60349	  0.06282	  2.30747	  1.90403	 -0.19101	  5.07419	706.18298	 23.70	
 16.000	 21.597	  4.46848	  4.46214	  0.20618	  2.92133	  1.34176	 -0.19446	  5.07234	706.10101	 23.70	
 15.997	 36.045	  4.48071	  4.16791	  0.45945	  3.49360	  0.85372	 -0.19861	  5.07216	706.06201	 23.70	
 15.997	 50.364	  4.48810	  3.73219	  0.81409	  3.98248	  0.45945	 -0.20322	  5.07518	706.15601	 23.70	
 16.009	 64.774	  4.49057	  3.19314	  1.26612	  4.34200	  0.18347	 -0.20750	  5.07103	706.12402	 23.70	
 15.992	 79.234	  4.50349	  2.59680	  1.80902	  4.55834	  0.02766	 -0.22701	  5.07870	706.05701	 23.70	
 16.005	 93.629	  4.49951	  1.98458	  2.38051	  4.59986	 -0.00933	 -0.22846	  5.07244	706.24298	 23.70	
 15.993	107.966	  4.49999	  1.40827	  2.96393	  4.48922	  0.07263	 -0.23234	  5.07752	706.15601	 23.70	
 15.995	122.439	  4.49238	  0.89166	  3.51872	  4.20349	  0.28104	 -0.23359	  5.06699	706.21198	 23.70	
 16.002	136.836	  4.49574	  0.47282	  4.00292	  3.79233	  0.59588	 -0.22808	  5.07822	706.15002	 23.70	
 16.002	151.165	  4.49689	  0.16312	  4.37600	  3.26411	  1.02645	 -0.22627	  5.08103	706.21802	 23.80	
 15.990	165.604	  4.47868	 -0.03097	  4.59566	  2.66048	  1.55111	 -0.23353	  5.07929	706.17499	 23.80	
 20.003	168.362	  4.08070	 -0.71724	  4.84966	  2.34653	  1.24714	 -0.27175	  5.06985	706.11798	 23.80	
 20.008	156.764	  4.10313	 -0.57112	  4.67514	  2.95252	  0.72833	 -0.27128	  5.07072	706.13300	 23.80	
 20.000	145.147	  4.10969	 -0.33895	  4.37706	  3.51946	  0.27843	 -0.26372	  5.07462	706.16602	 23.80	
 19.995	133.545	  4.11907	 -0.01793	  3.97934	  4.01955	 -0.08351	 -0.25824	  5.08398	706.01703	 23.80	
 20.009	121.926	  4.10839	  0.38989	  3.48030	  4.41464	 -0.37234	 -0.23423	  5.07619	706.11798	 23.80	
 20.005	110.327	  4.10784	  0.87359	  2.93289	  4.69301	 -0.56215	 -0.21469	  5.07488	706.27399	 23.70	
 19.989	 98.733	  4.11133	  1.42270	  2.36229	  4.83755	 -0.65726	 -0.20274	  5.07114	706.08002	 23.80	
 19.999	 87.075	  4.11206	  2.00609	  1.79090	  4.86092	 -0.67252	 -0.20809	  5.06926	706.02301	 23.80	
 19.992	 75.457	  4.11858	  2.61247	  1.25423	  4.77211	 -0.60128	 -0.22555	  5.08144	706.22198	 23.80	
 20.009	 63.844	  4.11396	  3.18966	  0.76270	  4.54000	 -0.43952	 -0.22951	  5.07285	706.09601	 23.80	
 19.989	 52.269	  4.10086	  3.71662	  0.33784	  4.17511	 -0.17775	 -0.22029	  5.05924	706.18701	 23.80	
 19.999	 40.602	  4.10174	  4.18804	 -0.02630	  3.73384	  0.15509	 -0.20118	  5.07935	706.23499	 23.80	
 20.004	 29.051	  4.09607	  4.54327	 -0.29535	  3.19663	  0.57689	 -0.17882	  5.07887	706.10999	 23.80	
 20.005	 17.433	  4.08298	  4.78193	 -0.49735	  2.61216	  1.06657	 -0.16355	  5.08741	706.36298	 23.80	
 20.006	  5.780	  4.05694	  4.87216	 -0.60632	  1.99997	  1.61173	 -0.15974	  5.07302	706.12402	 23.80	
 20.006	 -5.780	  4.04802	  4.85933	 -0.63916	  1.40466	  2.20137	 -0.16312	  5.07720	706.26501	 23.80	
 20.005	-17.433	  4.02981	  4.71603	 -0.58589	  0.84428	  2.79895	 -0.17643	  5.07792	706.07098	 23.70	
 20.004	-29.051	  4.01549	  4.44192	 -0.43602	  0.35847	  3.36586	 -0.17462	  5.07448	706.10498	 23.70	
 19.999	-40.602	  4.00824	  4.05242	 -0.19082	 -0.05908	  3.88900	 -0.17813	  5.08249	706.05200	 23.80	
 19.989	-52.269	  3.98208	  3.55413	  0.14165	 -0.39414	  4.30903	 -0.17209	  5.06779	706.08801	 23.70	
 20.009	-63.844	  3.98101	  3.00845	  0.56230	 -0.63192	  4.63777	 -0.16926	  5.07849	705.99298	 23.80	
 19.992	-75.457	  3.97863	  2.41212	  1.07133	 -0.78755	  4.85134	 -0.17056	  5.08799	706.11798	 23.80	
 19.999	-87.075	  3.96680	  1.80936	  1.62799	 -0.84932	  4.92106	 -0.17715	  5.07996	706.03998	 23.80	
 19.989	-98.733	  3.95979	  1.22589	  2.22489	 -0.82500	  4.87749	 -0.19444	  5.07520	706.15002	 23.80	
 20.005	-110.327	  3.96038	  0.70011	  2.82422	 -0.70962	  4.71905	 -0.22919	  5.07857	706.15198	 23.80	
 20.009	-121.926	  3.95858	  0.24153	  3.38878	 -0.50192	  4.42653	 -0.25500	  5.07115	706.07703	 23.80	
 19.995	-133.545	  3.96270	 -0.14048	  3.90254	 -0.20958	  4.02727	 -0.26636	  5.07035	706.11298	 23.80	
 20.000	-145.147	  3.98804	 -0.43142	  4.33911	  0.17397	  3.54956	 -0.26462	  5.08522	706.02899	 23.80	
 20.008	-156.764	  4.00133	 -0.63456	  4.64646	  0.63877	  2.98451	 -0.25776	  5.07439	706.04199	 23.80	
 20.003	-168.362	  4.02882	 -0.74991	  4.84265	  1.16831	  2.39786	 -0.25858	  5.07823	705.96698	 23.70	
 20.000	180.000	  4.05463	 -0.77736	  4.90436	  1.74400	  1.80974	 -0.25998	  5.07305	705.90802	 23.70	
