FileType=PCF
NHL=14
Date=08/29/17	18:19:24
Facility=APL
Serial=16328-16
Customer=NASA
NP=6
Mach=0.200000
Calibration=1:1
CalPts=490
TstPts=95
PortNumbering=AP Standard
Units=Torr C m/s kg/m^3 deg mm 
Theta[deg]	Phi[deg]	P1[Torr]	P2[Torr]	P3[Torr]	P4[Torr]	P5[Torr]	P6[Torr]	Pt[Torr]	Ps[Abs,Torr]	Ts[C]	
  0.000	  0.000	 19.56089	 10.52003	 10.34394	 10.30644	 10.79135	  0.15367	 19.52578	705.54498	 24.80	
  1.691	128.401	 19.52759	  9.89319	 10.90866	 11.05487	 10.01385	  0.14969	 19.49861	705.35400	 24.80	
  1.692	 77.194	 19.53798	 10.72532	 10.08130	 11.26116	  9.82502	  0.14270	 19.51079	705.34198	 24.80	
  1.699	 26.182	 19.50987	 11.36992	  9.39511	 10.71267	 10.29684	  0.13354	 19.48372	705.34003	 24.80	
  1.699	-26.182	 19.53943	 11.36178	  9.41993	  9.82860	 11.15608	  0.13080	 19.51108	705.37097	 24.80	
  1.692	-77.194	 19.53802	 10.67260	 10.10088	  9.30887	 11.69418	  0.12871	 19.52139	705.34998	 24.80	
  1.691	-128.401	 19.55923	  9.87237	 10.92375	  9.50121	 11.53665	  0.13948	 19.53650	705.27698	 24.80	
  1.700	180.000	 19.54049	  9.51261	 11.29220	 10.26338	 10.77420	  0.14114	 19.51585	705.44702	 24.80	
  3.400	180.000	 19.52369	  8.50769	 12.22674	 10.16955	 10.70320	  0.10414	 19.52414	705.37299	 24.80	
  3.388	-152.325	 19.52906	  8.70627	 11.97223	  9.28693	 11.59153	  0.09710	 19.53540	705.46600	 24.80	
  3.397	-124.529	 19.50183	  9.25106	 11.32380	  8.62236	 12.29148	  0.08911	 19.52296	705.35901	 24.80	
  3.399	-96.763	 19.49780	 10.09726	 10.44363	  8.31500	 12.60355	  0.04723	 19.51593	705.29401	 24.80	
  3.394	-69.283	 19.47983	 11.02507	  9.51227	  8.47272	 12.47140	  0.06025	 19.50549	705.26300	 24.80	
  3.400	-41.398	 19.48580	 11.84495	  8.80795	  8.97503	 11.90124	  0.05405	 19.50471	705.39600	 24.80	
  3.401	-14.021	 19.49214	 12.30593	  8.41262	  9.69512	 11.09382	  0.08427	 19.50882	705.44000	 24.80	
  3.401	 14.021	 19.51723	 12.34060	  8.42750	 10.71935	 10.15888	  0.08833	 19.52792	705.35901	 24.80	
  3.400	 41.398	 19.47923	 11.90738	  8.75146	 11.51598	  9.37553	  0.09683	 19.48203	705.33698	 24.80	
  3.394	 69.283	 19.50949	 11.13665	  9.52876	 12.06208	  8.88482	  0.10208	 19.50645	705.28802	 24.80	
  3.399	 96.763	 19.49556	 10.20920	 10.44081	 12.16784	  8.78960	  0.09815	 19.49194	705.38800	 24.80	
  3.397	124.529	 19.50871	  9.34571	 11.32906	 11.82446	  9.12918	  0.10542	 19.50357	705.40399	 24.80	
  3.388	152.325	 19.51776	  8.73899	 11.97875	 11.11345	  9.82527	  0.10451	 19.51249	705.39001	 24.80	
  5.099	161.165	 19.42498	  7.60533	 12.93534	 11.00284	  9.62763	  0.00899	 19.50415	705.29901	 24.80	
  5.109	142.013	 19.42963	  8.04960	 12.46178	 11.89070	  8.78463	  0.01133	 19.51733	705.43298	 24.80	
  5.095	123.033	 19.41551	  8.72397	 11.70941	 12.55002	  8.19012	  0.00493	 19.49068	705.37000	 24.80	
  5.105	104.191	 19.44113	  9.59774	 10.80880	 12.99786	  7.82085	  0.00649	 19.52205	705.33698	 24.80	
  5.093	 85.207	 19.40936	 10.53446	  9.83781	 13.06863	  7.72347	  0.01061	 19.49384	705.31897	 24.80	
  5.104	 66.290	 19.43273	 11.50822	  8.91263	 12.83153	  7.92868	  0.01275	 19.51853	705.33698	 24.80	
  5.094	 47.331	 19.39856	 12.32964	  8.17841	 12.24564	  8.38774	  0.00677	 19.49334	705.29199	 24.80	
  5.089	 28.397	 19.42930	 12.95531	  7.68452	 11.49536	  9.10407	  0.00210	 19.53358	705.34802	 24.80	
  5.096	  9.576	 19.40080	 13.25711	  7.37213	 10.55148	  9.96917	 -0.00083	 19.51153	705.43500	 24.80	
  5.096	 -9.576	 19.41008	 13.24338	  7.38702	  9.53362	 10.94243	 -0.02223	 19.53220	705.45203	 24.70	
  5.089	-28.397	 19.39442	 12.89629	  7.66551	  8.72369	 11.85594	 -0.03748	 19.52680	705.45203	 24.80	
  5.094	-47.331	 19.38939	 12.23753	  8.15623	  8.00475	 12.67117	 -0.06277	 19.52391	705.43298	 24.70	
  5.104	-66.290	 19.37934	 11.36707	  8.88924	  7.46951	 13.26294	 -0.07076	 19.52156	705.51099	 24.70	
  5.093	-85.207	 19.36456	 10.39278	  9.76891	  7.25348	 13.52184	 -0.07093	 19.50434	705.48798	 24.80	
  5.105	-104.191	 19.39438	  9.43600	 10.76786	  7.34220	 13.46490	 -0.05660	 19.53397	705.45697	 24.80	
  5.095	-123.033	 19.38340	  8.59107	 11.66453	  7.64050	 13.05933	 -0.03745	 19.52477	705.48297	 24.80	
  5.109	-142.013	 19.39854	  7.93749	 12.43171	  8.25485	 12.38741	 -0.02513	 19.52630	705.44897	 24.80	
  5.099	-161.165	 19.39469	  7.54168	 12.91836	  9.07632	 11.49032	 -0.01345	 19.50916	705.48901	 24.70	
  5.100	180.000	 19.38178	  7.42060	 13.08630	 10.01631	 10.52645	  0.03146	 19.47890	705.41199	 24.80	
  6.800	180.000	 19.22544	  6.30086	 13.97047	  9.80594	 10.34995	 -0.12041	 19.49256	705.51898	 24.80	
  6.796	-166.229	 19.23368	  6.37791	 13.85413	  8.87977	 11.29520	 -0.12532	 19.50600	705.45203	 24.80	
  6.808	-152.311	 19.21070	  6.62800	 13.48394	  8.02125	 12.19757	 -0.13237	 19.50070	705.55103	 24.70	
  6.795	-138.383	 19.21959	  7.11847	 12.89218	  7.27129	 13.03668	 -0.14191	 19.52445	705.47400	 24.80	
  6.792	-124.591	 19.20221	  7.76003	 12.12503	  6.68057	 13.69335	 -0.16031	 19.52184	705.51898	 24.80	
  6.787	-110.754	 19.15415	  8.54558	 11.21569	  6.31341	 14.11204	 -0.18548	 19.47799	705.45801	 24.80	
  6.800	-96.985	 19.16866	  9.43676	 10.29961	  6.13714	 14.35421	 -0.21244	 19.50012	705.63397	 24.80	
  6.800	-83.015	 19.16923	 10.40683	  9.30287	  6.14381	 14.34572	 -0.22473	 19.50244	705.68298	 24.80	
  6.787	-69.246	 19.17166	 11.35932	  8.49329	  6.32785	 14.08796	 -0.21967	 19.50379	705.59497	 24.80	
  6.792	-55.409	 19.17662	 12.24798	  7.73447	  6.73467	 13.61603	 -0.21296	 19.50657	705.55902	 24.80	
  6.795	-41.617	 19.18872	 13.02781	  7.09316	  7.32786	 12.93882	 -0.20677	 19.51566	705.57599	 24.80	
  6.808	-27.689	 19.19548	 13.63983	  6.61121	  8.06385	 12.08790	 -0.18507	 19.51300	705.51398	 24.80	
  6.796	-13.771	 19.19033	 14.00204	  6.32254	  8.88515	 11.15023	 -0.15221	 19.49458	705.58398	 24.80	
  6.800	  0.000	 19.22108	 14.16266	  6.24952	  9.78332	 10.23109	 -0.14814	 19.51093	705.47998	 24.80	
  6.796	 13.771	 19.19712	 14.04314	  6.31765	 10.74409	  9.26749	 -0.14483	 19.48240	705.65399	 24.80	
  6.808	 27.689	 19.20790	 13.70973	  6.62810	 11.68827	  8.41672	 -0.13207	 19.49821	705.58698	 24.80	
  6.795	 41.617	 19.22473	 13.13961	  7.07920	 12.51687	  7.72580	 -0.10937	 19.49976	705.48798	 24.80	
  6.792	 55.409	 19.23503	 12.39363	  7.71627	 13.20040	  7.16782	 -0.10806	 19.49859	705.46100	 24.80	
  6.787	 69.246	 19.22642	 11.51560	  8.47592	 13.67317	  6.81245	 -0.11725	 19.48792	705.52698	 24.80	
  6.800	 83.015	 19.30805	 10.61050	  9.38826	 13.97426	  6.67064	 -0.12002	 19.55700	705.54401	 24.80	
  6.800	 96.985	 19.25005	  9.62807	 10.32999	 13.93089	  6.66698	 -0.13395	 19.49915	705.58197	 24.80	
  6.787	110.754	 19.24730	  8.72456	 11.27589	 13.66658	  6.87629	 -0.13841	 19.49322	705.58600	 24.80	
  6.792	124.591	 19.23702	  7.91572	 12.15856	 13.18376	  7.25487	 -0.13011	 19.47490	705.54401	 24.80	
  6.795	138.383	 19.25620	  7.26237	 12.91806	 12.52762	  7.84394	 -0.12990	 19.50096	705.62402	 24.80	
  6.808	152.311	 19.24629	  6.74874	 13.49404	 11.70014	  8.56386	 -0.12068	 19.49232	705.71301	 24.80	
  6.796	166.229	 19.28285	  6.44884	 13.88128	 10.80311	  9.44741	 -0.11934	 19.54299	705.60901	 24.80	
  8.491	168.704	 19.01553	  5.29189	 14.69674	 10.57252	  9.18010	 -0.25372	 19.50594	705.59802	 24.80	
  8.502	157.493	 19.01559	  5.53943	 14.41329	 11.52772	  8.29288	 -0.25921	 19.50588	705.66901	 24.80	
  8.494	146.194	 19.01212	  5.96484	 13.91466	 12.41721	  7.48844	 -0.27314	 19.49355	705.54498	 24.80	
  8.495	135.039	 19.03115	  6.52380	 13.27241	 13.22107	  6.80170	 -0.27756	 19.50353	705.61700	 24.80	
  8.487	123.723	 19.03419	  7.22252	 12.46378	 13.89152	  6.24326	 -0.27759	 19.51146	705.64398	 24.80	
  8.492	112.575	 19.01996	  8.01136	 11.55747	 14.37174	  5.87064	 -0.29964	 19.50062	705.67700	 24.80	
  8.510	101.220	 19.03606	  8.92266	 10.59540	 14.68873	  5.61935	 -0.30612	 19.51242	705.71100	 24.80	
  8.500	 90.000	 19.04765	  9.88435	  9.61196	 14.79176	  5.53270	 -0.29419	 19.52544	705.64398	 24.80	
  8.510	 78.780	 19.02506	 10.85660	  8.65149	 14.69257	  5.58237	 -0.26356	 19.50869	705.66901	 24.80	
  8.492	 67.425	 19.02558	 11.81781	  7.80356	 14.38463	  5.80599	 -0.25506	 19.51874	705.71600	 24.80	
  8.487	 56.277	 18.99236	 12.68868	  7.04090	 13.87392	  6.13614	 -0.26517	 19.49452	705.60101	 24.80	
  8.495	 44.961	 18.99540	 13.49258	  6.32162	 13.20591	  6.65762	 -0.26754	 19.52039	705.63202	 24.80	
  8.494	 33.806	 18.96618	 14.11628	  5.81938	 12.37747	  7.32947	 -0.26009	 19.49930	705.61298	 24.80	
  8.502	 22.507	 18.97028	 14.60379	  5.41439	 11.48038	  8.11446	 -0.29601	 19.50691	705.78900	 24.80	
  8.491	 11.296	 18.95177	 14.86856	  5.15987	 10.50510	  8.98440	 -0.31527	 19.49436	705.72803	 24.80	
  8.500	  0.000	 18.96081	 14.97241	  5.08270	  9.51443	  9.95376	 -0.31249	 19.50381	705.67102	 24.80	
  8.491	-11.296	 18.94066	 14.83528	  5.15189	  8.60673	 10.91437	 -0.30482	 19.49602	705.79797	 24.80	
  8.502	-22.507	 18.93275	 14.51836	  5.38263	  7.73274	 11.87558	 -0.33078	 19.50227	705.70300	 24.80	
  8.494	-33.806	 18.92075	 14.00026	  5.77854	  6.90022	 12.78349	 -0.35618	 19.48800	705.71899	 24.80	
  8.495	-44.961	 18.92329	 13.33500	  6.31731	  6.21370	 13.60484	 -0.37788	 19.51230	705.72803	 24.80	
  8.487	-56.277	 18.91007	 12.50956	  7.01724	  5.72547	 14.25180	 -0.39583	 19.50219	705.64801	 24.80	
  8.492	-67.425	 18.90338	 11.60735	  7.77301	  5.35789	 14.73918	 -0.40809	 19.49973	705.75800	 24.80	
  8.510	-78.780	 18.90683	 10.63812	  8.61302	  5.13773	 15.07246	 -0.41484	 19.51177	705.76703	 24.80	
  8.500	-90.000	 18.91459	  9.65990	  9.52115	  5.05061	 15.19496	 -0.41361	 19.51393	705.66498	 24.80	
  8.510	-101.220	 18.89246	  8.68100	 10.52283	  5.10002	 15.09129	 -0.38151	 19.48688	705.66901	 24.80	
  8.492	-112.575	 18.92237	  7.80704	 11.51955	  5.37174	 14.82021	 -0.34499	 19.51395	705.64600	 24.80	
  8.487	-123.723	 18.93022	  7.02137	 12.40507	  5.73771	 14.34143	 -0.32367	 19.50111	705.60602	 24.80	
  8.495	-135.039	 18.95399	  6.34862	 13.22029	  6.21416	 13.72203	 -0.31297	 19.52020	705.83099	 24.80	
  8.494	-146.194	 18.94720	  5.80792	 13.85781	  6.87235	 12.92879	 -0.29018	 19.50524	705.70300	 24.80	
  8.502	-157.493	 18.95265	  5.42216	 14.35995	  7.70975	 12.03013	 -0.28613	 19.49229	705.71301	 24.80	
  8.491	-168.704	 19.00225	  5.23366	 14.69594	  8.61438	 11.11616	 -0.29009	 19.53082	705.86603	 24.80	
  8.500	180.000	 18.97452	  5.16282	 14.77751	  9.56322	 10.13362	 -0.29321	 19.48506	705.79498	 24.80	
 10.200	180.000	 18.70631	  4.02127	 15.57586	  9.28789	  9.86120	 -0.43609	 19.52693	705.74103	 24.80	
 10.191	-170.497	 18.68159	  4.05341	 15.47036	  8.31440	 10.82917	 -0.45375	 19.52206	705.72803	 24.80	
 10.210	-161.034	 18.65243	  4.21336	 15.19328	  7.38084	 11.78125	 -0.45505	 19.50305	705.77197	 24.80	
 10.194	-151.526	 18.62991	  4.53439	 14.74292	  6.51904	 12.71268	 -0.43915	 19.48678	705.66302	 24.80	
 10.190	-142.105	 18.62739	  4.97549	 14.19091	  5.80940	 13.57667	 -0.43923	 19.51375	705.74799	 24.80	
 10.215	-132.646	 18.58397	  5.51892	 13.46623	  5.20256	 14.30614	 -0.44530	 19.48605	705.72699	 24.80	
 10.203	-123.092	 18.59295	  6.22544	 12.63525	  4.70114	 14.96126	 -0.47017	 19.51264	705.76398	 24.80	
 10.192	-113.678	 18.57857	  7.02403	 11.71408	  4.31055	 15.43959	 -0.49843	 19.51269	705.84601	 24.80	
 10.208	-104.249	 18.56399	  7.87520	 10.74190	  4.00810	 15.76832	 -0.54460	 19.50019	705.82098	 24.80	
 10.210	-94.801	 18.57099	  8.81655	  9.74488	  3.85032	 15.94316	 -0.58549	 19.51486	705.74402	 24.80	
 10.210	-85.199	 18.58326	  9.82855	  8.75588	  3.88185	 15.93956	 -0.60190	 19.53469	705.77802	 24.80	
 10.208	-75.751	 18.56644	 10.80976	  7.81989	  4.01170	 15.73603	 -0.60839	 19.50458	705.75000	 24.80	
 10.192	-66.322	 18.56794	 11.77694	  6.98330	  4.28015	 15.37108	 -0.60192	 19.49687	705.73401	 24.80	
 10.203	-56.908	 18.56462	 12.69586	  6.23510	  4.66594	 14.85677	 -0.57922	 19.49709	705.79303	 24.80	
 10.215	-47.354	 18.59548	 13.57431	  5.50479	  5.20287	 14.22290	 -0.55442	 19.52279	705.82898	 24.80	
 10.190	-37.895	 18.61493	 14.30371	  4.91964	  5.82182	 13.44855	 -0.53510	 19.52954	705.73297	 24.80	
 10.194	-28.474	 18.61141	 14.87978	  4.46700	  6.50213	 12.56225	 -0.50922	 19.50875	705.75598	 24.80	
 10.210	-18.966	 18.61879	 15.33167	  4.11178	  7.31884	 11.61004	 -0.48869	 19.50563	705.83502	 24.80	
 10.191	 -9.503	 18.65837	 15.61962	  3.92054	  8.25707	 10.66241	 -0.48216	 19.53455	705.78699	 24.80	
 10.200	  0.000	 18.63403	 15.70528	  3.85182	  9.21469	  9.66511	 -0.48916	 19.49728	705.72803	 24.80	
 10.191	  9.503	 18.65123	 15.65182	  3.91986	 10.22542	  8.69939	 -0.49974	 19.50857	705.92102	 24.80	
 10.210	 18.966	 18.66075	 15.42916	  4.14303	 11.20133	  7.79202	 -0.49282	 19.52084	705.83398	 24.80	
 10.194	 28.474	 18.65922	 15.01818	  4.51234	 12.14877	  6.96141	 -0.46173	 19.51470	705.68500	 24.70	
 10.190	 37.895	 18.67541	 14.45820	  4.93781	 13.04163	  6.21564	 -0.43701	 19.51501	705.90399	 24.80	
 10.215	 47.354	 18.66153	 13.75520	  5.52663	 13.82748	  5.57097	 -0.42991	 19.50178	705.75897	 24.80	
 10.203	 56.908	 18.69509	 12.95127	  6.27400	 14.49691	  5.10550	 -0.43207	 19.52077	705.85101	 24.80	
 10.192	 66.322	 18.74046	 12.07395	  7.10371	 15.02477	  4.78358	 -0.42261	 19.55558	705.82703	 24.80	
 10.208	 75.751	 18.70122	 11.08980	  7.89701	 15.34824	  4.53336	 -0.44120	 19.50540	705.78101	 24.80	
 10.210	 85.199	 18.73280	 10.12312	  8.79729	 15.54778	  4.43219	 -0.48130	 19.52534	705.91901	 24.80	
 10.210	 94.801	 18.73507	  9.12178	  9.82075	 15.54271	  4.45204	 -0.50965	 19.52751	705.87201	 24.80	
 10.208	104.249	 18.72193	  8.16989	 10.80948	 15.34966	  4.58237	 -0.51917	 19.50040	705.85101	 24.80	
 10.192	113.678	 18.72510	  7.30424	 11.76741	 14.99710	  4.84580	 -0.50464	 19.49718	705.92401	 24.80	
 10.203	123.092	 18.73285	  6.49213	 12.68559	 14.51291	  5.21357	 -0.47077	 19.50934	705.79303	 24.80	
 10.215	132.646	 18.73532	  5.76125	 13.53148	 13.87817	  5.72490	 -0.45709	 19.51781	705.90698	 24.80	
 10.190	142.105	 18.74488	  5.16729	 14.24570	 13.09849	  6.39279	 -0.45135	 19.51863	705.90802	 24.80	
 10.194	151.526	 18.74317	  4.69178	 14.82162	 12.22376	  7.14870	 -0.44798	 19.52679	705.86603	 24.80	
 10.210	161.034	 18.73698	  4.33165	 15.25539	 11.28582	  7.99618	 -0.43352	 19.53173	705.91602	 24.80	
 10.191	170.497	 18.71178	  4.11672	 15.47567	 10.29342	  8.90119	 -0.43706	 19.52038	705.83099	 24.80	
 11.899	171.783	 18.33851	  2.97402	 16.20913	  9.96016	  8.55665	 -0.59976	 19.52776	705.80402	 24.80	
 11.890	163.610	 18.32215	  3.17035	 15.96741	 10.93208	  7.63187	 -0.58787	 19.48710	705.85999	 24.80	
 11.889	155.445	 18.35497	  3.46787	 15.62353	 11.91261	  6.78045	 -0.59037	 19.51382	705.77002	 24.80	
 11.909	147.299	 18.35900	  3.84076	 15.12549	 12.84048	  5.96508	 -0.60465	 19.52032	705.86200	 24.80	
 11.902	139.148	 18.33899	  4.34367	 14.46554	 13.66835	  5.25776	 -0.60948	 19.48415	705.91101	 24.80	
 11.894	130.867	 18.40295	  4.99782	 13.74491	 14.45863	  4.69864	 -0.62246	 19.54370	705.91101	 24.80	
 11.897	122.732	 18.38056	  5.70408	 12.89171	 15.08778	  4.21641	 -0.65229	 19.52684	705.95502	 24.80	
 11.903	114.597	 18.33821	  6.47676	 11.94346	 15.57377	  3.83280	 -0.68774	 19.49463	705.81000	 24.80	
 11.893	106.346	 18.35142	  7.37076	 10.96186	 15.96168	  3.55661	 -0.70590	 19.50951	705.89697	 24.80	
 11.892	 98.155	 18.35785	  8.30614	  9.96559	 16.19387	  3.37946	 -0.70866	 19.52443	705.90698	 24.70	
 11.900	 90.000	 18.34043	  9.26718	  8.95491	 16.25861	  3.29914	 -0.68202	 19.50516	705.82898	 24.80	
 11.892	 81.845	 18.34235	 10.26121	  7.98439	 16.17847	  3.35216	 -0.64006	 19.51917	705.83698	 24.80	
 11.893	 73.654	 18.32934	 11.24844	  7.12858	 15.94895	  3.50195	 -0.59012	 19.51641	705.78101	 24.80	
 11.903	 65.403	 18.30077	 12.20642	  6.25454	 15.54502	  3.75286	 -0.57228	 19.49592	706.00299	 24.80	
 11.897	 57.268	 18.32542	 13.14288	  5.45632	 15.04764	  4.12867	 -0.57113	 19.53696	705.89001	 24.80	
 11.894	 49.133	 18.28457	 13.94708	  4.72798	 14.36499	  4.57109	 -0.58311	 19.49386	705.85901	 24.80	
 11.902	 40.852	 18.29461	 14.70751	  4.09235	 13.62779	  5.12863	 -0.60347	 19.53000	705.79602	 24.80	
 11.909	 32.701	 18.26972	 15.30495	  3.59240	 12.75938	  5.78582	 -0.62004	 19.51365	705.83099	 24.80	
 11.889	 24.555	 18.27299	 15.79799	  3.23719	 11.82680	  6.57934	 -0.65518	 19.51765	705.85699	 24.80	
 11.890	 16.390	 18.25658	 16.13214	  2.96482	 10.85463	  7.42148	 -0.66465	 19.50072	705.98401	 24.80	
 11.899	  8.217	 18.27731	 16.36213	  2.75042	  9.88753	  8.34468	 -0.66897	 19.52431	705.88000	 24.80	
 11.900	  0.000	 18.23381	 16.38255	  2.68973	  8.85934	  9.30704	 -0.66616	 19.48313	705.92999	 24.80	
 11.899	 -8.217	 18.25146	 16.32026	  2.74238	  7.89634	 10.30253	 -0.65044	 19.51825	705.97198	 24.80	
 11.890	-16.390	 18.23022	 16.05780	  2.90369	  6.96270	 11.26621	 -0.65409	 19.50893	705.77301	 24.80	
 11.889	-24.555	 18.22951	 15.67887	  3.20030	  6.14012	 12.24166	 -0.66423	 19.52403	705.73297	 24.80	
 11.909	-32.701	 18.21980	 15.16335	  3.58588	  5.40909	 13.16649	 -0.66128	 19.53096	705.68597	 24.80	
 11.902	-40.852	 18.22632	 14.51844	  4.09013	  4.72966	 14.01904	 -0.69082	 19.54651	705.75500	 24.80	
 11.894	-49.133	 18.16982	 13.70220	  4.66215	  4.08935	 14.75183	 -0.72025	 19.49599	705.80103	 24.80	
 11.897	-57.268	 18.16075	 12.84744	  5.35800	  3.56279	 15.39897	 -0.74755	 19.50625	705.86603	 24.80	
 11.903	-65.403	 18.16585	 11.92542	  6.20261	  3.15031	 15.93338	 -0.76790	 19.51638	705.88202	 24.80	
 11.893	-73.654	 18.17450	 10.94610	  7.08053	  2.84571	 16.30177	 -0.77553	 19.51129	705.71899	 24.80	
 11.892	-81.845	 18.16558	  9.95354	  7.98199	  2.68265	 16.53061	 -0.76903	 19.51161	705.89001	 24.80	
 11.900	-90.000	 18.15697	  8.95308	  8.87346	  2.64667	 16.60820	 -0.76982	 19.50285	705.94501	 24.80	
 11.892	-98.155	 18.17606	  7.99139	  9.88027	  2.70707	 16.56914	 -0.75023	 19.52679	705.82898	 24.80	
 11.893	-106.346	 18.16331	  7.06544	 10.87126	  2.89467	 16.35575	 -0.70624	 19.50656	705.89899	 24.80	
 11.903	-114.597	 18.17000	  6.19632	 11.85319	  3.19317	 16.00443	 -0.67275	 19.50639	705.80902	 24.80	
 11.897	-122.732	 18.19560	  5.42508	 12.79195	  3.61465	 15.51612	 -0.63180	 19.51598	705.90002	 24.80	
 11.894	-130.867	 18.22098	  4.73556	 13.65127	  4.12427	 14.90912	 -0.60633	 19.53112	705.87598	 24.80	
 11.902	-139.148	 18.23221	  4.12614	 14.41866	  4.72816	 14.15606	 -0.60927	 19.53056	705.99200	 24.80	
 11.909	-147.299	 18.27172	  3.65682	 15.07915	  5.40739	 13.35752	 -0.62567	 19.54838	705.88000	 24.80	
 11.889	-155.445	 18.25732	  3.30154	 15.56081	  6.16236	 12.43430	 -0.63437	 19.51411	705.84497	 24.80	
 11.890	-163.610	 18.27437	  3.05343	 15.92513	  7.03475	 11.46918	 -0.65321	 19.50307	705.90503	 24.80	
 11.899	-171.783	 18.28887	  2.90836	 16.16834	  7.96028	 10.50488	 -0.65179	 19.50639	705.78998	 24.80	
 11.900	180.000	 18.33326	  2.88543	 16.28509	  8.94773	  9.54079	 -0.63430	 19.54111	705.86499	 24.80	
 13.600	180.000	 17.87128	  1.75798	 16.91151	  8.55265	  9.14826	 -0.79194	 19.52214	705.79498	 24.80	
 13.608	-172.853	 17.86483	  1.77361	 16.84823	  7.59346	 10.11315	 -0.81426	 19.53712	705.76703	 24.80	
 13.611	-165.583	 17.83211	  1.88019	 16.62732	  6.64333	 11.09184	 -0.81099	 19.51680	705.91302	 24.80	
 13.601	-158.353	 17.80120	  2.09209	 16.27818	  5.77552	 12.05685	 -0.79830	 19.50378	705.86798	 24.80	
 13.609	-151.210	 17.78233	  2.38088	 15.82763	  4.97864	 12.97638	 -0.78297	 19.51243	705.81201	 24.80	
 13.611	-143.999	 17.76522	  2.77230	 15.24407	  4.24433	 13.84833	 -0.76552	 19.51302	705.82098	 24.80	
 13.601	-136.825	 17.75551	  3.29242	 14.55557	  3.57518	 14.66060	 -0.74263	 19.51390	705.95502	 24.80	
 13.596	-129.640	 17.74918	  3.90128	 13.76563	  2.99455	 15.38725	 -0.73502	 19.52561	705.82098	 24.80	
 13.611	-122.431	 17.72758	  4.59220	 12.89530	  2.49029	 15.99047	 -0.76407	 19.52305	705.86499	 24.80	
 13.604	-115.211	 17.73409	  5.37472	 11.97150	  2.09094	 16.49003	 -0.79734	 19.52790	705.81000	 24.80	
 13.595	-108.042	 17.72551	  6.21806	 10.99801	  1.78469	 16.85863	 -0.83612	 19.52663	705.89001	 24.80	
 13.607	-100.793	 17.70019	  7.11211	  9.98623	  1.56084	 17.09857	 -0.86211	 19.51311	705.86200	 24.80	
 13.601	-93.617	 17.68920	  8.04912	  8.98535	  1.46443	 17.21016	 -0.87072	 19.49903	705.77502	 24.80	
 13.601	-86.383	 17.70999	  9.04525	  8.06568	  1.42780	 17.21995	 -0.85934	 19.52278	705.90399	 24.80	
 13.607	-79.207	 17.70213	 10.03307	  7.14495	  1.50854	 17.08234	 -0.86067	 19.52308	705.92200	 24.80	
 13.595	-71.958	 17.72690	 11.04348	  6.21914	  1.71622	 16.81611	 -0.86834	 19.53768	705.85999	 24.80	
 13.604	-64.789	 17.71615	 12.01592	  5.34525	  2.01443	 16.41589	 -0.86814	 19.53196	705.89001	 24.80	
 13.611	-57.569	 17.71957	 12.93979	  4.53482	  2.41949	 15.89607	 -0.85405	 19.53075	705.91101	 24.80	
 13.596	-50.360	 17.72687	 13.81852	  3.87469	  2.92331	 15.26733	 -0.82611	 19.53100	705.94397	 24.80	
 13.601	-43.175	 17.72105	 14.59846	  3.25012	  3.53079	 14.51230	 -0.80018	 19.50670	705.88202	 24.80	
 13.611	-36.001	 17.77337	 15.34593	  2.72048	  4.21041	 13.71736	 -0.79210	 19.55120	705.96997	 24.80	
 13.609	-28.790	 17.75965	 15.92224	  2.27531	  4.95088	 12.80945	 -0.78841	 19.52680	705.90399	 24.80	
 13.601	-21.647	 17.77419	 16.38260	  1.93390	  5.73999	 11.87246	 -0.78398	 19.51998	705.79797	 24.80	
 13.611	-14.417	 17.80630	 16.75267	  1.67928	  6.58241	 10.89542	 -0.78387	 19.54947	705.90698	 24.80	
 13.608	 -7.147	 17.79772	 16.95038	  1.52951	  7.50590	  9.88897	 -0.79025	 19.51608	705.93500	 24.80	
 13.600	  0.000	 17.81481	 17.03633	  1.51257	  8.46814	  8.92697	 -0.79706	 19.52359	705.80298	 24.80	
 13.608	  7.147	 17.79195	 16.97601	  1.55934	  9.45267	  7.94791	 -0.80371	 19.50194	705.80902	 24.80	
 13.611	 14.417	 17.81850	 16.82456	  1.73265	 10.46417	  7.03115	 -0.81287	 19.52994	705.85101	 24.80	
 13.601	 21.647	 17.83580	 16.52339	  1.98340	 11.45782	  6.16560	 -0.81727	 19.54373	705.94702	 24.80	
 13.609	 28.790	 17.82402	 16.08046	  2.28789	 12.40398	  5.35915	 -0.79378	 19.53369	705.91101	 24.80	
 13.611	 36.001	 17.82253	 15.52524	  2.69880	 13.30797	  4.66633	 -0.77186	 19.52395	705.97803	 24.80	
 13.601	 43.175	 17.83582	 14.86440	  3.25440	 14.12747	  4.07354	 -0.74726	 19.52612	705.84497	 24.80	
 13.596	 50.360	 17.83706	 14.09276	  3.85358	 14.87756	  3.53782	 -0.72643	 19.51347	705.90002	 24.80	
 13.611	 57.569	 17.84794	 13.25429	  4.56169	 15.54012	  3.05052	 -0.71544	 19.52435	705.92700	 24.80	
 13.604	 64.789	 17.85535	 12.33160	  5.36877	 16.06424	  2.67414	 -0.72463	 19.50940	705.91901	 24.80	
 13.595	 71.958	 17.86897	 11.37395	  6.23577	 16.46508	  2.40179	 -0.74602	 19.51627	706.02600	 24.80	
 13.607	 79.207	 17.88167	 10.38607	  7.15689	 16.75370	  2.21621	 -0.80000	 19.52100	705.92700	 24.80	
 13.601	 86.383	 17.93295	  9.41836	  8.07125	 16.91168	  2.16392	 -0.85292	 19.54684	705.96198	 24.80	
 13.601	 93.617	 17.91234	  8.41110	  9.07388	 16.88938	  2.18371	 -0.88337	 19.52270	705.81799	 24.80	
 13.607	100.793	 17.91731	  7.45802	 10.07875	 16.76656	  2.28586	 -0.88983	 19.52646	705.85699	 24.80	
 13.595	108.042	 17.92672	  6.54653	 11.08587	 16.49948	  2.50293	 -0.88288	 19.52150	705.90399	 24.80	
 13.604	115.211	 17.90958	  5.67989	 12.03805	 16.10271	  2.77854	 -0.86713	 19.51102	705.91901	 24.80	
 13.611	122.431	 17.93860	  4.89338	 12.99378	 15.61300	  3.17314	 -0.83299	 19.53994	705.83801	 24.80	
 13.596	129.640	 17.95926	  4.19626	 13.86488	 14.97763	  3.66278	 -0.79631	 19.54757	705.92200	 24.80	
 13.601	136.825	 17.95160	  3.58530	 14.64366	 14.22222	  4.22353	 -0.77750	 19.53914	705.92401	 24.80	
 13.611	143.999	 17.92341	  3.05799	 15.30627	 13.39262	  4.82404	 -0.77336	 19.51368	705.79797	 24.80	
 13.609	151.210	 17.92172	  2.61102	 15.89307	 12.49994	  5.56361	 -0.76704	 19.52857	705.78900	 24.80	
 13.601	158.353	 17.91569	  2.27053	 16.35083	 11.55195	  6.38481	 -0.77257	 19.53598	705.89697	 24.80	
 13.611	165.583	 17.89260	  1.99370	 16.66459	 10.55173	  7.25177	 -0.77441	 19.52188	705.87201	 24.80	
 13.608	172.853	 17.87803	  1.82431	 16.84656	  9.54926	  8.18785	 -0.78802	 19.52074	705.87201	 24.80	
 15.298	173.587	 17.39661	  0.72076	 17.44067	  9.12103	  7.76103	 -0.92376	 19.55099	705.87402	 24.80	
 15.291	167.167	 17.40090	  0.87120	 17.26276	 10.10138	  6.84789	 -0.90899	 19.52831	705.79498	 24.80	
 15.307	160.676	 17.38475	  1.08799	 16.95875	 11.08381	  5.93690	 -0.90514	 19.49926	705.90698	 24.80	
 15.300	154.261	 17.43308	  1.39227	 16.59354	 12.08762	  5.11973	 -0.90122	 19.54144	705.91400	 24.80	
 15.288	147.854	 17.41920	  1.78344	 16.05565	 12.99117	  4.38728	 -0.90730	 19.52228	705.90002	 24.80	
 15.293	141.428	 17.44613	  2.24427	 15.45162	 13.87816	  3.73802	 -0.90220	 19.54159	705.91901	 24.80	
 15.299	134.985	 17.43282	  2.76605	 14.72123	 14.68598	  3.11619	 -0.90897	 19.52125	705.85400	 24.80	
 15.305	128.583	 17.43779	  3.37090	 13.92012	 15.42096	  2.56547	 -0.94012	 19.52896	706.01801	 24.80	
 15.309	122.142	 17.41721	  4.06773	 13.03256	 16.03315	  2.10543	 -0.96494	 19.51020	705.96997	 24.80	
 15.304	115.711	 17.40114	  4.84063	 12.09019	 16.52016	  1.74725	 -0.97117	 19.48883	706.03400	 24.80	
 15.297	109.291	 17.45602	  5.70300	 11.16056	 16.98295	  1.45088	 -0.97539	 19.55597	705.88501	 24.80	
 15.293	102.897	 17.44295	  6.59227	 10.16691	 17.25986	  1.23744	 -0.98097	 19.54324	705.96899	 24.80	
 15.293	 96.458	 17.43209	  7.52879	  9.16133	 17.43150	  1.09921	 -0.97764	 19.54412	705.95001	 24.80	
 15.300	 90.000	 17.41054	  8.48980	  8.15230	 17.47101	  1.03400	 -0.97861	 19.52360	705.93799	 24.80	
 15.293	 83.542	 17.40567	  9.49266	  7.18867	 17.40835	  1.05341	 -0.94142	 19.52508	705.93903	 24.80	
 15.293	 77.103	 17.39557	 10.48862	  6.27692	 17.21906	  1.16406	 -0.89820	 19.52998	705.72400	 24.80	
 15.297	 70.709	 17.39346	 11.46796	  5.37399	 16.92522	  1.36438	 -0.86112	 19.54037	705.86499	 24.80	
 15.304	 64.289	 17.37393	 12.42748	  4.49635	 16.50318	  1.65287	 -0.83039	 19.53940	705.88000	 24.80	
 15.309	 57.858	 17.36435	 13.34030	  3.71690	 15.98849	  2.01032	 -0.82368	 19.54981	705.96698	 24.80	
 15.305	 51.417	 17.34765	 14.17691	  3.02438	 15.34328	  2.44571	 -0.84101	 19.53927	705.97198	 24.80	
 15.299	 45.015	 17.34894	 14.97154	  2.42174	 14.61675	  2.97648	 -0.85328	 19.55614	705.87701	 24.80	
 15.293	 38.572	 17.32587	 15.64974	  1.86635	 13.77325	  3.57717	 -0.86553	 19.53208	706.02301	 24.80	
 15.288	 32.146	 17.31144	 16.23815	  1.39740	 12.88638	  4.21986	 -0.86697	 19.52337	705.96698	 24.80	
 15.300	 25.739	 17.31548	 16.74702	  1.00556	 11.97386	  4.92264	 -0.87684	 19.53160	705.92401	 24.80	
 15.307	 19.324	 17.30452	 17.12718	  0.71126	 10.99721	  5.72323	 -0.88525	 19.52720	705.91602	 24.80	
 15.291	 12.833	 17.29809	 17.39804	  0.51180	  9.99981	  6.60777	 -0.87626	 19.52875	705.88501	 24.80	
 15.298	  6.413	 17.30799	 17.55852	  0.33402	  9.03264	  7.51875	 -0.87119	 19.53659	706.00299	 24.80	
 15.300	  0.000	 17.29698	 17.59326	  0.27788	  8.02914	  8.48281	 -0.86376	 19.52908	706.03802	 24.80	
 15.298	 -6.413	 17.28440	 17.51536	  0.32549	  7.06373	  9.44108	 -0.85664	 19.52329	705.95001	 24.80	
 15.291	-12.833	 17.27114	 17.31810	  0.45806	  6.17090	 10.42307	 -0.84897	 19.52216	705.93597	 24.80	
 15.307	-19.324	 17.26300	 17.02104	  0.64231	  5.30316	 11.42950	 -0.85080	 19.53086	705.88800	 24.80	
 15.300	-25.739	 17.24809	 16.58159	  0.97395	  4.48798	 12.37713	 -0.84990	 19.53017	706.03101	 24.80	
 15.288	-32.146	 17.25130	 16.04938	  1.38772	  3.72134	 13.28910	 -0.85247	 19.53311	706.07300	 24.80	
 15.293	-38.572	 17.21861	 15.39727	  1.84983	  3.00028	 14.14546	 -0.85051	 19.51310	706.05402	 24.80	
 15.299	-45.015	 17.22223	 14.67605	  2.40099	  2.37284	 14.97351	 -0.86343	 19.54194	706.00299	 24.80	
 15.305	-51.417	 17.19871	 13.85193	  3.02544	  1.81889	 15.66442	 -0.85876	 19.52653	706.03699	 24.80	
 15.309	-57.858	 17.22531	 12.99770	  3.71995	  1.36498	 16.31673	 -0.86882	 19.56314	706.01099	 24.80	
 15.304	-64.289	 17.23524	 12.07084	  4.46027	  0.94956	 16.85414	 -0.86634	 19.56948	706.06500	 24.80	
 15.297	-70.709	 17.17996	 11.06193	  5.28070	  0.63494	 17.22424	 -0.86617	 19.52343	706.19800	 24.80	
 15.293	-77.103	 17.17511	 10.08318	  6.20653	  0.41338	 17.52718	 -0.87307	 19.52014	706.02600	 24.80	
 15.293	-83.542	 17.16054	  9.07399	  7.10512	  0.29982	 17.70042	 -0.86744	 19.51540	705.98999	 24.80	
 15.300	-90.000	 17.17709	  8.08370	  8.04254	  0.29333	 17.79749	 -0.89578	 19.53548	706.06897	 24.80	
 15.293	-96.458	 17.16465	  7.11204	  9.03190	  0.32971	 17.73101	 -0.92250	 19.52160	706.06299	 24.80	
 15.293	-102.897	 17.18810	  6.19175	 10.04597	  0.46273	 17.58807	 -0.93228	 19.54255	706.00299	 24.80	
 15.297	-109.291	 17.18612	  5.32205	 11.01791	  0.67729	 17.30362	 -0.93882	 19.52752	706.06500	 24.80	
 15.304	-115.711	 17.21158	  4.51121	 12.00438	  0.97039	 16.93099	 -0.91721	 19.55531	705.94202	 24.80	
 15.309	-122.142	 17.22390	  3.75247	 12.94555	  1.36260	 16.42654	 -0.88816	 19.54900	705.89001	 24.80	
 15.305	-128.583	 17.21570	  3.07846	 13.79983	  1.82633	 15.80282	 -0.87733	 19.51501	705.88800	 24.80	
 15.299	-134.985	 17.24230	  2.48011	 14.61055	  2.38893	 15.13174	 -0.86911	 19.52987	705.85699	 24.80	
 15.293	-141.428	 17.24241	  1.95724	 15.32882	  3.06688	 14.31951	 -0.89755	 19.50951	705.88501	 24.80	
 15.288	-147.854	 17.26906	  1.52456	 15.97064	  3.79070	 13.47099	 -0.92234	 19.51003	705.83698	 24.80	
 15.300	-154.261	 17.28740	  1.16456	 16.50696	  4.55818	 12.58131	 -0.94897	 19.52279	705.95599	 24.80	
 15.307	-160.676	 17.30609	  0.90391	 16.92686	  5.37474	 11.64381	 -0.96796	 19.53037	705.92102	 24.80	
 15.291	-167.167	 17.33175	  0.74551	 17.22538	  6.25385	 10.65691	 -0.96783	 19.52651	705.85999	 24.80	
 15.298	-173.587	 17.37790	  0.65405	 17.43400	  7.16463	  9.69921	 -0.97143	 19.56792	706.07300	 24.80	
 15.300	180.000	 17.34307	  0.64503	 17.45616	  8.10367	  8.71257	 -0.95052	 19.50821	706.01398	 24.80	
 17.000	180.000	 16.76496	 -0.47103	 17.94947	  7.61412	  8.22417	 -1.03366	 19.49909	706.05701	 24.80	
 16.990	-174.179	 16.76639	 -0.45918	 17.90274	  6.67631	  9.19137	 -1.04959	 19.51504	706.06500	 24.80	
 17.009	-168.383	 16.74273	 -0.38349	 17.74583	  5.79290	 10.16444	 -1.04317	 19.51785	706.02100	 24.80	
 17.000	-162.596	 16.72301	 -0.22156	 17.46680	  4.91582	 11.14011	 -1.03946	 19.51227	706.12799	 24.80	
 16.990	-156.759	 16.71948	  0.00968	 17.09586	  4.09456	 12.09432	 -1.03271	 19.52057	706.05701	 24.80	
 16.995	-150.919	 16.71657	  0.30909	 16.63188	  3.26739	 13.03506	 -1.02374	 19.53829	705.97803	 24.80	
 16.988	-145.161	 16.66924	  0.67680	 16.02574	  2.50280	 13.89145	 -1.01298	 19.50339	706.14203	 24.80	
 17.014	-139.343	 16.65947	  1.10659	 15.37202	  1.83437	 14.73418	 -0.98947	 19.52996	706.08801	 24.80	
 17.007	-133.546	 16.64342	  1.63352	 14.62080	  1.27215	 15.47254	 -0.97089	 19.52069	706.10400	 24.80	
 17.001	-127.699	 16.60973	  2.22489	 13.77629	  0.75327	 16.14894	 -0.95697	 19.50671	706.06799	 24.80	
 17.006	-121.937	 16.63832	  2.88708	 12.93169	  0.31609	 16.78735	 -0.97322	 19.55626	706.14398	 24.80	
 17.002	-116.134	 16.59615	  3.60949	 11.97644	 -0.05549	 17.26203	 -0.96761	 19.53161	706.21399	 24.80	
 17.001	-110.310	 16.59992	  4.40492	 11.01623	 -0.35358	 17.68447	 -0.96590	 19.54116	706.15002	 24.80	
 16.988	-104.517	 16.57862	  5.25652	 10.01682	 -0.55346	 17.94745	 -0.94090	 19.51335	706.35199	 24.80	
 17.008	-98.662	 16.56590	  6.14811	  9.01406	 -0.71034	 18.14933	 -0.89246	 19.51736	706.17798	 24.80	
 16.996	-92.909	 16.57635	  7.08239	  8.04124	 -0.77612	 18.23770	 -0.87248	 19.51532	706.03699	 24.80	
 16.996	-87.091	 16.59950	  8.06578	  7.06725	 -0.77124	 18.24825	 -0.85202	 19.54499	706.12402	 24.80	
 17.012	-81.253	 16.57620	  9.04246	  6.09309	 -0.72450	 18.12535	 -0.81181	 19.52254	706.08197	 24.90	
 16.988	-75.483	 16.59850	 10.03299	  5.20695	 -0.56461	 17.91151	 -0.80918	 19.52999	706.08502	 24.90	
 17.001	-69.690	 16.59111	 11.01377	  4.36410	 -0.37158	 17.59799	 -0.80556	 19.52905	706.01501	 24.90	
 17.002	-63.866	 16.60390	 11.99367	  3.61285	 -0.07878	 17.17886	 -0.81602	 19.53858	706.13898	 24.80	
 17.006	-58.063	 16.59360	 12.91037	  2.87190	  0.27319	 16.63414	 -0.81131	 19.50847	706.09302	 24.90	
 17.001	-52.301	 16.63757	 13.82590	  2.19685	  0.70649	 16.05505	 -0.83002	 19.54608	706.03699	 24.90	
 17.007	-46.454	 16.64150	 14.66015	  1.52492	  1.20696	 15.34697	 -0.84752	 19.53198	706.06201	 24.90	
 17.014	-40.657	 16.63625	 15.40167	  0.93335	  1.76015	 14.57576	 -0.85266	 19.52383	706.04602	 24.90	
 16.988	-34.839	 16.67270	 16.07853	  0.46424	  2.43015	 13.74028	 -0.86533	 19.53601	706.04901	 24.90	
 16.995	-29.081	 16.68995	 16.66883	  0.07844	  3.17337	 12.85364	 -0.87498	 19.53358	706.03400	 24.90	
 16.990	-23.241	 16.67726	 17.14283	 -0.24990	  4.00007	 11.90213	 -0.86222	 19.51291	706.17297	 24.90	
 17.000	-17.404	 16.72186	 17.57775	 -0.53078	  4.84728	 10.96340	 -0.86131	 19.56165	705.89899	 24.90	
 17.009	-11.617	 16.70856	 17.83940	 -0.69448	  5.72821	  9.96926	 -0.85160	 19.53631	706.08197	 24.90	
 16.990	 -5.821	 16.74069	 18.02052	 -0.75605	  6.60867	  9.00557	 -0.85151	 19.54794	706.01801	 24.90	
 17.000	  0.000	 16.75068	 18.10164	 -0.79550	  7.55163	  8.03209	 -0.84578	 19.55551	705.93903	 24.90	
 16.990	  5.821	 16.74424	 18.05829	 -0.75520	  8.53987	  7.05286	 -0.86572	 19.54745	706.07300	 24.90	
 17.009	 11.617	 16.72518	 17.90547	 -0.66825	  9.51752	  6.13544	 -0.86330	 19.52205	705.94397	 24.90	
 17.000	 17.404	 16.74503	 17.68283	 -0.48181	 10.49603	  5.27552	 -0.86185	 19.55014	706.02899	 24.90	
 16.990	 23.241	 16.73325	 17.32543	 -0.21640	 11.47418	  4.48334	 -0.86504	 19.53564	706.03101	 24.90	
 16.995	 29.081	 16.76583	 16.89808	  0.11426	 12.43757	  3.76601	 -0.88195	 19.55474	706.06201	 24.90	
 16.988	 34.839	 16.73803	 16.32420	  0.52520	 13.30835	  3.08630	 -0.90422	 19.51409	706.14697	 24.90	
 17.014	 40.657	 16.75065	 15.71025	  0.99126	 14.19464	  2.43222	 -0.92261	 19.54050	706.06500	 24.90	
 17.007	 46.454	 16.74716	 14.97964	  1.55832	 14.97926	  1.87157	 -0.92223	 19.52854	706.17499	 24.80	
 17.001	 52.301	 16.77856	 14.19275	  2.19297	 15.71057	  1.36814	 -0.92836	 19.53975	706.20398	 24.90	
 17.006	 58.063	 16.78816	 13.33821	  2.87026	 16.33935	  0.93711	 -0.92945	 19.54075	706.22601	 24.90	
 17.002	 63.866	 16.80935	 12.42654	  3.60831	 16.87761	  0.57273	 -0.93534	 19.54515	706.30499	 24.90	
 17.001	 69.690	 16.83814	 11.49188	  4.42337	 17.34712	  0.29311	 -0.95428	 19.56625	706.27301	 24.90	
 16.988	 75.483	 16.83237	 10.50199	  5.30087	 17.65386	  0.08787	 -0.98642	 19.54776	706.21802	 24.90	
 17.012	 81.253	 16.81424	  9.51462	  6.20013	 17.86196	 -0.05435	 -0.98749	 19.52731	706.08502	 24.90	
 16.996	 87.091	 16.83219	  8.51828	  7.16747	 17.96296	 -0.09248	 -0.98927	 19.52567	706.07703	 24.80	
 16.996	 92.909	 16.84299	  7.54429	  8.15443	 17.96822	 -0.07655	 -0.99299	 19.52642	706.02899	 24.80	
 17.008	 98.662	 16.85177	  6.60521	  9.13440	 17.87471	 -0.02020	 -0.97964	 19.52581	706.16400	 24.80	
 16.988	104.517	 16.88248	  5.70216	 10.15784	 17.68537	  0.15056	 -0.97965	 19.54906	706.10101	 24.90	
 17.001	110.310	 16.85350	  4.82666	 11.12774	 17.35134	  0.36238	 -0.99560	 19.51982	706.07703	 24.80	
 17.002	116.134	 16.85276	  4.00305	 12.09227	 16.91573	  0.67750	 -1.01903	 19.50870	706.18597	 24.80	
 17.006	121.937	 16.89161	  3.25518	 13.04137	 16.42754	  1.05255	 -1.02117	 19.54907	706.18103	 24.90	
 17.001	127.699	 16.88886	  2.57538	 13.91200	 15.80174	  1.50711	 -1.02325	 19.54195	706.19800	 24.90	
 17.007	133.546	 16.90680	  1.94579	 14.75780	 15.11688	  2.01056	 -1.02536	 19.56786	706.15503	 24.80	
 17.014	139.343	 16.85268	  1.38624	 15.46626	 14.29290	  2.57930	 -1.03024	 19.51325	706.18597	 24.80	
 16.988	145.161	 16.86552	  0.92850	 16.12740	 13.43084	  3.24239	 -1.02842	 19.51702	706.30798	 24.90	
 16.995	150.919	 16.83712	  0.51834	 16.66566	 12.51907	  3.92000	 -1.04149	 19.49983	706.18701	 24.90	
 16.990	156.759	 16.86019	  0.17662	 17.17311	 11.60209	  4.66102	 -1.04193	 19.53703	706.13501	 24.80	
 17.000	162.596	 16.86238	 -0.09344	 17.55942	 10.62348	  5.50472	 -1.03016	 19.56096	706.07898	 24.80	
 17.009	168.383	 16.82513	 -0.30017	 17.79060	  9.61465	  6.36993	 -1.03486	 19.53805	706.00702	 24.90	
 16.990	174.179	 16.81208	 -0.40926	 17.92373	  8.62754	  7.28505	 -1.04108	 19.53296	706.20300	 24.90	
 18.709	174.675	 16.19099	 -1.47232	 18.37592	  8.11235	  6.76561	 -1.07708	 19.53933	706.12500	 24.90	
 18.703	169.441	 16.19212	 -1.36349	 18.23542	  9.06635	  5.87838	 -1.09790	 19.52627	706.27698	 24.90	
 18.691	164.085	 16.22815	 -1.18743	 18.02361	 10.08516	  5.00529	 -1.11014	 19.54972	706.28003	 24.90	
 18.706	158.818	 16.23876	 -0.97466	 17.71665	 11.07358	  4.18672	 -1.11189	 19.55690	706.11798	 24.90	
 18.695	153.537	 16.23207	 -0.66664	 17.26035	 12.00143	  3.43592	 -1.10890	 19.51835	706.24500	 24.90	
 18.704	148.255	 16.24223	 -0.31967	 16.74518	 12.92729	  2.72375	 -1.11820	 19.52568	706.10999	 24.90	
 18.698	142.952	 16.25513	  0.08749	 16.14126	 13.82403	  2.02699	 -1.10193	 19.53387	706.16998	 24.80	
 18.699	137.625	 16.25698	  0.58137	 15.44672	 14.65398	  1.39908	 -1.08241	 19.52337	706.17499	 24.90	
 18.705	132.343	 16.25742	  1.11928	 14.69397	 15.41118	  0.85632	 -1.06390	 19.51967	706.21100	 24.90	
 18.713	127.067	 16.26855	  1.71445	 13.88373	 16.12080	  0.35475	 -1.04383	 19.55379	706.33600	 24.90	
 18.700	121.794	 16.23214	  2.39501	 12.97068	 16.70092	 -0.05309	 -1.01270	 19.50525	706.25098	 24.90	
 18.698	116.504	 16.23069	  3.12768	 12.05008	 17.23390	 -0.40161	 -0.97038	 19.51009	706.26599	 24.90	
 18.707	111.165	 16.23744	  3.92519	 11.08783	 17.67686	 -0.69716	 -0.94182	 19.52935	706.27698	 24.90	
 18.690	105.863	 16.26920	  4.78459	 10.13569	 18.03422	 -0.89900	 -0.91587	 19.55743	706.29797	 24.90	
 18.696	100.583	 16.22267	  5.66279	  9.11839	 18.21577	 -1.04971	 -0.89529	 19.50640	706.22302	 24.90	
 18.700	 95.309	 16.25145	  6.58969	  8.15226	 18.38556	 -1.15615	 -0.90416	 19.54694	706.19501	 24.90	
 18.700	 90.000	 16.24639	  7.54898	  7.16996	 18.42798	 -1.19831	 -0.92672	 19.54134	706.17798	 24.90	
 18.700	 84.691	 16.21769	  8.52582	  6.19522	 18.35685	 -1.17312	 -0.96473	 19.52930	706.27600	 24.90	
 18.696	 79.417	 16.21085	  9.49958	  5.27532	 18.20408	 -1.09315	 -0.99635	 19.52807	706.32898	 24.90	
 18.690	 74.137	 16.21391	 10.48117	  4.39752	 17.97750	 -0.95382	 -1.00927	 19.54900	706.43903	 24.90	
 18.707	 68.835	 16.18031	 11.43846	  3.52322	 17.62495	 -0.77056	 -1.01174	 19.53493	706.35498	 24.90	
 18.698	 63.496	 16.18013	 12.39497	  2.73718	 17.18410	 -0.49414	 -0.99931	 19.54226	706.27698	 24.90	
 18.700	 58.206	 16.15213	 13.26671	  1.99924	 16.62993	 -0.15642	 -0.98743	 19.52371	706.38599	 24.90	
 18.713	 52.933	 16.11793	 14.14065	  1.32699	 16.00121	  0.15206	 -0.84696	 19.46910	706.34698	 24.90	
 18.705	 47.657	 16.10608	 14.94331	  0.72809	 15.28925	  0.63116	 -0.83373	 19.46600	706.34601	 24.90	
 18.699	 42.375	 16.11333	 15.69698	  0.18246	 14.53801	  1.15602	 -0.80823	 19.49059	706.38397	 24.90	
 18.698	 37.048	 16.09868	 16.35224	 -0.29572	 13.69170	  1.77618	 -0.77862	 19.48169	706.23901	 24.90	
 18.704	 31.745	 16.09514	 16.94567	 -0.71349	 12.79240	  2.45764	 -0.74083	 19.47912	706.31097	 24.90	
 18.695	 26.463	 16.07252	 17.41127	 -1.05694	 11.84699	  3.16572	 -0.70300	 19.44879	706.35303	 24.90	
 18.706	 21.182	 16.07738	 17.82848	 -1.34242	 10.91218	  3.90958	 -0.67551	 19.47029	706.38300	 24.90	
 18.691	 15.915	 16.08736	 18.13737	 -1.54745	  9.94273	  4.70364	 -0.67026	 19.47503	706.33801	 24.90	
 18.703	 10.559	 16.08360	 18.36373	 -1.71486	  8.94821	  5.55966	 -0.65831	 19.48033	706.39398	 24.90	
 18.709	  5.325	 16.07274	 18.47696	 -1.80525	  7.99295	  6.45046	 -0.65651	 19.47613	706.26801	 24.90	
 18.700	  0.000	 16.07083	 18.49538	 -1.83333	  7.01590	  7.40517	 -0.67774	 19.46826	706.32098	 24.90	
 18.709	 -5.325	 16.07232	 18.44616	 -1.81882	  6.10266	  8.36968	 -0.67706	 19.48690	706.44800	 24.90	
 18.703	-10.559	 16.05636	 18.27701	 -1.73511	  5.22426	  9.32368	 -0.67989	 19.46661	706.57202	 24.90	
 18.691	-15.915	 16.08706	 18.05214	 -1.58106	  4.34021	 10.33780	 -0.68684	 19.50769	706.42200	 24.90	
 18.706	-21.182	 16.04113	 17.67178	 -1.37956	  3.42539	 11.26072	 -0.71366	 19.47038	706.45898	 24.90	
 18.695	-26.463	 16.05606	 17.25118	 -1.09553	  2.65835	 12.22730	 -0.70004	 19.49260	706.33301	 24.90	
 18.704	-31.745	 16.01768	 16.68531	 -0.76716	  1.91904	 13.12053	 -0.72014	 19.46878	706.39398	 24.90	
 18.698	-37.048	 16.00775	 16.06140	 -0.36398	  1.26145	 14.00040	 -0.68780	 19.47285	706.37701	 24.90	
 18.699	-42.375	 15.98460	 15.34390	  0.10986	  0.67000	 14.80194	 -0.68791	 19.45853	706.39398	 24.90	
 18.705	-47.657	 15.98025	 14.58257	  0.63362	  0.12921	 15.56513	 -0.68351	 19.47787	706.36700	 24.90	
 18.713	-52.933	 15.97399	 13.75682	  1.23894	 -0.34427	 16.26698	 -0.66000	 19.49755	706.33600	 24.90	
 18.700	-58.206	 15.94733	 12.85167	  1.91310	 -0.73018	 16.85032	 -0.64803	 19.47005	706.50201	 24.90	
 18.698	-63.496	 15.94027	 11.92215	  2.65331	 -1.03782	 17.34566	 -0.61727	 19.45945	706.39398	 24.90	
 18.707	-68.835	 15.94455	 10.96029	  3.44553	 -1.31192	 17.79859	 -0.60439	 19.47826	706.36902	 24.90	
 18.690	-74.137	 15.95524	  9.97496	  4.29252	 -1.50009	 18.13903	 -0.60827	 19.48275	706.45599	 24.90	
 18.696	-79.417	 15.95115	  8.99465	  5.15921	 -1.65845	 18.38162	 -0.61771	 19.48904	706.39398	 24.90	
 18.700	-84.691	 15.92534	  8.00696	  6.06331	 -1.76571	 18.51157	 -0.63053	 19.47752	706.39502	 24.90	
 18.700	-90.000	 15.90767	  7.02849	  7.01765	 -1.79698	 18.55493	 -0.64983	 19.45825	706.44299	 24.90	
 18.700	-95.309	 15.90560	  6.08919	  7.98983	 -1.75980	 18.52443	 -0.67870	 19.45612	706.36401	 24.90	
 18.696	-100.583	 15.94307	  5.20128	  8.99220	 -1.66140	 18.43135	 -0.73411	 19.50357	706.38300	 24.90	
 18.690	-105.863	 15.92020	  4.33589	  9.95458	 -1.51607	 18.17995	 -0.78624	 19.46360	706.45099	 24.90	
 18.707	-111.165	 15.92792	  3.50715	 10.94339	 -1.31148	 17.87960	 -0.84645	 19.48099	706.42200	 24.90	
 18.698	-116.504	 15.95573	  2.74637	 11.92241	 -1.03092	 17.48013	 -0.88025	 19.49501	706.40302	 24.90	
 18.700	-121.794	 15.95138	  2.02934	 12.82468	 -0.70141	 16.96918	 -0.88983	 19.47724	706.26001	 24.90	
 18.713	-127.067	 15.95374	  1.38366	 13.70775	 -0.29948	 16.38186	 -0.90120	 19.46500	706.45898	 24.90	
 18.705	-132.343	 15.95224	  0.80568	 14.52633	  0.18551	 15.69797	 -0.91306	 19.44416	706.44598	 24.90	
 18.699	-137.625	 16.01569	  0.30782	 15.33153	  0.74225	 14.99525	 -0.90850	 19.49543	706.52899	 24.90	
 18.698	-142.952	 16.01897	 -0.13651	 16.01468	  1.34550	 14.18222	 -0.92533	 19.46764	706.48199	 24.90	
 18.704	-148.255	 16.03261	 -0.52930	 16.63949	  2.00432	 13.33549	 -0.92814	 19.46982	706.48102	 24.90	
 18.695	-153.537	 16.05284	 -0.84601	 17.17395	  2.74569	 12.42166	 -0.93757	 19.47061	706.41901	 24.90	
 18.706	-158.818	 16.06176	 -1.10906	 17.60943	  3.58549	 11.49000	 -0.91851	 19.46180	706.36700	 24.90	
 18.691	-164.085	 16.11206	 -1.30059	 17.98491	  4.43281	 10.56774	 -0.91445	 19.50454	706.35199	 24.90	
 18.703	-169.441	 16.11948	 -1.43851	 18.22060	  5.32689	  9.56769	 -0.93576	 19.49058	706.48700	 24.90	
 18.709	-174.675	 16.11361	 -1.50433	 18.33650	  6.18336	  8.58525	 -0.94722	 19.45953	706.46503	 24.90	
 18.700	180.000	 16.16217	 -1.50825	 18.41563	  7.12234	  7.64367	 -0.94887	 19.48718	706.50098	 24.90	
 20.400	180.000	 15.48547	 -2.53937	 18.78565	  6.58836	  7.10013	 -0.90418	 19.50213	706.45599	 24.90	
 20.401	-175.153	 15.45610	 -2.52775	 18.73141	  5.67988	  8.02687	 -0.87603	 19.48875	706.38300	 24.90	
 20.407	-170.264	 15.43547	 -2.47381	 18.60048	  4.77353	  9.00011	 -0.85479	 19.49006	706.41498	 24.90	
 20.410	-165.423	 15.42107	 -2.37450	 18.39834	  3.85996	  9.96673	 -0.84762	 19.50073	706.32501	 24.90	
 20.392	-160.496	 15.41821	 -2.19228	 18.08673	  3.03630	 10.92951	 -0.86074	 19.50553	706.48700	 24.90	
 20.401	-155.705	 15.37707	 -1.97139	 17.66586	  2.25346	 11.83930	 -0.87599	 19.47768	706.54102	 24.90	
 20.405	-150.835	 15.35704	 -1.70465	 17.17805	  1.50250	 12.76147	 -0.89172	 19.48835	706.38000	 24.90	
 20.397	-145.903	 15.35588	 -1.36071	 16.60969	  0.82908	 13.65603	 -0.91170	 19.50325	706.45398	 24.90	
 20.392	-141.062	 15.32900	 -0.97158	 15.95882	  0.21479	 14.48027	 -0.92597	 19.49490	706.44800	 24.90	
 20.396	-136.227	 15.27901	 -0.52944	 15.21656	 -0.35498	 15.23063	 -0.91926	 19.46068	706.43103	 24.90	
 20.408	-131.372	 15.27974	 -0.03760	 14.45113	 -0.87468	 15.97369	 -0.90963	 19.49296	706.39203	 24.90	
 20.410	-126.511	 15.25291	  0.52755	 13.59999	 -1.30275	 16.61187	 -0.89680	 19.47834	706.30103	 24.90	
 20.400	-121.604	 15.23243	  1.16717	 12.69692	 -1.66684	 17.17197	 -0.88839	 19.45659	706.51001	 24.90	
 20.403	-116.741	 15.23959	  1.84995	 11.78579	 -1.97919	 17.69480	 -0.84707	 19.48601	706.46698	 24.90	
 20.413	-111.900	 15.22191	  2.57553	 10.83743	 -2.24520	 18.11001	 -0.79033	 19.48948	706.58301	 24.90	
 20.398	-107.004	 15.23951	  3.37703	  9.88103	 -2.44350	 18.46756	 -0.72541	 19.51604	706.44000	 24.90	
 20.394	-102.132	 15.20193	  4.21385	  8.88024	 -2.58333	 18.66184	 -0.68059	 19.46670	706.37701	 24.90	
 20.403	-97.332	 15.20811	  5.07344	  7.92207	 -2.70170	 18.83177	 -0.64376	 19.47671	706.50201	 24.90	
 20.392	-92.440	 15.21012	  5.98546	  6.94622	 -2.76074	 18.89630	 -0.60843	 19.47271	706.42297	 24.90	
 20.392	-87.560	 15.21127	  6.93839	  5.99579	 -2.76008	 18.89382	 -0.58227	 19.47780	706.42200	 24.90	
 20.403	-82.668	 15.20224	  7.89172	  5.05904	 -2.70645	 18.79654	 -0.56994	 19.46788	706.48798	 24.90	
 20.394	-77.868	 15.21931	  8.84922	  4.18760	 -2.59303	 18.63092	 -0.55047	 19.48383	706.59198	 24.90	
 20.398	-72.996	 15.22524	  9.82938	  3.33179	 -2.44558	 18.37647	 -0.55112	 19.47298	706.48700	 24.90	
 20.413	-68.100	 15.22474	 10.79869	  2.52645	 -2.24615	 18.02273	 -0.55151	 19.47648	706.45599	 24.90	
 20.403	-63.259	 15.24446	 11.74915	  1.78521	 -1.97918	 17.60011	 -0.54888	 19.48301	706.51898	 24.90	
 20.400	-58.396	 15.24558	 12.68469	  1.07876	 -1.68386	 17.06833	 -0.57902	 19.46255	706.41498	 24.90	
 20.410	-53.489	 15.27041	 13.60474	  0.40382	 -1.33235	 16.50323	 -0.60425	 19.49723	706.39801	 24.90	
 20.408	-48.628	 15.27804	 14.44647	 -0.19018	 -0.91977	 15.83377	 -0.63088	 19.48737	706.50098	 24.90	
 20.396	-43.773	 15.28837	 15.21914	 -0.70549	 -0.42696	 15.07305	 -0.65713	 19.46196	706.35602	 24.90	
 20.392	-38.938	 15.33240	 15.96760	 -1.17220	  0.12116	 14.30524	 -0.65165	 19.49770	706.41101	 24.90	
 20.397	-34.097	 15.34123	 16.62353	 -1.57215	  0.72985	 13.46799	 -0.65766	 19.49324	706.48999	 24.90	
 20.405	-29.165	 15.31945	 17.17566	 -1.92151	  1.39412	 12.53660	 -0.66539	 19.45387	706.40100	 24.90	
 20.401	-24.295	 15.33957	 17.68103	 -2.20055	  2.13848	 11.60916	 -0.65637	 19.45713	706.42297	 24.90	
 20.392	-19.504	 15.36821	 18.10067	 -2.43073	  2.91424	 10.68746	 -0.66141	 19.48117	706.49597	 24.90	
 20.410	-14.577	 15.38385	 18.44321	 -2.60822	  3.73200	  9.72645	 -0.65564	 19.49870	706.48499	 24.90	
 20.407	 -9.736	 15.36082	 18.64237	 -2.73330	  4.60287	  8.73952	 -0.63667	 19.46612	706.48499	 24.90	
 20.401	 -4.847	 15.39252	 18.80961	 -2.82031	  5.58493	  7.79589	 -0.60829	 19.49848	706.54401	 24.90	
 20.400	  0.000	 15.39088	 18.85818	 -2.83634	  6.50155	  6.85923	 -0.59478	 19.48640	706.58801	 24.90	
 20.401	  4.847	 15.37817	 18.82604	 -2.81213	  7.39641	  5.91702	 -0.60533	 19.47046	706.51300	 24.90	
 20.407	  9.736	 15.38104	 18.72451	 -2.73005	  8.35783	  5.03136	 -0.59800	 19.47753	706.49298	 24.90	
 20.410	 14.577	 15.38718	 18.54886	 -2.60515	  9.32607	  4.19203	 -0.59606	 19.48825	706.51801	 24.90	
 20.392	 19.504	 15.40200	 18.26790	 -2.42893	 10.32534	  3.39702	 -0.60201	 19.48953	706.61102	 24.90	
 20.401	 24.295	 15.39979	 17.90500	 -2.18309	 11.25242	  2.61825	 -0.62376	 19.48227	706.51898	 24.90	
 20.405	 29.165	 15.41331	 17.46416	 -1.88206	 12.22825	  1.88262	 -0.66867	 19.49630	706.58301	 24.90	
 20.397	 34.097	 15.39401	 16.88592	 -1.51564	 13.13299	  1.20083	 -0.70816	 19.46298	706.59698	 24.90	
 20.392	 38.938	 15.42494	 16.29682	 -1.09787	 14.02354	  0.60150	 -0.77018	 19.49376	706.50098	 24.90	
 20.396	 43.773	 15.43188	 15.61380	 -0.62094	 14.82528	  0.06629	 -0.80846	 19.49234	706.48199	 24.90	
 20.408	 48.628	 15.41226	 14.84175	 -0.10035	 15.56473	 -0.43679	 -0.83915	 19.46590	706.58398	 24.90	
 20.410	 53.489	 15.41814	 14.02772	  0.48541	 16.25777	 -0.88294	 -0.86574	 19.47064	706.55499	 24.90	
 20.400	 58.396	 15.42772	 13.14998	  1.14433	 16.86318	 -1.25607	 -0.87930	 19.45135	706.52399	 24.90	
 20.403	 63.259	 15.47010	 12.26845	  1.86236	 17.42125	 -1.56361	 -0.89443	 19.48211	706.53998	 24.90	
 20.413	 68.100	 15.44756	 11.33678	  2.61092	 17.82239	 -1.81523	 -0.89686	 19.43612	706.52399	 24.90	
 20.398	 72.996	 15.48384	 10.39680	  3.43981	 18.21090	 -2.02118	 -0.88231	 19.45949	706.48700	 24.90	
 20.394	 77.868	 15.49007	  9.42421	  4.30411	 18.48409	 -2.17089	 -0.85260	 19.46473	706.58002	 24.90	
 20.403	 82.668	 15.48934	  8.46686	  5.17073	 18.65088	 -2.27425	 -0.78791	 19.45912	706.58301	 24.90	
 20.392	 87.560	 15.53568	  7.51345	  6.12797	 18.76993	 -2.30719	 -0.74676	 19.48888	706.52899	 24.90	
 20.392	 92.440	 15.55008	  6.55538	  7.09529	 18.78049	 -2.30033	 -0.71562	 19.49119	706.50098	 24.90	
 20.403	 97.332	 15.54529	  5.62186	  8.07079	 18.69625	 -2.23741	 -0.69917	 19.48683	706.50201	 24.90	
 20.394	102.132	 15.55247	  4.73360	  9.04091	 18.52297	 -2.11586	 -0.68916	 19.46913	706.51898	 24.90	
 20.398	107.004	 15.55631	  3.86572	 10.02421	 18.27231	 -1.94917	 -0.70958	 19.47369	706.56299	 24.90	
 20.413	111.900	 15.55803	  3.05372	 10.99395	 17.93201	 -1.73652	 -0.74440	 19.47926	706.53497	 24.90	
 20.403	116.741	 15.55404	  2.29124	 11.92996	 17.49491	 -1.45913	 -0.78326	 19.47452	706.54901	 24.90	
 20.400	121.604	 15.55429	  1.57765	 12.84445	 16.97930	 -1.13148	 -0.82445	 19.46075	706.64301	 24.90	
 20.410	126.511	 15.55826	  0.90884	 13.74303	 16.38607	 -0.75334	 -0.88924	 19.47432	706.64203	 24.90	
 20.408	131.372	 15.55859	  0.31862	 14.57216	 15.70249	 -0.29024	 -0.93791	 19.46068	706.55200	 24.90	
 20.396	136.227	 15.59455	 -0.20964	 15.37444	 14.97925	  0.21800	 -0.95957	 19.49955	706.39203	 24.90	
 20.392	141.062	 15.56193	 -0.67681	 16.05546	 14.16152	  0.77562	 -0.98281	 19.46353	706.55499	 24.90	
 20.397	145.903	 15.55975	 -1.11033	 16.69894	 13.31833	  1.38047	 -0.99326	 19.47827	706.48499	 24.90	
 20.405	150.835	 15.55635	 -1.48233	 17.27432	 12.40266	  2.08208	 -1.01156	 19.47720	706.44299	 24.90	
 20.401	155.705	 15.53830	 -1.78575	 17.73990	 11.45268	  2.82007	 -1.01366	 19.47293	706.53497	 24.90	
 20.392	160.496	 15.51914	 -2.04164	 18.10741	 10.50335	  3.57416	 -1.00256	 19.46036	706.45697	 24.90	
 20.410	165.423	 15.50775	 -2.25103	 18.41129	  9.51529	  4.41092	 -0.99944	 19.47496	706.51001	 24.90	
 20.407	170.264	 15.49889	 -2.39492	 18.61018	  8.50477	  5.27116	 -0.96868	 19.47371	706.55499	 24.90	
 20.401	175.153	 15.48266	 -2.48945	 18.72310	  7.54150	  6.16019	 -0.93685	 19.47460	706.42297	 24.90	
  0.141	 45.000	 19.49490	 10.53920	 10.25242	 10.32775	 10.70711	  0.14230	 19.46782	706.45398	 24.90	
  4.001	128.691	 19.46567	  8.97179	 11.62224	 11.96023	  8.89076	  0.07402	 19.48568	706.62201	 24.90	
  4.002	 76.995	 19.45815	 10.89671	  9.65477	 12.42801	  8.45016	  0.07163	 19.48303	706.49597	 24.90	
  4.002	 25.892	 19.43294	 12.45745	  8.21142	 11.16474	  9.57363	  0.06152	 19.46341	706.50403	 24.90	
  4.002	-25.892	 19.44991	 12.44803	  8.23006	  9.17494	 11.56057	  0.04494	 19.49380	706.43402	 24.90	
  4.002	-76.995	 19.43133	 10.79840	  9.60586	  8.01448	 12.86812	  0.02885	 19.49250	706.46301	 24.90	
  4.001	-128.691	 19.43358	  8.87145	 11.59049	  8.37576	 12.42123	  0.05317	 19.47539	706.48999	 24.90	
  4.000	180.000	 19.45162	  8.12099	 12.51619	 10.09729	 10.62635	  0.07869	 19.47269	706.45898	 25.00	
  8.000	180.000	 19.07582	  5.50929	 14.56308	  9.64803	 10.18933	 -0.21014	 19.49271	706.51300	 24.90	
  7.991	-152.370	 19.02378	  5.88596	 13.95441	  7.54270	 12.34444	 -0.20444	 19.47230	706.40802	 24.90	
  7.997	-124.550	 18.98062	  7.19366	 12.34253	  6.02185	 14.07844	 -0.24851	 19.46899	706.67603	 25.00	
  8.006	-96.837	 18.98154	  9.17276	 10.19235	  5.37952	 14.90195	 -0.31268	 19.48434	706.48798	 25.00	
  7.988	-69.228	 18.99238	 11.42871	  8.09416	  5.60353	 14.59654	 -0.33138	 19.50140	706.49500	 25.00	
  7.997	-41.563	 18.97675	 13.38768	  6.41573	  6.65001	 13.21667	 -0.30247	 19.46244	706.57202	 25.00	
  8.008	-13.821	 19.01659	 14.56925	  5.51641	  8.56029	 11.11942	 -0.24369	 19.48752	706.59698	 25.00	
  8.008	 13.821	 19.03411	 14.61373	  5.53438	 10.73404	  8.90832	 -0.23834	 19.48483	706.56000	 25.00	
  7.997	 41.563	 19.06894	 13.55517	  6.42130	 12.84862	  7.08666	 -0.18842	 19.50792	706.39099	 25.00	
  7.988	 69.228	 19.07815	 11.62546	  8.07586	 14.22419	  6.03610	 -0.18985	 19.48498	706.48499	 25.00	
  8.006	 96.837	 19.06519	  9.38264	 10.21729	 14.50012	  5.84376	 -0.22887	 19.45945	706.53601	 25.00	
  7.997	124.550	 19.08111	  7.39481	 12.40872	 13.65478	  6.53066	 -0.21413	 19.46761	706.52899	 25.00	
  7.991	152.370	 19.10069	  6.03352	 14.00564	 11.87637	  8.09707	 -0.20028	 19.49605	706.59698	 25.00	
 12.009	161.059	 18.31112	  3.18663	 15.93279	 11.24294	  7.28358	 -0.54313	 19.49742	706.69000	 25.00	
 12.013	142.081	 18.31097	  4.08648	 14.74150	 13.40105	  5.39307	 -0.56343	 19.47186	706.51300	 25.00	
 12.006	123.113	 18.32388	  5.60825	 12.92934	 15.07349	  4.12349	 -0.60550	 19.47521	706.50403	 25.00	
 12.007	104.200	 18.30789	  7.56616	 10.69172	 16.06938	  3.37336	 -0.66598	 19.46972	706.46698	 25.00	
 11.989	 85.301	 18.28291	  9.81258	  8.35313	 16.24353	  3.20248	 -0.60376	 19.45763	706.67297	 25.00	
 12.013	 66.294	 18.28753	 12.12216	  6.31117	 15.64397	  3.61896	 -0.51770	 19.48888	706.49500	 25.00	
 12.012	 47.388	 18.24985	 14.14432	  4.50794	 14.23176	  4.58856	 -0.53694	 19.47417	706.62299	 25.00	
 11.990	 28.440	 18.25059	 15.62562	  3.33504	 12.28745	  6.10354	 -0.58264	 19.49055	706.56598	 25.00	
 11.991	  9.464	 18.21754	 16.35461	  2.71850	 10.00557	  8.11174	 -0.61860	 19.46836	706.68402	 25.00	
 11.991	 -9.464	 18.21404	 16.32251	  2.68957	  7.71360	 10.38662	 -0.59108	 19.48589	706.53601	 25.00	
 11.990	-28.440	 18.18304	 15.48098	  3.31125	  5.73884	 12.64291	 -0.61474	 19.48671	706.68402	 25.00	
 12.012	-47.388	 18.14354	 13.90572	  4.47212	  4.14822	 14.57827	 -0.65757	 19.47375	706.48798	 25.00	
 12.013	-66.294	 18.12138	 11.81811	  6.24714	  3.02797	 15.95496	 -0.72348	 19.47541	706.53198	 25.00	
 11.989	-85.301	 18.12054	  9.50981	  8.33699	  2.58691	 16.54979	 -0.71442	 19.46250	706.66498	 25.00	
 12.007	-104.200	 18.12179	  7.26140	 10.60038	  2.76428	 16.39345	 -0.66562	 19.46451	706.60797	 25.00	
 12.006	-123.113	 18.13110	  5.33329	 12.82141	  3.56035	 15.44375	 -0.57243	 19.45871	706.24902	 25.00	
 12.013	-142.081	 18.18954	  3.87878	 14.67910	  4.90724	 13.82215	 -0.55387	 19.47339	706.47699	 25.00	
 12.009	-161.059	 18.24589	  3.04434	 15.88565	  6.70478	 11.73278	 -0.58950	 19.48863	706.41498	 24.90	
 16.000	180.000	 17.09669	  0.18990	 17.66761	  7.90063	  8.43702	 -0.89949	 19.46009	706.49298	 25.00	
 15.990	-165.604	 17.10586	  0.31975	 17.38889	  5.78365	 10.74342	 -0.91582	 19.50711	706.64203	 25.00	
 16.002	-151.165	 17.01462	  0.89361	 16.40938	  3.83834	 12.92041	 -0.88619	 19.45807	706.43201	 25.00	
 16.002	-136.836	 16.96844	  1.90620	 14.90934	  2.13245	 14.88928	 -0.82914	 19.45671	706.53497	 25.00	
 15.995	-122.439	 16.94188	  3.35383	 12.97177	  0.95797	 16.43623	 -0.83166	 19.46259	706.51001	 25.00	
 15.993	-107.966	 16.94496	  5.19545	 10.75085	  0.17963	 17.50172	 -0.85522	 19.50160	706.54999	 25.00	
 16.005	-93.629	 16.91878	  7.29878	  8.42101	 -0.15725	 17.91390	 -0.79975	 19.48176	706.65399	 25.00	
 15.992	-79.234	 16.90111	  9.58992	  6.20845	 -0.10207	 17.73200	 -0.74159	 19.46948	706.56598	 25.00	
 16.009	-64.774	 16.91198	 11.89995	  4.17379	  0.44641	 16.95152	 -0.75333	 19.46749	706.61102	 25.00	
 15.997	-50.364	 16.95133	 14.03384	  2.52407	  1.42088	 15.60327	 -0.76817	 19.47989	706.56000	 25.00	
 15.997	-36.045	 17.00943	 15.80690	  1.20652	  2.89760	 13.82415	 -0.76593	 19.50542	706.51001	 25.00	
 16.000	-21.597	 17.00233	 17.03442	  0.31619	  4.67712	 11.65713	 -0.77394	 19.46855	706.62201	 25.00	
 16.003	 -7.169	 17.02767	 17.68695	 -0.10511	  6.70582	  9.35864	 -0.76792	 19.46415	706.58099	 25.00	
 16.003	  7.169	 17.04605	 17.73968	 -0.08881	  8.97568	  7.10575	 -0.77296	 19.46901	706.61102	 24.90	
 16.000	 21.597	 17.04618	 17.18528	  0.33899	 11.27828	  5.05513	 -0.79012	 19.47065	706.54102	 24.90	
 15.997	 36.045	 17.07342	 16.04243	  1.22912	 13.46172	  3.40719	 -0.79664	 19.48265	706.47400	 25.00	
 15.997	 50.364	 17.10385	 14.38657	  2.53770	 15.34335	  2.05600	 -0.79021	 19.49701	706.50800	 25.00	
 16.009	 64.774	 17.12324	 12.33000	  4.19941	 16.71182	  1.11492	 -0.78867	 19.48559	706.56403	 25.00	
 15.992	 79.234	 17.12848	 10.03203	  6.27157	 17.49430	  0.56464	 -0.86082	 19.46365	706.61102	 25.00	
 16.005	 93.629	 17.15950	  7.73399	  8.51719	 17.67691	  0.48863	 -0.90264	 19.47069	706.52600	 25.00	
 15.993	107.966	 17.19540	  5.60174	 10.86140	 17.23757	  0.86567	 -0.90536	 19.48871	706.59497	 25.00	
 15.995	122.439	 17.17625	  3.70478	 13.07604	 16.13643	  1.64958	 -0.89987	 19.45255	706.60797	 25.00	
 16.002	136.836	 17.18034	  2.22214	 15.01798	 14.53898	  2.82768	 -0.87330	 19.46705	706.74402	 25.00	
 16.002	151.165	 17.16653	  1.14066	 16.48998	 12.51500	  4.34820	 -0.86813	 19.46401	706.69299	 25.00	
 15.990	165.604	 17.17303	  0.47383	 17.41336	 10.23950	  6.29684	 -0.87463	 19.49197	706.65002	 25.00	
 20.003	168.362	 15.65940	 -2.10621	 18.45243	  8.97224	  5.10090	 -0.98422	 19.45596	706.46301	 25.00	
 20.008	156.764	 15.70343	 -1.62241	 17.77552	 11.30777	  3.16983	 -1.01893	 19.48673	706.56299	 25.00	
 20.000	145.147	 15.71165	 -0.82715	 16.55717	 13.45746	  1.49609	 -1.00727	 19.46350	704.51501	 25.00	
 19.995	133.545	 15.73997	  0.30064	 14.93210	 15.36048	  0.16820	 -0.95882	 19.47829	706.68402	 25.00	
 20.009	121.926	 15.72005	  1.70997	 12.94875	 16.89571	 -0.88910	 -0.85487	 19.48123	704.67798	 25.00	
 20.005	110.327	 15.70455	  3.48287	 10.73989	 17.96490	 -1.56581	 -0.74582	 19.45921	706.64203	 25.00	
 19.989	 98.733	 15.68586	  5.50400	  8.44762	 18.53573	 -1.94164	 -0.71584	 19.44248	706.76898	 25.00	
 19.999	 87.075	 15.69326	  7.72228	  6.18273	 18.66817	 -2.04933	 -0.76990	 19.47496	706.50201	 25.00	
 19.992	 75.457	 15.67630	  9.99745	  4.07105	 18.28519	 -1.83499	 -0.88373	 19.47387	706.59802	 25.00	
 20.009	 63.844	 15.64482	 12.21574	  2.15638	 17.40919	 -1.34781	 -0.90969	 19.47927	706.59198	 25.00	
 19.989	 52.269	 15.63191	 14.26812	  0.58092	 16.07217	 -0.50746	 -0.87056	 19.50951	706.70099	 25.00	
 19.999	 40.602	 15.57932	 16.02147	 -0.70906	 14.29072	  0.63902	 -0.81114	 19.47834	706.59497	 25.00	
 20.004	 29.051	 15.56726	 17.40078	 -1.65195	 12.22909	  2.11192	 -0.68758	 19.47580	706.52899	 25.00	
 20.005	 17.433	 15.55422	 18.30906	 -2.27040	  9.98275	  3.91255	 -0.62322	 19.48063	706.59998	 25.00	
 20.006	  5.780	 15.54200	 18.73005	 -2.56892	  7.70171	  5.89090	 -0.62080	 19.48089	704.45203	 25.00	
 20.006	 -5.780	 15.53501	 18.69439	 -2.58381	  5.55717	  8.08128	 -0.64630	 19.46838	706.66699	 25.00	
 20.005	-17.433	 15.54086	 18.19384	 -2.29424	  3.42585	 10.36658	 -0.67462	 19.49193	706.65399	 25.00	
 20.004	-29.051	 15.49288	 17.14678	 -1.70222	  1.62132	 12.55901	 -0.68434	 19.46842	706.61401	 25.00	
 19.999	-40.602	 15.47365	 15.68329	 -0.79185	  0.15044	 14.56583	 -0.69567	 19.48146	706.64502	 25.00	
 19.989	-52.269	 15.47012	 13.85253	  0.47163	 -1.00061	 16.32891	 -0.63224	 19.52197	706.64502	 25.00	
 20.009	-63.844	 15.39874	 11.69968	  2.05630	 -1.79062	 17.58055	 -0.57213	 19.46227	706.71301	 25.00	
 19.992	-75.457	 15.41850	  9.44390	  3.94323	 -2.29027	 18.46424	 -0.56213	 19.50082	706.65002	 25.00	
 19.999	-87.075	 15.38322	  7.16819	  6.03025	 -2.52091	 18.79942	 -0.61334	 19.46781	706.54999	 25.00	
 19.989	-98.733	 15.34989	  4.97792	  8.28208	 -2.43426	 18.66498	 -0.67487	 19.42273	706.77802	 25.00	
 20.005	-110.327	 15.39151	  3.02029	 10.58651	 -2.09258	 18.16545	 -0.81485	 19.48017	706.61102	 25.00	
 20.009	-121.926	 15.43231	  1.33853	 12.78814	 -1.42743	 17.13651	 -0.89957	 19.49341	706.67401	 25.00	
 19.995	-133.545	 15.43887	 -0.02748	 14.75970	 -0.42304	 15.62846	 -0.93086	 19.46781	706.56299	 25.00	
 20.000	-145.147	 15.48808	 -1.07079	 16.43044	  0.92689	 13.79249	 -0.94816	 19.46626	706.70099	 25.00	
 20.008	-156.764	 15.55380	 -1.79541	 17.70519	  2.60767	 11.70968	 -0.90515	 19.49607	704.88000	 25.00	
 20.003	-168.362	 15.59245	 -2.19985	 18.45015	  4.59515	  9.47881	 -0.89588	 19.48752	706.45599	 25.00	
 20.000	180.000	 15.65190	 -2.30272	 18.70490	  6.71196	  7.24097	 -0.95004	 19.50352	706.48700	 25.00	
