FileType=PCF
NHL=14
Date=08/29/17	17:44:40
Facility=APL
Serial=16328-16
Customer=NASA
NP=6
Mach=0.150000
Calibration=1:1
CalPts=490
TstPts=95
PortNumbering=AP Standard
Units=Torr C m/s kg/m^3 deg mm 
Theta[deg]	Phi[deg]	P1[Torr]	P2[Torr]	P3[Torr]	P4[Torr]	P5[Torr]	P6[Torr]	Pt[Torr]	Ps[Abs,Torr]	Ts[C]	
  0.000	  0.000	 11.11710	  5.98578	  5.89252	  5.86386	  6.16305	  0.07316	 11.10355	704.23901	 23.80	
  1.691	128.401	 11.12938	  5.65207	  6.22536	  6.28785	  5.73746	  0.06790	 11.11522	704.25098	 23.80	
  1.692	 77.194	 11.11354	  6.10440	  5.74951	  6.39244	  5.61789	  0.06694	 11.09650	704.36603	 23.80	
  1.699	 26.182	 11.11410	  6.46919	  5.38808	  6.09798	  5.89761	  0.06566	 11.10299	704.41901	 23.80	
  1.699	-26.182	 11.10580	  6.44749	  5.38599	  5.60966	  6.36788	  0.05950	 11.09247	704.45001	 23.80	
  1.692	-77.194	 11.09843	  6.06820	  5.74167	  5.32402	  6.65757	  0.05965	 11.08761	704.47803	 23.80	
  1.691	-128.401	 11.10925	  5.62394	  6.21297	  5.42455	  6.56933	  0.06308	 11.09826	704.39697	 23.80	
  1.700	180.000	 11.11455	  5.43249	  6.42932	  5.84627	  6.15597	  0.06590	 11.10126	704.42999	 23.80	
  3.400	180.000	 11.08797	  4.85865	  6.94610	  5.79387	  6.08494	  0.04262	 11.09016	704.33197	 23.80	
  3.388	-152.325	 11.08278	  4.96461	  6.79975	  5.28945	  6.59565	  0.03266	 11.08527	704.37402	 23.80	
  3.397	-124.529	 11.10186	  5.28409	  6.45445	  4.92588	  7.01624	  0.03742	 11.11266	704.42200	 23.80	
  3.399	-96.763	 11.11216	  5.76363	  5.93705	  4.75303	  7.19843	  0.01781	 11.12647	704.46997	 23.80	
  3.394	-69.283	 11.10735	  6.27790	  5.42698	  4.81259	  7.12259	  0.01461	 11.11917	704.46899	 23.80	
  3.400	-41.398	 11.09922	  6.73640	  5.00558	  5.09699	  6.79445	  0.01502	 11.11144	704.36798	 23.80	
  3.401	-14.021	 11.10576	  6.99312	  4.79212	  5.52651	  6.34803	  0.02256	 11.11382	704.45001	 23.80	
  3.401	 14.021	 11.08799	  6.99341	  4.79260	  6.06843	  5.79089	  0.03375	 11.09352	704.37701	 23.80	
  3.400	 41.398	 11.10644	  6.77952	  5.02193	  6.54390	  5.37751	  0.04475	 11.11033	704.31799	 23.80	
  3.394	 69.283	 11.11372	  6.33661	  5.44368	  6.83922	  5.13084	  0.04518	 11.11566	704.37402	 23.80	
  3.399	 96.763	 11.10812	  5.82311	  5.94362	  6.91900	  5.06302	  0.05044	 11.10580	704.37701	 23.80	
  3.397	124.529	 11.09560	  5.33249	  6.45045	  6.70450	  5.23843	  0.04500	 11.09605	704.48999	 23.80	
  3.388	152.325	 11.09451	  5.00250	  6.80151	  6.31191	  5.60526	  0.04302	 11.09431	704.31799	 23.80	
  5.099	161.165	 11.04401	  4.33954	  7.36903	  6.24596	  5.48378	  0.00137	 11.09319	704.24701	 23.80	
  5.109	142.013	 11.06577	  4.58792	  7.10209	  6.76186	  5.03472	  0.00115	 11.10676	704.38300	 23.80	
  5.095	123.033	 11.05837	  4.97316	  6.66733	  7.14149	  4.70057	  0.00443	 11.10357	704.31201	 23.80	
  5.105	104.191	 11.08248	  5.47136	  6.15825	  7.39874	  4.50146	  0.00286	 11.12531	704.40802	 23.80	
  5.093	 85.207	 11.09583	  6.01791	  5.61911	  7.45591	  4.46509	  0.00618	 11.14281	704.23102	 23.80	
  5.104	 66.290	 11.05220	  6.53692	  5.06702	  7.28157	  4.55898	  0.00466	 11.09801	704.37402	 23.80	
  5.094	 47.331	 11.02576	  6.99444	  4.62225	  6.94261	  4.81445	  0.00617	 11.08179	704.46100	 23.80	
  5.089	 28.397	 11.05098	  7.35567	  4.32401	  6.51246	  5.21158	 -0.00386	 11.11024	704.22198	 23.80	
  5.096	  9.576	 11.03408	  7.52791	  4.15339	  5.97277	  5.69327	 -0.01121	 11.09287	704.32098	 23.80	
  5.096	 -9.576	 11.03330	  7.51569	  4.15100	  5.41061	  6.24786	 -0.01877	 11.09902	704.36499	 23.80	
  5.089	-28.397	 11.03598	  7.31695	  4.30642	  4.92076	  6.76993	 -0.02930	 11.10527	704.34900	 23.80	
  5.094	-47.331	 11.03446	  6.95436	  4.60817	  4.51762	  7.22789	 -0.04014	 11.10728	704.34302	 23.80	
  5.104	-66.290	 11.03016	  6.46890	  5.04194	  4.23109	  7.55923	 -0.04313	 11.10630	704.42999	 23.80	
  5.093	-85.207	 11.00837	  5.91105	  5.55047	  4.10179	  7.69397	 -0.04353	 11.08700	704.33698	 23.80	
  5.105	-104.191	 11.02602	  5.37384	  6.12042	  4.14140	  7.67226	 -0.03144	 11.10543	704.35699	 23.80	
  5.095	-123.033	 11.05091	  4.90933	  6.65490	  4.35540	  7.45276	 -0.02245	 11.12061	704.38202	 23.80	
  5.109	-142.013	 11.04375	  4.53435	  7.08604	  4.69751	  7.06001	 -0.01144	 11.10498	704.29303	 23.80	
  5.099	-161.165	 11.03384	  4.30273	  7.36280	  5.16273	  6.54871	 -0.00561	 11.09074	704.29602	 23.80	
  5.100	180.000	 11.05414	  4.25177	  7.47880	  5.70388	  6.01896	  0.01420	 11.10804	704.51501	 23.80	
  6.800	180.000	 10.93989	  3.61102	  7.95776	  5.58510	  5.90882	 -0.06781	 11.08708	704.28198	 23.80	
  6.796	-166.229	 10.95225	  3.65433	  7.90018	  5.06799	  6.44707	 -0.07036	 11.10667	704.46899	 23.80	
  6.808	-152.311	 10.94966	  3.80919	  7.69214	  4.57977	  6.96556	 -0.06920	 11.10855	704.27197	 23.80	
  6.795	-138.383	 10.92820	  4.07175	  7.34255	  4.14820	  7.41980	 -0.08226	 11.09429	704.43597	 23.80	
  6.792	-124.591	 10.90764	  4.42856	  6.89983	  3.81156	  7.78337	 -0.09361	 11.08309	704.43903	 23.80	
  6.787	-110.754	 10.92632	  4.88711	  6.40916	  3.59497	  8.05675	 -0.09973	 11.10413	704.43597	 23.80	
  6.800	-96.985	 10.94502	  5.40131	  5.88532	  3.48632	  8.20395	 -0.11491	 11.12741	704.33698	 23.80	
  6.800	-83.015	 10.90017	  5.92942	  5.30880	  3.47613	  8.16422	 -0.13078	 11.08395	704.40503	 23.80	
  6.787	-69.246	 10.91897	  6.47104	  4.80827	  3.59584	  8.03223	 -0.12922	 11.10628	704.35797	 23.80	
  6.792	-55.409	 10.90719	  6.96327	  4.35070	  3.81270	  7.75232	 -0.12185	 11.08647	704.34802	 23.80	
  6.795	-41.617	 10.94590	  7.42122	  3.98905	  4.15509	  7.39217	 -0.11490	 11.12335	704.37402	 23.80	
  6.808	-27.689	 10.91418	  7.74370	  3.69483	  4.56062	  6.89538	 -0.10478	 11.08826	704.27502	 23.80	
  6.796	-13.771	 10.93864	  7.96834	  3.53932	  5.05546	  6.38827	 -0.09042	 11.10211	704.39600	 23.80	
  6.800	  0.000	 10.91894	  8.03352	  3.47763	  5.56670	  5.84393	 -0.08439	 11.07956	704.50098	 23.80	
  6.796	 13.771	 10.91191	  7.96697	  3.53568	  6.10610	  5.31675	 -0.08336	 11.06867	704.31403	 23.80	
  6.808	 27.689	 10.94386	  7.79643	  3.71205	  6.64777	  4.84998	 -0.06712	 11.09362	704.31201	 23.80	
  6.795	 41.617	 10.94496	  7.46714	  4.00064	  7.11158	  4.44819	 -0.06071	 11.09164	704.34003	 23.80	
  6.792	 55.409	 10.96515	  7.05844	  4.38867	  7.50778	  4.13882	 -0.06455	 11.10901	704.26703	 23.80	
  6.787	 69.246	 10.96794	  6.56786	  4.84605	  7.77942	  3.92582	 -0.05651	 11.10654	704.34100	 23.80	
  6.800	 83.015	 10.98582	  6.04535	  5.36154	  7.93718	  3.82197	 -0.06241	 11.12104	704.27002	 23.80	
  6.800	 96.985	 10.95255	  5.48145	  5.89374	  7.91269	  3.81940	 -0.07142	 11.08618	704.24200	 23.80	
  6.787	110.754	 10.97208	  4.98554	  6.43956	  7.78274	  3.95039	 -0.06681	 11.10472	704.34497	 23.80	
  6.792	124.591	 10.97221	  4.53137	  6.94017	  7.51242	  4.17546	 -0.06192	 11.09964	704.38800	 23.80	
  6.795	138.383	 10.97207	  4.15678	  7.36470	  7.13101	  4.50108	 -0.06279	 11.10284	704.44202	 23.80	
  6.808	152.311	 10.98293	  3.86958	  7.71070	  6.67365	  4.91605	 -0.06199	 11.11893	704.41302	 23.80	
  6.796	166.229	 10.94290	  3.68074	  7.88696	  6.13047	  5.38155	 -0.05743	 11.08461	704.45801	 23.80	
  8.491	168.704	 10.81158	  3.03017	  8.36474	  6.01547	  5.23562	 -0.13478	 11.08840	704.42798	 23.80	
  8.502	157.493	 10.83149	  3.17570	  8.21285	  6.56240	  4.74353	 -0.13549	 11.10039	704.31702	 23.80	
  8.494	146.194	 10.84044	  3.42149	  7.93498	  7.07308	  4.29641	 -0.14546	 11.10658	704.38501	 23.80	
  8.495	135.039	 10.83430	  3.73365	  7.55934	  7.52004	  3.90218	 -0.14655	 11.09157	704.33398	 23.80	
  8.487	123.723	 10.82758	  4.13121	  7.09712	  7.89184	  3.58853	 -0.14850	 11.08666	704.39697	 23.80	
  8.492	112.575	 10.85750	  4.59740	  6.61002	  8.18971	  3.37248	 -0.16072	 11.11910	704.36200	 23.80	
  8.510	101.220	 10.84266	  5.10115	  6.05348	  8.35434	  3.22363	 -0.16511	 11.10555	704.37402	 23.80	
  8.500	 90.000	 10.84632	  5.64190	  5.49925	  8.40870	  3.17464	 -0.15661	 11.10453	704.34003	 23.80	
  8.510	 78.780	 10.83006	  6.18697	  4.94520	  8.34334	  3.20094	 -0.14060	 11.09425	704.32098	 23.80	
  8.492	 67.425	 10.82611	  6.72801	  4.43082	  8.16505	  3.33234	 -0.13508	 11.09278	704.48401	 23.80	
  8.487	 56.277	 10.83557	  7.23271	  3.97814	  7.89635	  3.54849	 -0.14181	 11.10901	704.45898	 23.80	
  8.495	 44.961	 10.83497	  7.68644	  3.57456	  7.51717	  3.85443	 -0.14124	 11.11511	704.45502	 23.80	
  8.494	 33.806	 10.80272	  8.02815	  3.25064	  7.04352	  4.22473	 -0.14028	 11.08862	704.48999	 23.80	
  8.502	 22.507	 10.79534	  8.29640	  3.01035	  6.53254	  4.66427	 -0.15909	 11.08926	704.52100	 23.80	
  8.491	 11.296	 10.79734	  8.45786	  2.87398	  5.99496	  5.16251	 -0.17190	 11.09197	704.36603	 23.80	
  8.500	  0.000	 10.76966	  8.48768	  2.81731	  5.42104	  5.68999	 -0.17105	 11.06654	704.40802	 23.80	
  8.491	-11.296	 10.75996	  8.41295	  2.85965	  4.87912	  6.23440	 -0.17291	 11.06037	704.27899	 23.80	
  8.502	-22.507	 10.77155	  8.24657	  2.99689	  4.38379	  6.77569	 -0.18263	 11.08356	704.46600	 23.80	
  8.494	-33.806	 10.76286	  7.95395	  3.22481	  3.92065	  7.28683	 -0.19976	 11.08168	704.35199	 23.80	
  8.495	-44.961	 10.78058	  7.58967	  3.53977	  3.53483	  7.75700	 -0.20845	 11.10217	704.31799	 23.80	
  8.487	-56.277	 10.77036	  7.11778	  3.93730	  3.22731	  8.12191	 -0.21510	 11.09508	704.51099	 23.80	
  8.492	-67.425	 10.75072	  6.60011	  4.38094	  2.99267	  8.38830	 -0.22230	 11.08031	704.25897	 23.80	
  8.510	-78.780	 10.76679	  6.06374	  4.90119	  2.85086	  8.58931	 -0.23061	 11.09966	704.56500	 23.90	
  8.500	-90.000	 10.75734	  5.50142	  5.44729	  2.80410	  8.64321	 -0.22146	 11.08741	704.51703	 23.80	
  8.510	-101.220	 10.75248	  4.96135	  6.00008	  2.84353	  8.59035	 -0.19788	 11.07928	704.50299	 23.80	
  8.492	-112.575	 10.76463	  4.45747	  6.56390	  2.99234	  8.42895	 -0.17969	 11.08875	704.46997	 23.80	
  8.487	-123.723	 10.78613	  4.02019	  7.08133	  3.23135	  8.17277	 -0.16998	 11.10633	704.38800	 23.80	
  8.495	-135.039	 10.76202	  3.62338	  7.51538	  3.53089	  7.79370	 -0.16340	 11.07110	704.48602	 23.80	
  8.494	-146.194	 10.79364	  3.33502	  7.90446	  3.93721	  7.36691	 -0.14824	 11.09968	704.40802	 23.90	
  8.502	-157.493	 10.80158	  3.12042	  8.19306	  4.40453	  6.86006	 -0.14881	 11.09672	704.48102	 23.90	
  8.491	-168.704	 10.79831	  2.99973	  8.35921	  4.90732	  6.32358	 -0.15288	 11.08316	704.39697	 23.90	
  8.500	180.000	 10.82063	  2.97047	  8.43609	  5.45733	  5.78941	 -0.14941	 11.10149	704.40802	 23.90	
 10.200	180.000	 10.64021	  2.30886	  8.86940	  5.28885	  5.62079	 -0.23359	 11.09642	704.52899	 23.90	
 10.191	-170.497	 10.62734	  2.32720	  8.81275	  4.73462	  6.17068	 -0.24207	 11.09323	704.50598	 23.90	
 10.210	-161.034	 10.63076	  2.42655	  8.67100	  4.21875	  6.71849	 -0.24394	 11.10637	704.50098	 23.90	
 10.194	-151.526	 10.63373	  2.61020	  8.42683	  3.73154	  7.25908	 -0.23594	 11.11244	704.53198	 23.90	
 10.190	-142.105	 10.59828	  2.85606	  8.07964	  3.29248	  7.72459	 -0.23956	 11.09138	704.44702	 23.90	
 10.215	-132.646	 10.58378	  3.17183	  7.67664	  2.91929	  8.14441	 -0.24254	 11.08388	704.45898	 23.90	
 10.203	-123.092	 10.59284	  3.57203	  7.21047	  2.61568	  8.51658	 -0.25138	 11.10258	704.50897	 23.90	
 10.192	-113.678	 10.58964	  4.02265	  6.68956	  2.38527	  8.79445	 -0.26364	 11.10649	704.46100	 23.90	
 10.208	-104.249	 10.57103	  4.50628	  6.13429	  2.21601	  8.97379	 -0.29088	 11.09292	704.52100	 23.90	
 10.210	-94.801	 10.55871	  5.03318	  5.56310	  2.13292	  9.05799	 -0.31337	 11.08060	704.39899	 23.90	
 10.210	-85.199	 10.57195	  5.60691	  4.99471	  2.13890	  9.06332	 -0.32695	 11.09834	704.47601	 23.90	
 10.208	-75.751	 10.58804	  6.17468	  4.46126	  2.21856	  8.96749	 -0.32837	 11.10869	704.44397	 23.90	
 10.192	-66.322	 10.55464	  6.69960	  3.94560	  2.37354	  8.73193	 -0.32145	 11.07144	704.38800	 23.90	
 10.203	-56.908	 10.58358	  7.23890	  3.49266	  2.60848	  8.46576	 -0.31448	 11.09907	704.32397	 23.90	
 10.215	-47.354	 10.60122	  7.73122	  3.09117	  2.91343	  8.10529	 -0.30052	 11.11390	704.37201	 23.90	
 10.190	-37.895	 10.59515	  8.13052	  2.75763	  3.28108	  7.65974	 -0.28998	 11.09946	704.37701	 23.90	
 10.194	-28.474	 10.58054	  8.44866	  2.48907	  3.69848	  7.15589	 -0.27673	 11.07531	704.27301	 23.90	
 10.210	-18.966	 10.61172	  8.72589	  2.29953	  4.19237	  6.63456	 -0.26387	 11.10327	704.33197	 23.90	
 10.191	 -9.503	 10.60303	  8.86935	  2.18994	  4.70720	  6.07905	 -0.25654	 11.08498	704.38000	 23.90	
 10.200	  0.000	 10.61168	  8.93750	  2.15049	  5.25504	  5.52865	 -0.26077	 11.09368	704.29602	 23.90	
 10.191	  9.503	 10.61903	  8.90487	  2.19158	  5.82710	  4.98200	 -0.26621	 11.09702	704.27899	 23.90	
 10.210	 18.966	 10.61122	  8.76322	  2.30166	  6.37423	  4.46565	 -0.26249	 11.08634	704.34302	 23.90	
 10.194	 28.474	 10.62234	  8.53102	  2.50933	  6.91570	  4.00226	 -0.23972	 11.09026	704.45300	 23.90	
 10.190	 37.895	 10.63662	  8.22543	  2.78408	  7.42415	  3.58367	 -0.22621	 11.10225	704.37402	 23.90	
 10.215	 47.354	 10.63758	  7.83336	  3.11536	  7.87115	  3.21510	 -0.22763	 11.10180	704.41901	 23.90	
 10.203	 56.908	 10.64678	  7.36925	  3.52965	  8.24065	  2.93164	 -0.22671	 11.09859	704.36200	 23.90	
 10.192	 66.322	 10.63422	  6.84615	  3.99249	  8.50572	  2.72076	 -0.21984	 11.07401	704.50098	 23.90	
 10.208	 75.751	 10.65821	  6.32192	  4.50061	  8.72577	  2.57458	 -0.22595	 11.09709	704.50598	 23.90	
 10.210	 85.199	 10.65272	  5.76413	  5.03733	  8.82232	  2.50547	 -0.24405	 11.08742	704.43402	 23.90	
 10.210	 94.801	 10.65957	  5.19918	  5.61009	  8.82645	  2.51485	 -0.26723	 11.08995	704.42401	 23.90	
 10.208	104.249	 10.65464	  4.66214	  6.16790	  8.72360	  2.60162	 -0.26732	 11.08495	704.35498	 23.90	
 10.192	113.678	 10.66722	  4.16831	  6.72199	  8.53269	  2.76468	 -0.26005	 11.08978	704.39697	 23.90	
 10.203	123.092	 10.64913	  3.70471	  7.22343	  8.24103	  2.98533	 -0.24187	 11.07614	704.42700	 23.90	
 10.215	132.646	 10.68496	  3.30432	  7.72764	  7.90501	  3.28930	 -0.23677	 11.11651	704.42200	 23.90	
 10.190	142.105	 10.65083	  2.95972	  8.10100	  7.43786	  3.65358	 -0.22799	 11.07805	704.41602	 23.90	
 10.194	151.526	 10.66825	  2.69448	  8.44298	  6.95520	  4.08892	 -0.22751	 11.10081	704.53699	 23.90	
 10.210	161.034	 10.66217	  2.48766	  8.68494	  6.41977	  4.56550	 -0.21450	 11.10586	704.54498	 23.90	
 10.191	170.497	 10.62541	  2.35818	  8.80008	  5.84750	  5.06403	 -0.22000	 11.07259	704.50299	 23.90	
 11.899	171.783	 10.42653	  1.70010	  9.22246	  5.66607	  4.87851	 -0.30915	 11.08779	704.49200	 23.90	
 11.890	163.610	 10.43503	  1.80637	  9.10141	  6.22549	  4.36167	 -0.30608	 11.09055	704.45300	 23.90	
 11.889	155.445	 10.43278	  1.98060	  8.88580	  6.76673	  3.87240	 -0.30887	 11.07783	704.52899	 23.90	
 11.909	147.299	 10.44257	  2.20610	  8.61049	  7.29834	  3.41710	 -0.31169	 11.08767	704.48602	 23.90	
 11.902	139.148	 10.44386	  2.50415	  8.24274	  7.77474	  3.01773	 -0.31750	 11.08249	704.52600	 23.90	
 11.894	130.867	 10.46766	  2.87181	  7.82749	  8.21527	  2.68383	 -0.32499	 11.10189	704.44202	 23.90	
 11.897	122.732	 10.44872	  3.26924	  7.33651	  8.56361	  2.38530	 -0.33915	 11.08189	704.39697	 23.90	
 11.903	114.597	 10.44823	  3.71657	  6.82122	  8.86028	  2.15012	 -0.35990	 11.08780	704.48602	 23.90	
 11.893	106.346	 10.44625	  4.21888	  6.26372	  9.07144	  1.98373	 -0.37499	 11.08250	704.53101	 23.90	
 11.892	 98.155	 10.43526	  4.74127	  5.69187	  9.18958	  1.87965	 -0.37553	 11.07458	704.49298	 23.90	
 11.900	 90.000	 10.44292	  5.29310	  5.12992	  9.23765	  1.84066	 -0.35857	 11.08457	704.57300	 23.90	
 11.892	 81.845	 10.44094	  5.85427	  4.57784	  9.19104	  1.86918	 -0.33199	 11.08756	704.45898	 23.90	
 11.893	 73.654	 10.42202	  6.40310	  4.03981	  9.04528	  1.95432	 -0.31158	 11.06999	704.64203	 23.90	
 11.903	 65.403	 10.45737	  6.97756	  3.54906	  8.86536	  2.11424	 -0.30540	 11.11475	704.46198	 23.90	
 11.897	 57.268	 10.42026	  7.46952	  3.08129	  8.54218	  2.32849	 -0.30235	 11.08371	704.40503	 23.90	
 11.894	 49.133	 10.39390	  7.92023	  2.67084	  8.15534	  2.60703	 -0.30902	 11.06524	704.50598	 23.90	
 11.902	 40.852	 10.38338	  8.33836	  2.31157	  7.72559	  2.93636	 -0.31165	 11.06834	704.46198	 23.90	
 11.909	 32.701	 10.40556	  8.70812	  2.02298	  7.26536	  3.33356	 -0.32007	 11.08943	704.31000	 23.90	
 11.889	 24.555	 10.39478	  8.97482	  1.79321	  6.73119	  3.77913	 -0.34074	 11.08104	704.44501	 23.90	
 11.890	 16.390	 10.40752	  9.18744	  1.62664	  6.19397	  4.26397	 -0.35594	 11.09814	704.48102	 23.90	
 11.899	  8.217	 10.36308	  9.26983	  1.52381	  5.61337	  4.76131	 -0.35189	 11.05476	704.54797	 23.90	
 11.900	  0.000	 10.40243	  9.33854	  1.49588	  5.06436	  5.33031	 -0.35003	 11.09975	704.55402	 23.90	
 11.899	 -8.217	 10.36322	  9.25473	  1.51851	  4.49898	  5.86551	 -0.33951	 11.06579	704.50098	 23.90	
 11.890	-16.390	 10.38701	  9.13955	  1.61896	  3.98790	  6.43467	 -0.34259	 11.09465	704.57898	 23.90	
 11.889	-24.555	 10.34783	  8.88974	  1.77131	  3.47741	  6.96091	 -0.35025	 11.05873	704.57898	 23.90	
 11.909	-32.701	 10.37284	  8.61891	  1.99924	  3.03782	  7.49730	 -0.36164	 11.09462	704.56201	 23.90	
 11.902	-40.852	 10.35774	  8.24172	  2.28526	  2.64042	  7.96051	 -0.37679	 11.08383	704.71997	 23.90	
 11.894	-49.133	 10.34648	  7.79707	  2.63576	  2.28901	  8.38714	 -0.38764	 11.07656	704.51501	 23.90	
 11.897	-57.268	 10.32868	  7.30768	  3.03068	  1.99842	  8.74146	 -0.39509	 11.06385	704.40802	 23.90	
 11.903	-65.403	 10.35924	  6.80544	  3.49534	  1.77488	  9.06550	 -0.40714	 11.10505	704.55701	 23.90	
 11.893	-73.654	 10.32156	  6.22584	  3.98816	  1.60746	  9.24940	 -0.40936	 11.06611	704.57599	 23.90	
 11.892	-81.845	 10.33131	  5.67294	  4.52512	  1.51317	  9.39114	 -0.41152	 11.07544	704.58698	 23.90	
 11.900	-90.000	 10.34914	  5.11875	  5.09115	  1.48446	  9.45811	 -0.41103	 11.09746	704.57703	 23.90	
 11.892	-98.155	 10.34153	  4.57105	  5.65007	  1.51583	  9.41482	 -0.40164	 11.09044	704.40802	 23.90	
 11.893	-106.346	 10.32579	  4.03908	  6.20652	  1.60842	  9.28308	 -0.37890	 11.07351	704.48102	 23.90	
 11.903	-114.597	 10.34468	  3.55237	  6.76728	  1.76961	  9.09796	 -0.34569	 11.08848	704.59900	 23.90	
 11.897	-122.732	 10.36442	  3.11396	  7.30240	  2.00805	  8.82691	 -0.33192	 11.10195	704.51703	 23.90	
 11.894	-130.867	 10.36209	  2.72512	  7.77482	  2.30166	  8.46206	 -0.32127	 11.08744	704.47601	 23.90	
 11.902	-139.148	 10.38161	  2.38819	  8.22091	  2.66278	  8.04762	 -0.32403	 11.09467	704.42102	 23.90	
 11.909	-147.299	 10.40695	  2.11511	  8.60038	  3.06501	  7.59825	 -0.32833	 11.11625	704.50098	 23.90	
 11.889	-155.445	 10.39121	  1.90716	  8.86204	  3.51701	  7.06921	 -0.33500	 11.08574	704.34497	 23.90	
 11.890	-163.610	 10.40133	  1.76083	  9.07809	  4.01783	  6.52918	 -0.34111	 11.08379	704.49500	 23.90	
 11.899	-171.783	 10.39635	  1.67377	  9.20235	  4.53665	  5.97106	 -0.33614	 11.07126	704.48999	 24.00	
 11.900	180.000	 10.39986	  1.65184	  9.24859	  5.08628	  5.41705	 -0.32736	 11.06942	704.43903	 23.90	
 13.600	180.000	 10.15239	  1.00676	  9.61516	  4.86632	  5.20037	 -0.42161	 11.07281	704.53400	 23.90	
 13.608	-172.853	 10.13800	  1.01583	  9.57462	  4.32017	  5.74002	 -0.43145	 11.07160	704.50598	 23.90	
 13.611	-165.583	 10.14973	  1.08731	  9.47551	  3.79203	  6.30928	 -0.43627	 11.09020	704.49799	 23.90	
 13.601	-158.353	 10.14028	  1.21191	  9.28119	  3.28217	  6.86418	 -0.42973	 11.09370	704.47601	 24.00	
 13.609	-151.210	 10.11527	  1.38489	  9.00742	  2.80993	  7.37558	 -0.42176	 11.07738	704.49500	 23.90	
 13.611	-143.999	 10.12517	  1.61658	  8.69584	  2.39068	  7.88133	 -0.40758	 11.09840	704.55402	 23.90	
 13.601	-136.825	 10.11507	  1.90930	  8.30046	  2.00999	  8.33785	 -0.39941	 11.09912	704.63202	 23.90	
 13.596	-129.640	 10.09056	  2.24789	  7.83814	  1.67747	  8.73335	 -0.39030	 11.08158	704.40698	 23.90	
 13.611	-122.431	 10.08099	  2.63426	  7.34864	  1.39594	  9.08132	 -0.40014	 11.07971	704.50098	 24.00	
 13.604	-115.211	 10.08567	  3.07418	  6.82930	  1.17947	  9.36985	 -0.41574	 11.09078	704.73901	 23.90	
 13.595	-108.042	 10.06763	  3.54721	  6.26852	  1.01413	  9.56448	 -0.44258	 11.07634	704.53802	 24.00	
 13.607	-100.793	 10.08882	  4.06680	  5.71448	  0.89402	  9.73667	 -0.46560	 11.10253	704.50598	 23.90	
 13.601	-93.617	 10.07181	  4.59574	  5.13980	  0.83695	  9.78900	 -0.47398	 11.08625	704.61603	 24.00	
 13.601	-86.383	 10.08396	  5.16166	  4.58063	  0.84142	  9.79144	 -0.47408	 11.10068	704.48102	 24.00	
 13.607	-79.207	 10.06318	  5.71173	  4.02790	  0.88944	  9.69195	 -0.46460	 11.07794	704.45001	 23.90	
 13.595	-71.958	 10.05155	  6.26978	  3.50250	  1.00508	  9.52052	 -0.45914	 11.06229	704.57098	 24.00	
 13.604	-64.789	 10.08021	  6.83665	  3.01940	  1.16613	  9.32109	 -0.45560	 11.08813	704.58502	 24.00	
 13.611	-57.569	 10.09264	  7.37497	  2.57147	  1.38507	  9.03900	 -0.44992	 11.10217	704.61902	 24.00	
 13.596	-50.360	 10.07515	  7.84981	  2.16517	  1.65623	  8.65946	 -0.44165	 11.07344	704.59900	 24.00	
 13.601	-43.175	 10.08031	  8.29709	  1.81439	  1.98257	  8.24141	 -0.43316	 11.07158	704.53699	 24.00	
 13.611	-36.001	 10.09867	  8.70874	  1.51298	  2.36149	  7.78462	 -0.42354	 11.08318	704.60199	 24.00	
 13.609	-28.790	 10.12297	  9.05857	  1.26816	  2.78467	  7.29840	 -0.42322	 11.10289	704.48602	 24.00	
 13.601	-21.647	 10.10752	  9.30528	  1.07669	  3.23764	  6.75538	 -0.41702	 11.07539	704.54797	 24.00	
 13.611	-14.417	 10.10718	  9.50225	  0.93536	  3.74291	  6.19384	 -0.40967	 11.07304	704.59601	 24.00	
 13.608	 -7.147	 10.12830	  9.63902	  0.86183	  4.28497	  5.64242	 -0.41055	 11.08631	704.56799	 24.00	
 13.600	  0.000	 10.13046	  9.67962	  0.84116	  4.82964	  5.09427	 -0.41796	 11.08518	704.61902	 24.00	
 13.608	  7.147	 10.12698	  9.65424	  0.86333	  5.38755	  4.54359	 -0.42525	 11.07802	704.51703	 24.00	
 13.611	 14.417	 10.13598	  9.55998	  0.94604	  5.95991	  4.02152	 -0.42981	 11.08838	704.61298	 24.00	
 13.601	 21.647	 10.15243	  9.39140	  1.09643	  6.52747	  3.53692	 -0.42565	 11.09865	704.45300	 24.00	
 13.609	 28.790	 10.13544	  9.13306	  1.28599	  7.05597	  3.07343	 -0.40871	 11.07846	704.50000	 24.00	
 13.611	 36.001	 10.13805	  8.82386	  1.53623	  7.56677	  2.65841	 -0.39507	 11.08157	704.47803	 24.00	
 13.601	 43.175	 10.16232	  8.45857	  1.85462	  8.04434	  2.30579	 -0.38974	 11.09811	704.52100	 24.00	
 13.596	 50.360	 10.16256	  8.02433	  2.21064	  8.46562	  1.98298	 -0.38335	 11.09205	704.44397	 24.00	
 13.611	 57.569	 10.18773	  7.56152	  2.61534	  8.85601	  1.70670	 -0.37997	 11.11778	704.52301	 24.00	
 13.604	 64.789	 10.15005	  7.01474	  3.05272	  9.11543	  1.48533	 -0.37407	 11.06828	704.51398	 24.00	
 13.595	 71.958	 10.18077	  6.49075	  3.55238	  9.36104	  1.33784	 -0.38934	 11.09074	704.46698	 24.00	
 13.607	 79.207	 10.18458	  5.93064	  4.07406	  9.51855	  1.23180	 -0.41310	 11.08948	704.50598	 24.00	
 13.601	 86.383	 10.19126	  5.37113	  4.62542	  9.58955	  1.19463	 -0.43841	 11.08544	704.53198	 24.00	
 13.601	 93.617	 10.19937	  4.81069	  5.20034	  9.59739	  1.20558	 -0.45413	 11.09080	704.42999	 24.00	
 13.607	100.793	 10.18023	  4.26375	  5.75240	  9.50586	  1.26276	 -0.45926	 11.06292	704.51703	 24.00	
 13.595	108.042	 10.20285	  3.75310	  6.33202	  9.37514	  1.38192	 -0.45829	 11.08927	704.53699	 24.00	
 13.604	115.211	 10.19652	  3.26495	  6.87580	  9.15029	  1.54702	 -0.45013	 11.08204	704.54797	 24.00	
 13.611	122.431	 10.19828	  2.81186	  7.40304	  8.85849	  1.76946	 -0.43176	 11.08527	704.44702	 24.00	
 13.596	129.640	 10.19752	  2.41416	  7.88640	  8.49212	  2.05636	 -0.41269	 11.07736	704.50299	 24.00	
 13.601	136.825	 10.22278	  2.05914	  8.35112	  8.09196	  2.39185	 -0.40423	 11.10864	704.49298	 24.00	
 13.611	143.999	 10.18490	  1.74197	  8.70874	  7.60566	  2.75111	 -0.39742	 11.07173	704.36200	 24.00	
 13.609	151.210	 10.18614	  1.48601	  9.03980	  7.10239	  3.17054	 -0.39394	 11.07705	704.38300	 24.00	
 13.601	158.353	 10.19570	  1.29311	  9.30579	  6.57166	  3.63969	 -0.39516	 11.09313	704.43799	 24.00	
 13.611	165.583	 10.16230	  1.13697	  9.47187	  5.99888	  4.12628	 -0.39695	 11.06928	704.39600	 24.00	
 13.608	172.853	 10.17486	  1.04447	  9.59787	  5.44204	  4.66072	 -0.40687	 11.09046	704.43103	 24.00	
 15.298	173.587	  9.89151	  0.41056	  9.92771	  5.19484	  4.41431	 -0.48406	 11.09212	704.42401	 24.00	
 15.291	167.167	  9.88784	  0.48474	  9.82628	  5.74788	  3.89075	 -0.48004	 11.08351	704.38300	 24.00	
 15.307	160.676	  9.89668	  0.61290	  9.66489	  6.32039	  3.38479	 -0.47765	 11.08193	704.44501	 24.00	
 15.300	154.261	  9.90438	  0.78801	  9.43323	  6.87008	  2.91545	 -0.47422	 11.08317	704.40002	 24.00	
 15.288	147.854	  9.92586	  1.01269	  9.15633	  7.40300	  2.49304	 -0.47873	 11.10323	704.49200	 24.00	
 15.293	141.428	  9.92084	  1.28109	  8.79464	  7.88752	  2.09833	 -0.47860	 11.08560	704.28699	 24.00	
 15.299	134.985	  9.92091	  1.59132	  8.38562	  8.34755	  1.74179	 -0.48198	 11.08567	704.51099	 24.00	
 15.305	128.583	  9.92343	  1.94769	  7.93541	  8.76152	  1.43028	 -0.48944	 11.09501	704.38501	 24.00	
 15.309	122.142	  9.92970	  2.35163	  7.44390	  9.12262	  1.16503	 -0.50517	 11.09709	704.50299	 24.00	
 15.304	115.711	  9.92790	  2.79222	  6.91971	  9.41176	  0.95486	 -0.51160	 11.09416	704.36902	 24.10	
 15.297	109.291	  9.92411	  3.26745	  6.36900	  9.63982	  0.78559	 -0.52254	 11.09314	704.35101	 24.00	
 15.293	102.897	  9.92894	  3.77521	  5.81078	  9.81078	  0.66589	 -0.52189	 11.09851	704.41101	 24.00	
 15.293	 96.458	  9.91258	  4.30041	  5.23326	  9.89643	  0.58780	 -0.51372	 11.08571	704.45898	 24.00	
 15.300	 90.000	  9.91323	  4.84967	  4.66806	  9.93248	  0.55251	 -0.50881	 11.08795	704.48700	 24.00	
 15.293	 83.542	  9.89418	  5.40702	  4.10646	  9.87699	  0.57202	 -0.49235	 11.07399	704.43799	 24.00	
 15.293	 77.103	  9.90626	  5.97739	  3.57622	  9.78808	  0.63703	 -0.46938	 11.09240	704.34302	 24.00	
 15.297	 70.709	  9.89831	  6.52811	  3.06527	  9.61637	  0.74399	 -0.45146	 11.08906	704.37402	 24.10	
 15.304	 64.289	  9.86734	  7.05284	  2.57611	  9.35859	  0.89647	 -0.43849	 11.06864	704.43799	 24.10	
 15.309	 57.858	  9.86455	  7.57363	  2.13349	  9.07021	  1.09541	 -0.43627	 11.07925	704.56500	 24.10	
 15.305	 51.417	  9.86263	  8.05668	  1.73691	  8.71444	  1.34856	 -0.43887	 11.08344	704.49298	 24.10	
 15.299	 45.015	  9.83043	  8.47664	  1.37983	  8.27370	  1.65159	 -0.44162	 11.05266	704.51801	 24.10	
 15.293	 38.572	  9.85286	  8.89338	  1.07451	  7.82872	  2.01133	 -0.44087	 11.08060	704.50598	 24.10	
 15.288	 32.146	  9.85832	  9.24204	  0.81077	  7.34071	  2.39655	 -0.44711	 11.09232	704.44397	 24.10	
 15.300	 25.739	  9.84336	  9.51317	  0.58871	  6.81338	  2.81070	 -0.45447	 11.07808	704.32098	 24.10	
 15.307	 19.324	  9.83931	  9.73211	  0.41492	  6.25942	  3.27370	 -0.45904	 11.07794	704.42200	 24.10	
 15.291	 12.833	  9.84981	  9.89309	  0.30314	  5.70372	  3.77834	 -0.45114	 11.08936	704.31201	 24.10	
 15.298	  6.413	  9.84232	  9.97873	  0.22952	  5.14190	  4.28983	 -0.44586	 11.08612	704.40802	 24.10	
 15.300	  0.000	  9.84297	 10.00790	  0.20233	  4.57861	  4.83522	 -0.43931	 11.08986	704.38501	 24.10	
 15.298	 -6.413	  9.81621	  9.94231	  0.22064	  4.02343	  5.37239	 -0.43563	 11.06241	704.38202	 24.10	
 15.291	-12.833	  9.82670	  9.84704	  0.28781	  3.50516	  5.93473	 -0.44265	 11.08402	704.43402	 24.10	
 15.307	-19.324	  9.82169	  9.66942	  0.40135	  2.98767	  6.49846	 -0.44821	 11.08346	704.41101	 24.10	
 15.300	-25.739	  9.80470	  9.41182	  0.56657	  2.52235	  7.02724	 -0.45231	 11.06822	704.44397	 24.10	
 15.288	-32.146	  9.80340	  9.11149	  0.78401	  2.09631	  7.54109	 -0.45583	 11.07235	704.45502	 24.10	
 15.293	-38.572	  9.81813	  8.77033	  1.03696	  1.69816	  8.05783	 -0.45383	 11.10034	704.43903	 24.10	
 15.299	-45.015	  9.78478	  8.33109	  1.34218	  1.33893	  8.49569	 -0.45428	 11.07645	704.39600	 24.10	
 15.305	-51.417	  9.77571	  7.87063	  1.69546	  1.04489	  8.88770	 -0.45493	 11.06838	704.48297	 24.10	
 15.309	-57.858	  9.78705	  7.38504	  2.09487	  0.78574	  9.25905	 -0.45326	 11.09125	704.56201	 24.10	
 15.304	-64.289	  9.78584	  6.85558	  2.53558	  0.57823	  9.55414	 -0.45303	 11.09247	704.49799	 24.10	
 15.297	-70.709	  9.79473	  6.31283	  3.01425	  0.41068	  9.80317	 -0.45609	 11.10635	704.39001	 24.10	
 15.293	-77.103	  9.77221	  5.74071	  3.51113	  0.29460	  9.95120	 -0.45525	 11.08609	704.47302	 24.10	
 15.293	-83.542	  9.76101	  5.17079	  4.04116	  0.22615	 10.04832	 -0.46557	 11.07391	704.35699	 24.10	
 15.300	-90.000	  9.76760	  4.60793	  4.59835	  0.19339	 10.10233	 -0.49233	 11.08731	704.41602	 24.10	
 15.293	-96.458	  9.74797	  4.05301	  5.15139	  0.21567	 10.05675	 -0.49342	 11.06698	704.49200	 24.10	
 15.293	-102.897	  9.77500	  3.54089	  5.73207	  0.28770	  9.99153	 -0.49611	 11.09579	704.41602	 24.10	
 15.297	-109.291	  9.77392	  3.04695	  6.29319	  0.41291	  9.82780	 -0.49116	 11.08975	704.47302	 24.10	
 15.304	-115.711	  9.76004	  2.57713	  6.82911	  0.57961	  9.58625	 -0.47107	 11.06659	704.42999	 24.10	
 15.309	-122.142	  9.76366	  2.15247	  7.35392	  0.79588	  9.29782	 -0.45644	 11.06386	704.48401	 24.10	
 15.305	-128.583	  9.79385	  1.77450	  7.86921	  1.06266	  8.97393	 -0.45593	 11.08470	704.40503	 24.10	
 15.299	-134.985	  9.80727	  1.43408	  8.32947	  1.36457	  8.59076	 -0.46260	 11.09535	704.50598	 24.10	
 15.293	-141.428	  9.80435	  1.14170	  8.72993	  1.72259	  8.13274	 -0.46765	 11.07297	704.46198	 24.10	
 15.288	-147.854	  9.82564	  0.89693	  9.09860	  2.12798	  7.65393	 -0.48115	 11.08236	704.44202	 24.10	
 15.300	-154.261	  9.81374	  0.69765	  9.37669	  2.55437	  7.13074	 -0.49735	 11.05687	704.53699	 24.10	
 15.307	-160.676	  9.84006	  0.54466	  9.63189	  3.02807	  6.61239	 -0.50660	 11.07679	704.48999	 24.10	
 15.291	-167.167	  9.84370	  0.44605	  9.79266	  3.54740	  6.04722	 -0.51217	 11.07224	704.33698	 24.10	
 15.298	-173.587	  9.88332	  0.39049	  9.92568	  4.08484	  5.51483	 -0.50942	 11.10148	704.30298	 24.10	
 15.300	180.000	  9.88671	  0.37893	  9.95822	  4.62777	  4.96346	 -0.49698	 11.09783	704.40002	 24.10	
 17.000	180.000	  9.54629	 -0.24251	 10.23177	  4.34864	  4.67649	 -0.55495	 11.07807	704.52899	 24.10	
 16.990	-174.179	  9.53017	 -0.23114	 10.18994	  3.80297	  5.21916	 -0.55993	 11.07218	704.64697	 24.10	
 17.009	-168.383	  9.52537	 -0.19092	 10.10960	  3.27854	  5.77234	 -0.55874	 11.08388	704.46698	 24.10	
 17.000	-162.596	  9.52162	 -0.10091	  9.95962	  2.77473	  6.32915	 -0.55646	 11.09045	704.59399	 24.10	
 16.990	-156.759	  9.50865	  0.03075	  9.74099	  2.30133	  6.86893	 -0.55037	 11.08473	704.61298	 24.10	
 16.995	-150.919	  9.50795	  0.20270	  9.47725	  1.85698	  7.39988	 -0.54461	 11.09556	704.43103	 24.10	
 16.988	-145.161	  9.48844	  0.41326	  9.13695	  1.44815	  7.89191	 -0.53068	 11.08256	704.50598	 24.10	
 17.014	-139.343	  9.45416	  0.65636	  8.73828	  1.06645	  8.34770	 -0.52006	 11.06321	704.52600	 24.10	
 17.007	-133.546	  9.47706	  0.95795	  8.34099	  0.74719	  8.79989	 -0.50782	 11.09791	704.50098	 24.10	
 17.001	-127.699	  9.45195	  1.29463	  7.85624	  0.45785	  9.17161	 -0.50069	 11.08077	704.51099	 24.10	
 17.006	-121.937	  9.43913	  1.66644	  7.35221	  0.20468	  9.51130	 -0.50347	 11.07969	704.57098	 24.20	
 17.002	-116.134	  9.43264	  2.07968	  6.82464	 -0.00540	  9.79952	 -0.50327	 11.07857	704.46698	 24.20	
 17.001	-110.310	  9.41967	  2.52349	  6.27171	 -0.17427	 10.02189	 -0.50603	 11.06955	704.56000	 24.20	
 16.988	-104.517	  9.45113	  3.01882	  5.73453	 -0.29107	 10.21897	 -0.50010	 11.10766	704.43402	 24.20	
 17.008	-98.662	  9.41950	  3.51678	  5.14826	 -0.37798	 10.30436	 -0.47710	 11.07787	704.64099	 24.20	
 16.996	-92.909	  9.43065	  4.05036	  4.59940	 -0.41231	 10.36259	 -0.46489	 11.08220	704.61902	 24.20	
 16.996	-87.091	  9.42987	  4.59759	  4.04260	 -0.41459	 10.35631	 -0.43780	 11.08753	704.50098	 24.20	
 17.012	-81.253	  9.42266	  5.15132	  3.50006	 -0.38319	 10.28984	 -0.42205	 11.08063	704.62799	 24.20	
 16.988	-75.483	  9.42375	  5.70642	  2.99131	 -0.29795	 10.16157	 -0.41322	 11.07249	704.66998	 24.20	
 17.001	-69.690	  9.42182	  6.26285	  2.49769	 -0.18538	  9.98006	 -0.40974	 11.07401	704.61902	 24.20	
 17.002	-63.866	  9.43912	  6.82345	  2.04024	 -0.01573	  9.75045	 -0.41764	 11.08726	704.64697	 24.20	
 17.006	-58.063	  9.43376	  7.34476	  1.61185	  0.18658	  9.44270	 -0.42311	 11.07305	704.53699	 24.20	
 17.001	-52.301	  9.45068	  7.85314	  1.22882	  0.43433	  9.10349	 -0.43635	 11.08213	704.53198	 24.20	
 17.007	-46.454	  9.45220	  8.32280	  0.87699	  0.72148	  8.69772	 -0.44575	 11.07648	704.45898	 24.20	
 17.014	-40.657	  9.45322	  8.74788	  0.56367	  1.03280	  8.26186	 -0.44603	 11.06879	704.51099	 24.20	
 16.988	-34.839	  9.48011	  9.14587	  0.30495	  1.40770	  7.79417	 -0.45257	 11.08765	704.50897	 24.20	
 16.995	-29.081	  9.46859	  9.45999	  0.08171	  1.80656	  7.27712	 -0.44624	 11.06539	704.64099	 24.20	
 16.990	-23.241	  9.48402	  9.74813	 -0.09822	  2.25272	  6.75168	 -0.45132	 11.07265	704.47601	 24.20	
 17.000	-17.404	  9.50552	  9.98933	 -0.24184	  2.72690	  6.21912	 -0.44269	 11.09661	704.55701	 24.20	
 17.009	-11.617	  9.49127	 10.13171	 -0.33741	  3.22795	  5.65034	 -0.43017	 11.06979	704.51703	 24.20	
 16.990	 -5.821	  9.50616	 10.23373	 -0.38766	  3.75798	  5.10154	 -0.43389	 11.07843	704.50897	 24.20	
 17.000	  0.000	  9.52947	 10.29787	 -0.41242	  4.30688	  4.56289	 -0.42823	 11.10584	704.56201	 24.20	
 16.990	  5.821	  9.52544	 10.27006	 -0.38806	  4.86556	  4.01676	 -0.43386	 11.09560	704.57599	 24.20	
 17.009	 11.617	  9.50454	 10.17488	 -0.33179	  5.40467	  3.49555	 -0.43606	 11.07279	704.59302	 24.20	
 17.000	 17.404	  9.51257	 10.04393	 -0.22977	  5.96426	  3.00640	 -0.44866	 11.08121	704.53802	 24.20	
 16.990	 23.241	  9.52949	  9.86017	 -0.08057	  6.53690	  2.53938	 -0.45118	 11.09675	704.63599	 24.20	
 16.995	 29.081	  9.51849	  9.58858	  0.11011	  7.06531	  2.10533	 -0.45491	 11.07983	704.69800	 24.20	
 16.988	 34.839	  9.52642	  9.28839	  0.33393	  7.57450	  1.71484	 -0.46267	 11.08665	704.59399	 24.20	
 17.014	 40.657	  9.52300	  8.92880	  0.59593	  8.07000	  1.33949	 -0.46957	 11.08403	704.60498	 24.20	
 17.007	 46.454	  9.52167	  8.51471	  0.90923	  8.51225	  1.02009	 -0.47711	 11.07670	704.49500	 24.20	
 17.001	 52.301	  9.52201	  8.05122	  1.26365	  8.90915	  0.74311	 -0.48005	 11.06739	704.61102	 24.20	
 17.006	 58.063	  9.55856	  7.59663	  1.65624	  9.29396	  0.50466	 -0.48239	 11.09720	704.59601	 24.20	
 17.002	 63.866	  9.57145	  7.08243	  2.08486	  9.60703	  0.30049	 -0.48845	 11.10826	704.72101	 24.20	
 17.001	 69.690	  9.55746	  6.52759	  2.54473	  9.83649	  0.13935	 -0.49949	 11.08539	704.61102	 24.20	
 16.988	 75.483	  9.55348	  5.97151	  3.04169	 10.00916	  0.02639	 -0.50681	 11.07008	704.78998	 24.20	
 17.012	 81.253	  9.56441	  5.42178	  3.55431	 10.14885	 -0.05777	 -0.51676	 11.08102	704.66998	 24.20	
 16.996	 87.091	  9.56997	  4.86032	  4.10198	 10.20889	 -0.08379	 -0.52276	 11.07980	704.58002	 24.20	
 16.996	 92.909	  9.57456	  4.30604	  4.66526	 10.20710	 -0.06840	 -0.52755	 11.07283	704.50598	 24.20	
 17.008	 98.662	  9.60159	  3.78075	  5.23594	 10.17914	 -0.02721	 -0.52514	 11.10528	704.68903	 24.20	
 16.988	104.517	  9.58925	  3.25793	  5.79445	 10.03501	  0.06637	 -0.52853	 11.07975	704.70599	 24.20	
 17.001	110.310	  9.59442	  2.76567	  6.35858	  9.86315	  0.19211	 -0.53369	 11.08844	704.69702	 24.20	
 17.002	116.134	  9.59713	  2.30397	  6.90848	  9.62360	  0.36082	 -0.54279	 11.08716	704.68597	 24.20	
 17.006	121.937	  9.59758	  1.87307	  7.43447	  9.32435	  0.56943	 -0.53670	 11.08248	704.54901	 24.20	
 17.001	127.699	  9.60907	  1.48575	  7.93484	  8.98422	  0.81813	 -0.54229	 11.09480	704.60199	 24.20	
 17.007	133.546	  9.60202	  1.12563	  8.40017	  8.58293	  1.10129	 -0.53941	 11.09247	704.50598	 24.20	
 17.014	139.343	  9.58899	  0.81106	  8.81044	  8.12692	  1.42900	 -0.54040	 11.07713	704.69397	 24.20	
 16.988	145.161	  9.58841	  0.54856	  9.17988	  7.63607	  1.81229	 -0.54871	 11.07173	704.60199	 24.20	
 16.995	150.919	  9.58563	  0.31834	  9.50055	  7.13224	  2.21188	 -0.54975	 11.07677	704.61603	 24.20	
 16.990	156.759	  9.57071	  0.12350	  9.75883	  6.59083	  2.64510	 -0.54298	 11.06896	704.61603	 24.20	
 17.000	162.596	  9.57804	 -0.02836	  9.98256	  6.03691	  3.12996	 -0.54348	 11.08394	704.61902	 24.20	
 17.009	168.383	  9.56532	 -0.14386	 10.12445	  5.47336	  3.61706	 -0.53945	 11.08144	704.73401	 24.20	
 16.990	174.179	  9.56590	 -0.20989	 10.21374	  4.92009	  4.13833	 -0.54575	 11.08994	704.66400	 24.20	
 18.709	174.675	  9.20032	 -0.81553	 10.45766	  4.61806	  3.84011	 -0.57960	 11.08588	704.58698	 24.30	
 18.703	169.441	  9.20844	 -0.75415	 10.38491	  5.16505	  3.34055	 -0.57607	 11.08411	704.63898	 24.30	
 18.691	164.085	  9.21061	 -0.65342	 10.24445	  5.72894	  2.83888	 -0.58140	 11.07238	704.65601	 24.30	
 18.706	158.818	  9.22972	 -0.52984	 10.07898	  6.29914	  2.36750	 -0.58620	 11.09202	704.73700	 24.30	
 18.695	153.537	  9.22783	 -0.35849	  9.82536	  6.82502	  1.93570	 -0.59235	 11.07193	704.62500	 24.30	
 18.704	148.255	  9.23881	 -0.16015	  9.54368	  7.36659	  1.52274	 -0.59192	 11.08561	704.60999	 24.30	
 18.698	142.952	  9.24296	  0.08151	  9.19503	  7.86798	  1.13883	 -0.59010	 11.08206	704.58801	 24.30	
 18.699	137.625	  9.26335	  0.35470	  8.81957	  8.35436	  0.79352	 -0.58026	 11.10840	704.63501	 24.30	
 18.705	132.343	  9.25166	  0.66458	  8.37652	  8.76691	  0.49424	 -0.57082	 11.08712	704.63599	 24.30	
 18.713	127.067	  9.25325	  1.01012	  7.91114	  9.16706	  0.21711	 -0.56357	 11.09333	704.55499	 24.30	
 18.700	121.794	  9.23963	  1.39361	  7.39823	  9.49870	 -0.01655	 -0.54066	 11.07728	704.65198	 24.30	
 18.698	116.504	  9.25503	  1.81523	  6.88513	  9.81659	 -0.21625	 -0.52281	 11.09820	704.70599	 24.30	
 18.707	111.165	  9.23308	  2.25847	  6.32340	 10.04398	 -0.38493	 -0.50241	 11.07701	704.80798	 24.30	
 18.690	105.863	  9.24387	  2.74232	  5.77359	 10.23773	 -0.50463	 -0.49023	 11.09229	704.67200	 24.30	
 18.696	100.583	  9.23599	  3.24255	  5.21215	 10.36361	 -0.59134	 -0.48659	 11.08353	704.74902	 24.30	
 18.700	 95.309	  9.24653	  3.77349	  4.66020	 10.45254	 -0.64826	 -0.48959	 11.09969	704.64697	 24.30	
 18.700	 90.000	  9.23729	  4.31201	  4.10172	 10.46780	 -0.66810	 -0.49387	 11.09219	704.65900	 24.30	
 18.700	 84.691	  9.22165	  4.85960	  3.55397	 10.42856	 -0.65494	 -0.50477	 11.07863	704.78802	 24.30	
 18.696	 79.417	  9.21423	  5.40937	  3.02846	 10.34199	 -0.61492	 -0.51372	 11.07702	704.67200	 24.30	
 18.690	 74.137	  9.22883	  5.97438	  2.53333	 10.22824	 -0.53635	 -0.52456	 11.10311	704.68701	 24.30	
 18.707	 68.835	  9.20249	  6.50900	  2.04247	 10.01851	 -0.42666	 -0.52439	 11.08699	704.72498	 24.30	
 18.698	 63.496	  9.19924	  7.04812	  1.59060	  9.76569	 -0.27326	 -0.51412	 11.08887	704.74902	 24.30	
 18.700	 58.206	  9.19850	  7.56424	  1.17726	  9.46547	 -0.07952	 -0.50667	 11.09617	704.68701	 24.30	
 18.713	 52.933	  9.16713	  8.03614	  0.79230	  9.08755	  0.14840	 -0.50479	 11.07041	704.56000	 24.30	
 18.705	 47.657	  9.18842	  8.51227	  0.45004	  8.70888	  0.41336	 -0.49860	 11.09702	704.81097	 24.30	
 18.699	 42.375	  9.17298	  8.91880	  0.14374	  8.26814	  0.70778	 -0.48171	 11.08989	704.68103	 24.30	
 18.698	 37.048	  9.15924	  9.28825	 -0.12965	  7.78125	  1.04419	 -0.46285	 11.07569	704.75098	 24.30	
 18.704	 31.745	  9.15458	  9.61834	 -0.36544	  7.27220	  1.41752	 -0.44139	 11.07149	704.79700	 24.30	
 18.695	 26.463	  9.16389	  9.91148	 -0.56367	  6.74719	  1.82659	 -0.42100	 11.08263	704.84998	 24.30	
 18.706	 21.182	  9.15161	 10.13179	 -0.72455	  6.20665	  2.25047	 -0.40813	 11.07780	704.79602	 24.30	
 18.691	 15.915	  9.15901	 10.30947	 -0.84329	  5.66016	  2.71858	 -0.40301	 11.08186	704.78003	 24.30	
 18.703	 10.559	  9.15547	 10.43821	 -0.93234	  5.09651	  3.21443	 -0.39619	 11.08630	704.77002	 24.30	
 18.709	  5.325	  9.14167	 10.48903	 -0.98262	  4.54597	  3.71031	 -0.39695	 11.06905	704.68103	 24.30	
 18.700	  0.000	  9.15181	 10.51681	 -1.00015	  3.99581	  4.25747	 -0.39953	 11.08513	704.84998	 24.30	
 18.709	 -5.325	  9.14711	 10.48661	 -0.99414	  3.45941	  4.79972	 -0.40263	 11.08971	704.83197	 24.30	
 18.703	-10.559	  9.15425	 10.40611	 -0.94353	  2.95009	  5.34723	 -0.40877	 11.09373	704.67798	 24.30	
 18.691	-15.915	  9.14942	 10.25576	 -0.85788	  2.44244	  5.91080	 -0.41929	 11.09494	704.73499	 24.30	
 18.706	-21.182	  9.13117	 10.04585	 -0.74020	  1.97357	  6.44252	 -0.42538	 11.08297	704.80798	 24.30	
 18.695	-26.463	  9.11988	  9.78275	 -0.58236	  1.53562	  6.96779	 -0.43043	 11.06983	704.76001	 24.30	
 18.704	-31.745	  9.12478	  9.49671	 -0.40062	  1.11601	  7.50254	 -0.42466	 11.09796	704.65002	 24.30	
 18.698	-37.048	  9.09953	  9.11729	 -0.16575	  0.74566	  7.97732	 -0.41883	 11.06751	704.66302	 24.30	
 18.699	-42.375	  9.09743	  8.71964	  0.10614	  0.40920	  8.44189	 -0.41628	 11.07316	704.83197	 24.30	
 18.705	-47.657	  9.09008	  8.28398	  0.40596	  0.10140	  8.87742	 -0.41157	 11.08089	704.74298	 24.30	
 18.713	-52.933	  9.07157	  7.80380	  0.74152	 -0.17096	  9.25936	 -0.39937	 11.07555	704.79901	 24.30	
 18.700	-58.206	  9.08005	  7.30989	  1.12549	 -0.39691	  9.61486	 -0.38235	 11.09135	704.90601	 24.30	
 18.698	-63.496	  9.05284	  6.76582	  1.54037	 -0.57932	  9.87692	 -0.36999	 11.05536	704.78003	 24.30	
 18.707	-68.835	  9.08264	  6.24123	  1.98999	 -0.73723	 10.15768	 -0.36668	 11.09376	704.77002	 24.30	
 18.690	-74.137	  9.08865	  5.68746	  2.47151	 -0.85299	 10.35339	 -0.36865	 11.09733	704.85199	 24.30	
 18.696	-79.417	  9.07069	  5.12258	  2.96165	 -0.94229	 10.47549	 -0.37761	 11.08618	704.84198	 24.30	
 18.700	-84.691	  9.06970	  4.56824	  3.48225	 -0.99788	 10.56602	 -0.38152	 11.09225	704.75702	 24.30	
 18.700	-90.000	  9.05399	  4.01411	  4.02100	 -1.01272	 10.58266	 -0.41661	 11.07549	704.85602	 24.30	
 18.700	-95.309	  9.06093	  3.48003	  4.57800	 -0.99549	 10.57263	 -0.43605	 11.08870	704.87500	 24.30	
 18.696	-100.583	  9.06863	  2.97340	  5.13886	 -0.94117	 10.50507	 -0.45374	 11.09588	704.81598	 24.30	
 18.690	-105.863	  9.06282	  2.48363	  5.69246	 -0.84995	 10.36876	 -0.48322	 11.08060	704.80103	 24.30	
 18.707	-111.165	  9.08049	  2.01728	  6.25823	 -0.73259	 10.21290	 -0.50550	 11.10492	704.68597	 24.30	
 18.698	-116.504	  9.06879	  1.58208	  6.79080	 -0.56359	  9.95963	 -0.51758	 11.08164	704.86401	 24.30	
 18.700	-121.794	  9.07578	  1.17746	  7.31810	 -0.37511	  9.67924	 -0.52483	 11.08314	704.76501	 24.30	
 18.713	-127.067	  9.07584	  0.81075	  7.81583	 -0.14246	  9.34160	 -0.53185	 11.07563	704.93103	 24.30	
 18.705	-132.343	  9.08868	  0.48750	  8.28494	  0.13424	  8.96126	 -0.53601	 11.07403	704.82703	 24.30	
 18.699	-137.625	  9.10350	  0.19758	  8.72566	  0.44973	  8.53876	 -0.54688	 11.07512	704.89801	 24.30	
 18.698	-142.952	  9.12747	 -0.05983	  9.13880	  0.79078	  8.09715	 -0.55576	 11.09614	704.86700	 24.30	
 18.704	-148.255	  9.14281	 -0.28085	  9.49534	  1.16726	  7.61689	 -0.55839	 11.10039	704.75897	 24.30	
 18.695	-153.537	  9.14114	 -0.46153	  9.78472	  1.58652	  7.09304	 -0.55655	 11.08305	704.81299	 24.30	
 18.706	-158.818	  9.13904	 -0.60407	 10.02158	  2.02503	  6.55784	 -0.55886	 11.06864	704.86700	 24.30	
 18.691	-164.085	  9.15693	 -0.71692	 10.22055	  2.49575	  6.02464	 -0.55482	 11.07940	704.85498	 24.30	
 18.703	-169.441	  9.17052	 -0.79626	 10.36715	  3.00680	  5.46417	 -0.56594	 11.07959	704.95398	 24.30	
 18.709	-174.675	  9.17871	 -0.83313	 10.44793	  3.51852	  4.92673	 -0.57192	 11.07735	704.89099	 24.40	
 18.700	180.000	  9.19342	 -0.83574	 10.47755	  4.06184	  4.38494	 -0.57415	 11.08039	704.92297	 24.30	
 20.400	180.000	  8.81188	 -1.42468	 10.69351	  3.75614	  4.07533	 -0.55341	 11.09284	704.86401	 24.30	
 20.401	-175.153	  8.79783	 -1.42792	 10.67527	  3.22686	  4.60085	 -0.53825	 11.09841	705.01001	 24.40	
 20.407	-170.264	  8.77314	 -1.39721	 10.58631	  2.70888	  5.13639	 -0.53089	 11.07825	704.90002	 24.30	
 20.410	-165.423	  8.76542	 -1.33600	 10.46416	  2.20924	  5.68584	 -0.52493	 11.08504	704.97400	 24.40	
 20.392	-160.496	  8.75531	 -1.22972	 10.27675	  1.74089	  6.22677	 -0.52468	 11.07799	704.84198	 24.30	
 20.401	-155.705	  8.74779	 -1.10942	 10.05842	  1.30357	  6.75424	 -0.52939	 11.08118	704.93201	 24.40	
 20.405	-150.835	  8.72556	 -0.95695	  9.77008	  0.87501	  7.27177	 -0.53312	 11.07488	704.96198	 24.40	
 20.397	-145.903	  8.73374	 -0.75848	  9.45886	  0.48996	  7.78817	 -0.54208	 11.09381	704.93903	 24.40	
 20.392	-141.062	  8.72603	 -0.53404	  9.09516	  0.14622	  8.25605	 -0.55436	 11.09670	704.86102	 24.40	
 20.396	-136.227	  8.70528	 -0.28555	  8.67945	 -0.18032	  8.69270	 -0.55388	 11.08966	704.99298	 24.40	
 20.408	-131.372	  8.68800	 -0.00329	  8.23129	 -0.47296	  9.10168	 -0.54546	 11.08566	704.95599	 24.40	
 20.410	-126.511	  8.68659	  0.32288	  7.76440	 -0.72834	  9.47932	 -0.54365	 11.09145	704.98499	 24.40	
 20.400	-121.604	  8.67179	  0.68207	  7.25026	 -0.94189	  9.79520	 -0.52307	 11.07687	705.12299	 24.40	
 20.403	-116.741	  8.66832	  1.06993	  6.72831	 -1.13223	 10.08466	 -0.51045	 11.08057	705.02600	 24.40	
 20.413	-111.900	  8.65715	  1.48085	  6.18577	 -1.30012	 10.32299	 -0.47850	 11.07929	705.02899	 24.40	
 20.398	-107.004	  8.66145	  1.93635	  5.63517	 -1.42563	 10.51782	 -0.45856	 11.09176	704.90302	 24.40	
 20.394	-102.132	  8.65402	  2.40782	  5.07623	 -1.51651	 10.64877	 -0.41769	 11.08597	705.00098	 24.40	
 20.403	-97.332	  8.63249	  2.88644	  4.51564	 -1.57975	 10.71160	 -0.39439	 11.05985	705.07800	 24.40	
 20.392	-92.440	  8.66339	  3.41942	  3.98018	 -1.61098	 10.78799	 -0.37344	 11.09969	704.94800	 24.40	
 20.392	-87.560	  8.66176	  3.95227	  3.43360	 -1.60867	 10.78005	 -0.35232	 11.09446	704.96002	 24.40	
 20.403	-82.668	  8.62935	  4.47991	  2.89690	 -1.58016	 10.69143	 -0.34525	 11.05204	705.07001	 24.40	
 20.394	-77.868	  8.65700	  5.03818	  2.41265	 -1.51935	 10.61964	 -0.33816	 11.08346	704.94800	 24.40	
 20.398	-72.996	  8.64867	  5.58656	  1.92432	 -1.43118	 10.46018	 -0.34347	 11.06768	704.78998	 24.40	
 20.413	-68.100	  8.68112	  6.16425	  1.46397	 -1.31624	 10.29755	 -0.34701	 11.10632	705.05200	 24.40	
 20.403	-63.259	  8.66855	  6.68832	  1.04341	 -1.15771	 10.02587	 -0.35320	 11.07553	704.97101	 24.40	
 20.400	-58.396	  8.68360	  7.22393	  0.64011	 -0.96877	  9.74145	 -0.36003	 11.08656	704.98102	 24.40	
 20.410	-53.489	  8.66088	  7.71000	  0.26409	 -0.75678	  9.37615	 -0.38331	 11.05810	704.97400	 24.40	
 20.408	-48.628	  8.67732	  8.19428	 -0.07239	 -0.51156	  9.00730	 -0.37556	 11.06961	704.86401	 24.40	
 20.396	-43.773	  8.69451	  8.64874	 -0.36603	 -0.22596	  8.59557	 -0.39489	 11.07718	705.05798	 24.40	
 20.392	-38.938	  8.69956	  9.05761	 -0.63221	  0.09211	  8.13845	 -0.39073	 11.07075	704.96503	 24.40	
 20.397	-34.097	  8.71429	  9.43323	 -0.86524	  0.43723	  7.66761	 -0.39404	 11.07469	704.92200	 24.40	
 20.405	-29.165	  8.73198	  9.78282	 -1.06856	  0.81439	  7.17301	 -0.39440	 11.09240	704.93701	 24.40	
 20.401	-24.295	  8.73176	 10.05307	 -1.22894	  1.23749	  6.63311	 -0.39350	 11.07803	704.91803	 24.40	
 20.392	-19.504	  8.75390	 10.29906	 -1.36583	  1.67670	  6.11655	 -0.39598	 11.09338	704.93903	 24.40	
 20.410	-14.577	  8.73452	 10.45947	 -1.46398	  2.13778	  5.55685	 -0.38413	 11.06857	705.05798	 24.40	
 20.407	 -9.736	  8.76114	 10.61753	 -1.53935	  2.63727	  5.01999	 -0.37532	 11.09898	704.93701	 24.40	
 20.401	 -4.847	  8.74058	 10.66681	 -1.57762	  3.14602	  4.45928	 -0.37437	 11.06431	705.05499	 24.40	
 20.400	  0.000	  8.77074	 10.73185	 -1.59310	  3.67638	  3.94488	 -0.36854	 11.09845	704.99402	 24.40	
 20.401	  4.847	  8.75104	 10.69474	 -1.57686	  4.21019	  3.40915	 -0.35989	 11.07456	705.12299	 24.40	
 20.407	  9.736	  8.77388	 10.66484	 -1.53158	  4.76802	  2.90635	 -0.36142	 11.10294	705.01599	 24.40	
 20.410	 14.577	  8.76581	 10.54914	 -1.45938	  5.31453	  2.42200	 -0.36174	 11.09042	705.07202	 24.40	
 20.392	 19.504	  8.75481	 10.36593	 -1.34135	  5.86646	  1.95765	 -0.36964	 11.07177	705.09802	 24.40	
 20.401	 24.295	  8.76144	 10.17123	 -1.20938	  6.40684	  1.53035	 -0.37536	 11.07995	705.03497	 24.40	
 20.405	 29.165	  8.77054	  9.92228	 -1.03677	  6.94742	  1.12111	 -0.39408	 11.08903	705.07202	 24.40	
 20.397	 34.097	  8.78010	  9.62020	 -0.82986	  7.48538	  0.73153	 -0.41411	 11.10261	704.96997	 24.40	
 20.392	 38.938	  8.76481	  9.25340	 -0.59124	  7.95161	  0.39793	 -0.44698	 11.07557	704.95001	 24.40	
 20.396	 43.773	  8.76957	  8.86604	 -0.32180	  8.40877	  0.08967	 -0.46871	 11.07211	704.99402	 24.40	
 20.408	 48.628	  8.78747	  8.45542	 -0.02402	  8.86017	 -0.20133	 -0.49328	 11.09809	705.03302	 24.40	
 20.410	 53.489	  8.77068	  7.97628	  0.30709	  9.23041	 -0.45153	 -0.51247	 11.06796	705.05701	 24.40	
 20.400	 58.396	  8.78750	  7.49123	  0.68355	  9.59098	 -0.66404	 -0.52035	 11.07901	705.12201	 24.40	
 20.403	 63.259	  8.81650	  6.99774	  1.09117	  9.91538	 -0.83887	 -0.52393	 11.10040	704.98102	 24.40	
 20.413	 68.100	  8.81718	  6.46778	  1.52056	 10.16267	 -0.99086	 -0.51724	 11.09584	705.16998	 24.40	
 20.398	 72.996	  8.81918	  5.92069	  1.99190	 10.36318	 -1.10428	 -0.50694	 11.08630	705.12000	 24.40	
 20.394	 77.868	  8.82804	  5.36733	  2.47953	 10.51881	 -1.19179	 -0.49072	 11.08924	705.06000	 24.40	
 20.403	 82.668	  8.84343	  4.83382	  2.98073	 10.63436	 -1.24926	 -0.47150	 11.10630	705.15302	 24.40	
 20.392	 87.560	  8.84122	  4.28379	  3.50840	 10.67089	 -1.26337	 -0.44791	 11.08494	705.11902	 24.40	
 20.392	 92.440	  8.87031	  3.75023	  4.07062	 10.69867	 -1.25894	 -0.42608	 11.11597	705.11902	 24.40	
 20.403	 97.332	  8.84618	  3.21154	  4.61053	 10.62091	 -1.21794	 -0.41766	 11.08070	705.02899	 24.40	
 20.394	102.132	  8.83761	  2.70973	  5.15271	 10.50908	 -1.14539	 -0.42532	 11.06157	705.15698	 24.40	
 20.398	107.004	  8.85956	  2.22131	  5.72460	 10.39184	 -1.06005	 -0.43966	 11.08879	705.01202	 24.40	
 20.413	111.900	  8.85627	  1.75986	  6.27420	 10.19112	 -0.93411	 -0.45322	 11.08204	705.09100	 24.40	
 20.403	116.741	  8.85154	  1.32065	  6.80583	  9.94191	 -0.77573	 -0.47692	 11.07425	705.04700	 24.40	
 20.400	121.604	  8.85661	  0.91417	  7.33311	  9.65664	 -0.59908	 -0.50277	 11.08320	705.06403	 24.40	
 20.410	126.511	  8.85688	  0.53819	  7.83696	  9.31355	 -0.37575	 -0.53225	 11.08323	705.02100	 24.40	
 20.408	131.372	  8.86938	  0.20455	  8.31935	  8.93915	 -0.11809	 -0.54879	 11.09160	704.89502	 24.40	
 20.396	136.227	  8.88581	 -0.09676	  8.77569	  8.52875	  0.17566	 -0.56967	 11.11053	705.07800	 24.40	
 20.392	141.062	  8.86447	 -0.37079	  9.15486	  8.05754	  0.49070	 -0.58771	 11.07968	705.10498	 24.40	
 20.397	145.903	  8.85394	 -0.61132	  9.51006	  7.57057	  0.83861	 -0.59700	 11.07388	705.11102	 24.40	
 20.405	150.835	  8.85665	 -0.82470	  9.84180	  7.05461	  1.23256	 -0.60161	 11.08807	705.09100	 24.40	
 20.401	155.705	  8.85565	 -1.00210	 10.11418	  6.52313	  1.64693	 -0.59829	 11.09016	705.03497	 24.40	
 20.392	160.496	  8.84598	 -1.14219	 10.32303	  5.99080	  2.07824	 -0.59239	 11.09029	705.04999	 24.40	
 20.410	165.423	  8.82840	 -1.26474	 10.48466	  5.41898	  2.54871	 -0.58919	 11.07838	705.14502	 24.40	
 20.407	170.264	  8.82949	 -1.34787	 10.61151	  4.85715	  3.03920	 -0.57712	 11.09197	705.04303	 24.40	
 20.401	175.153	  8.83733	 -1.40099	 10.69144	  4.31158	  3.55317	 -0.56564	 11.11012	705.13599	 24.40	
  0.141	 45.000	 11.07627	  5.99622	  5.84143	  5.87522	  6.11306	  0.07282	 11.06011	705.04401	 24.40	
  4.001	128.691	 11.08706	  5.12599	  6.62719	  6.79151	  5.11575	  0.03002	 11.09574	705.04700	 24.40	
  4.002	 76.995	 11.06543	  6.19402	  5.49693	  7.04176	  4.87154	  0.02835	 11.07901	705.01202	 24.40	
  4.002	 25.892	 11.07779	  7.08841	  4.66859	  6.33202	  5.49560	  0.02656	 11.09363	705.01898	 24.40	
  4.002	-25.892	 11.05051	  7.05913	  4.63664	  5.19709	  6.58736	  0.00963	 11.07943	705.05499	 24.40	
  4.002	-76.995	 11.04384	  6.12664	  5.45845	  4.53429	  7.32794	  0.00035	 11.06936	705.06598	 24.40	
  4.001	-128.691	 11.06014	  5.05569	  6.60340	  4.77770	  7.08336	  0.01401	 11.08314	705.04700	 24.50	
  4.000	180.000	 11.09675	  4.65693	  7.14730	  5.77804	  6.07189	  0.03642	 11.10971	705.19000	 24.50	
  8.000	180.000	 10.86062	  3.16125	  8.29751	  5.49870	  5.82848	 -0.12186	 11.09498	705.14301	 24.50	
  7.991	-152.370	 10.82717	  3.38448	  7.94944	  4.30098	  7.04619	 -0.12135	 11.08082	705.08002	 24.50	
  7.997	-124.550	 10.81315	  4.11787	  7.04520	  3.41315	  8.03881	 -0.14609	 11.08507	705.13397	 24.50	
  8.006	-96.837	 10.81716	  5.24247	  5.81776	  3.01629	  8.51147	 -0.17958	 11.09816	705.05701	 24.50	
  7.988	-69.228	 10.81622	  6.51147	  4.57283	  3.15335	  8.32679	 -0.19980	 11.09696	705.02698	 24.50	
  7.997	-41.563	 10.82605	  7.62625	  3.59953	  3.79043	  7.56355	 -0.18063	 11.10150	705.03198	 24.50	
  8.008	-13.821	 10.82498	  8.27691	  3.07495	  4.85136	  6.37666	 -0.14713	 11.08613	705.14697	 24.50	
  8.008	 13.821	 10.83675	  8.30387	  3.08396	  6.11773	  5.12811	 -0.14511	 11.09055	705.12903	 24.50	
  7.997	 41.563	 10.84555	  7.69395	  3.61899	  7.29059	  4.10040	 -0.11646	 11.08360	705.08099	 24.50	
  7.988	 69.228	 10.85683	  6.61641	  4.60368	  8.07035	  3.48396	 -0.11435	 11.08594	705.08801	 24.50	
  8.006	 96.837	 10.87404	  5.36467	  5.85136	  8.25253	  3.37312	 -0.13762	 11.09551	705.09998	 24.50	
  7.997	124.550	 10.86256	  4.22870	  7.06738	  7.76320	  3.77011	 -0.12204	 11.07629	705.09998	 24.50	
  7.991	152.370	 10.87327	  3.45605	  7.97777	  6.75723	  4.64969	 -0.11476	 11.09408	705.02100	 24.50	
 12.009	161.059	 10.42140	  1.81529	  9.06690	  6.39711	  4.18320	 -0.31337	 11.08695	705.03601	 24.50	
 12.013	142.081	 10.43955	  2.35425	  8.41016	  7.63059	  3.12491	 -0.32539	 11.09476	705.11102	 24.50	
 12.006	123.113	 10.44361	  3.21965	  7.37514	  8.57638	  2.35974	 -0.34661	 11.09359	705.15900	 24.50	
 12.007	104.200	 10.42246	  4.32886	  6.10740	  9.13078	  1.90929	 -0.38490	 11.07507	705.09698	 24.50	
 11.989	 85.301	 10.42567	  5.60747	  4.79383	  9.24098	  1.81026	 -0.35075	 11.08283	705.12299	 24.50	
 12.013	 66.294	 10.40585	  6.89365	  3.56545	  8.88120	  2.04922	 -0.31199	 11.07804	705.20697	 24.50	
 12.012	 47.388	 10.40188	  8.04348	  2.56718	  8.09939	  2.64864	 -0.31533	 11.08960	705.18103	 24.50	
 11.990	 28.440	 10.38060	  8.86720	  1.86128	  6.98747	  3.53420	 -0.33785	 11.07682	704.96997	 24.50	
 11.991	  9.464	 10.39037	  9.31202	  1.50124	  5.71289	  4.67759	 -0.36355	 11.09890	704.97101	 24.50	
 11.991	 -9.464	 10.38083	  9.28484	  1.49863	  4.41229	  5.96082	 -0.34649	 11.09709	705.19897	 24.50	
 11.990	-28.440	 10.33857	  8.78031	  1.83550	  3.23061	  7.22091	 -0.36111	 11.07070	705.03302	 24.50	
 12.012	-47.388	 10.32911	  7.90490	  2.52079	  2.31824	  8.31426	 -0.39316	 11.07895	705.05499	 24.50	
 12.013	-66.294	 10.32560	  6.73397	  3.51471	  1.70964	  9.09775	 -0.41268	 11.08643	705.08099	 24.50	
 11.989	-85.301	 10.32841	  5.43144	  4.74815	  1.46288	  9.44656	 -0.41561	 11.08879	705.11401	 24.50	
 12.007	-104.200	 10.32784	  4.15810	  6.06492	  1.54129	  9.35857	 -0.38716	 11.08845	705.06000	 24.50	
 12.006	-123.113	 10.34734	  3.06572	  7.32985	  1.98256	  8.82741	 -0.33561	 11.09988	705.02899	 24.50	
 12.013	-142.081	 10.36108	  2.24517	  8.36550	  2.76850	  7.89015	 -0.32870	 11.08745	705.14697	 24.50	
 12.009	-161.059	 10.36246	  1.75244	  9.02691	  3.82252	  6.68473	 -0.34593	 11.06406	705.13702	 24.50	
 16.000	180.000	  9.74905	  0.11596	 10.07715	  4.51702	  4.84354	 -0.52554	 11.09116	705.12201	 24.50	
 15.990	-165.604	  9.71807	  0.20384	  9.88790	  3.26588	  6.12635	 -0.53620	 11.08333	705.14203	 24.50	
 16.002	-151.165	  9.69331	  0.53921	  9.35285	  2.15096	  7.38498	 -0.51693	 11.07908	705.03900	 24.50	
 16.002	-136.836	  9.65613	  1.10750	  8.49570	  1.23839	  8.49119	 -0.48616	 11.07065	705.12299	 24.50	
 15.995	-122.439	  9.64807	  1.93255	  7.40029	  0.57339	  9.37777	 -0.48019	 11.07908	705.18103	 24.50	
 15.993	-107.966	  9.62997	  2.96928	  6.12772	  0.13244	  9.96173	 -0.49905	 11.07599	705.19800	 24.50	
 16.005	-93.629	  9.62427	  4.16383	  4.81127	 -0.06694	 10.21283	 -0.47967	 11.08386	705.13397	 24.50	
 15.992	-79.234	  9.62694	  5.46448	  3.53546	 -0.00597	 10.11204	 -0.44816	 11.08294	705.12201	 24.50	
 16.009	-64.774	  9.63638	  6.77569	  2.38107	  0.29694	  9.67218	 -0.43840	 11.08278	705.08899	 24.50	
 15.997	-50.364	  9.65359	  7.98041	  1.42210	  0.84862	  8.90552	 -0.44810	 11.08552	705.11401	 24.50	
 15.997	-36.045	  9.68428	  8.98754	  0.69351	  1.62971	  7.89002	 -0.45826	 11.09766	705.00098	 24.50	
 16.000	-21.597	  9.67711	  9.67735	  0.20570	  2.62897	  6.65811	 -0.45078	 11.07059	705.16199	 24.50	
 16.003	 -7.169	  9.69413	 10.05704	 -0.02510	  3.82485	  5.35689	 -0.43770	 11.07480	705.05200	 24.50	
 16.003	  7.169	  9.69672	 10.07882	 -0.02108	  5.11017	  4.08547	 -0.45145	 11.06619	705.13898	 24.50	
 16.000	 21.597	  9.71824	  9.77416	  0.22456	  6.42780	  2.92722	 -0.45773	 11.08709	705.03601	 24.50	
 15.997	 36.045	  9.70479	  9.10186	  0.72064	  7.64585	  1.93670	 -0.45626	 11.06423	705.18799	 24.50	
 15.997	 50.364	  9.72115	  8.16489	  1.45470	  8.70594	  1.15961	 -0.45975	 11.07531	705.17798	 24.50	
 16.009	 64.774	  9.71982	  6.99327	  2.41281	  9.46949	  0.62534	 -0.46269	 11.04857	705.21198	 24.50	
 15.992	 79.234	  9.75447	  5.71778	  3.58872	  9.94213	  0.33300	 -0.50130	 11.07473	705.19000	 24.50	
 16.005	 93.629	  9.75384	  4.40792	  4.86608	 10.03024	  0.28790	 -0.52933	 11.06402	705.22601	 24.50	
 15.993	107.966	  9.79208	  3.20273	  6.20779	  9.79714	  0.49401	 -0.53206	 11.08922	705.22101	 24.50	
 15.995	122.439	  9.78277	  2.13044	  7.46001	  9.17144	  0.93942	 -0.52636	 11.07369	705.22998	 24.50	
 16.002	136.836	  9.80242	  1.27093	  8.57556	  8.28261	  1.61032	 -0.51017	 11.10163	705.12903	 24.50	
 16.002	151.165	  9.78244	  0.64860	  9.39601	  7.13149	  2.50762	 -0.50766	 11.08392	705.30200	 24.50	
 15.990	165.604	  9.75049	  0.26825	  9.88994	  5.82242	  3.61261	 -0.50792	 11.06371	705.04700	 24.50	
 20.003	168.362	  8.91762	 -1.17619	 10.51637	  5.12063	  2.93883	 -0.58302	 11.07559	705.11102	 24.50	
 20.008	156.764	  8.92897	 -0.90337	 10.11380	  6.42624	  1.84464	 -0.60394	 11.07389	705.10498	 24.50	
 20.000	145.147	  8.95413	 -0.45229	  9.44392	  7.66044	  0.90309	 -0.60402	 11.08816	705.12799	 24.50	
 19.995	133.545	  8.95978	  0.18853	  8.50889	  8.72860	  0.14204	 -0.57886	 11.08104	705.03198	 24.50	
 20.009	121.926	  8.94225	  0.99996	  7.37804	  9.60218	 -0.45496	 -0.51091	 11.07881	705.12598	 24.50	
 20.005	110.327	  8.94805	  2.00690	  6.13458	 10.21799	 -0.83653	 -0.46685	 11.07840	705.04303	 24.50	
 19.989	 98.733	  8.95129	  3.15121	  4.83765	 10.55978	 -1.06228	 -0.44459	 11.09103	705.19897	 24.50	
 19.999	 87.075	  8.92461	  4.39616	  3.54273	 10.60315	 -1.11806	 -0.45931	 11.07571	705.04102	 24.50	
 19.992	 75.457	  8.92296	  5.68752	  2.34612	 10.39350	 -0.99365	 -0.51252	 11.07901	705.05499	 24.50	
 20.009	 63.844	  8.91622	  6.95594	  1.26572	  9.91123	 -0.71679	 -0.52512	 11.10107	705.06598	 24.50	
 19.989	 52.269	  8.90070	  8.12079	  0.36397	  9.13779	 -0.23621	 -0.50478	 11.10237	705.08002	 24.50	
 19.999	 40.602	  8.85590	  9.09966	 -0.37062	  8.10675	  0.41451	 -0.46613	 11.06587	705.15399	 24.50	
 20.004	 29.051	  8.85995	  9.88941	 -0.90231	  6.95076	  1.25132	 -0.39987	 11.07863	705.11401	 24.50	
 20.005	 17.433	  8.85391	 10.40742	 -1.25869	  5.67912	  2.25027	 -0.36582	 11.08177	705.07202	 24.50	
 20.006	  5.780	  8.84618	 10.64764	 -1.43151	  4.38517	  3.39489	 -0.36738	 11.07841	704.97900	 24.50	
 20.006	 -5.780	  8.84889	 10.63161	 -1.43711	  3.13920	  4.63680	 -0.38373	 11.08256	705.03198	 24.50	
 20.005	-17.433	  8.83938	 10.33379	 -1.27074	  1.97110	  5.92647	 -0.40709	 11.08456	705.15399	 24.60	
 20.004	-29.051	  8.82719	  9.76034	 -0.93918	  0.94789	  7.17700	 -0.40694	 11.09138	705.03900	 24.50	
 19.999	-40.602	  8.81573	  8.92692	 -0.41118	  0.11120	  8.31600	 -0.40151	 11.09316	705.06403	 24.50	
 19.989	-52.269	  8.78095	  7.85771	  0.30673	 -0.55937	  9.28543	 -0.38001	 11.07793	705.15100	 24.60	
 20.009	-63.844	  8.76515	  6.65593	  1.21115	 -1.02968	 10.02061	 -0.35710	 11.07331	704.97699	 24.60	
 19.992	-75.457	  8.77145	  5.37907	  2.27193	 -1.32926	 10.51838	 -0.34551	 11.09054	705.13397	 24.60	
 19.999	-87.075	  8.75432	  4.08518	  3.46084	 -1.45758	 10.71759	 -0.36441	 11.08033	705.15399	 24.60	
 19.989	-98.733	  8.74367	  2.85078	  4.73924	 -1.41196	 10.65446	 -0.40989	 11.06657	705.14502	 24.60	
 20.005	-110.327	  8.75584	  1.73911	  6.04274	 -1.20023	 10.35232	 -0.48211	 11.08211	705.06000	 24.60	
 20.009	-121.926	  8.75713	  0.78141	  7.28286	 -0.79654	  9.74194	 -0.52405	 11.06370	705.15698	 24.60	
 19.995	-133.545	  8.77868	  0.00624	  8.41143	 -0.21247	  8.90007	 -0.55331	 11.06530	705.19098	 24.60	
 20.000	-145.147	  8.81819	 -0.59037	  9.37006	  0.55459	  7.86601	 -0.55079	 11.08303	705.21301	 24.60	
 20.008	-156.764	  8.83936	 -1.00149	 10.06863	  1.50212	  6.66946	 -0.53266	 11.07635	705.13599	 24.60	
 20.003	-168.362	  8.87717	 -1.22871	 10.50367	  2.60632	  5.41516	 -0.53727	 11.09059	705.04700	 24.60	
 20.000	180.000	  8.89908	 -1.28577	 10.64228	  3.82992	  4.14611	 -0.55788	 11.08327	705.12799	 24.60	
