FileType=PCF
NHL=14
Date=08/29/17	17:10:48
Facility=APL
Serial=16328-16
Customer=NASA
NP=6
Mach=0.100000
Calibration=1:1
CalPts=490
TstPts=95
PortNumbering=AP Standard
Units=Torr C m/s kg/m^3 deg mm 
Theta[deg]	Phi[deg]	P1[Torr]	P2[Torr]	P3[Torr]	P4[Torr]	P5[Torr]	P6[Torr]	Pt[Torr]	Ps[Abs,Torr]	Ts[C]	
  0.000	  0.000	  4.95938	  2.69923	  2.65527	  2.64947	  2.77296	  0.03076	  4.95727	705.43298	 23.90	
  1.691	128.401	  4.96624	  2.56187	  2.77853	  2.81547	  2.59524	  0.02773	  4.96379	705.52301	 23.90	
  1.692	 77.194	  4.94811	  2.73422	  2.58811	  2.84495	  2.54644	  0.02708	  4.94453	705.37000	 23.90	
  1.699	 26.182	  4.96565	  2.88560	  2.45204	  2.75094	  2.64916	  0.02385	  4.96586	705.44299	 23.90	
  1.699	-26.182	  4.95178	  2.88354	  2.43077	  2.53785	  2.83951	  0.02051	  4.95062	705.35602	 23.90	
  1.692	-77.194	  4.97183	  2.72878	  2.58827	  2.42596	  2.98604	  0.01780	  4.96975	705.46899	 23.90	
  1.691	-128.401	  4.95469	  2.52645	  2.78356	  2.46652	  2.92656	  0.02181	  4.95357	705.40601	 23.90	
  1.700	180.000	  4.96400	  2.47045	  2.86883	  2.64671	  2.75193	  0.02507	  4.96298	705.43298	 23.90	
  3.400	180.000	  4.95310	  2.20242	  3.11037	  2.60280	  2.72939	  0.01679	  4.95952	705.51300	 23.90	
  3.388	-152.325	  4.94336	  2.23960	  3.04226	  2.38180	  2.95101	  0.01237	  4.95080	705.53699	 23.90	
  3.397	-124.529	  4.93513	  2.37062	  2.87462	  2.21939	  3.12205	  0.00942	  4.94499	705.49701	 23.90	
  3.399	-96.763	  4.94600	  2.58231	  2.65774	  2.14752	  3.21421	  0.00422	  4.95628	705.46899	 23.90	
  3.394	-69.283	  4.94100	  2.80748	  2.42990	  2.17272	  3.17577	  0.00228	  4.95197	705.51898	 23.90	
  3.400	-41.398	  4.94581	  3.01138	  2.24912	  2.29120	  3.03943	  0.00210	  4.95354	705.52802	 23.80	
  3.401	-14.021	  4.95353	  3.13109	  2.16389	  2.48088	  2.84191	  0.00584	  4.96064	705.48199	 23.80	
  3.401	 14.021	  4.94624	  3.13066	  2.16705	  2.71505	  2.60212	  0.00847	  4.95257	705.50299	 23.80	
  3.400	 41.398	  4.94423	  3.02308	  2.26401	  2.92232	  2.41520	  0.01586	  4.94976	705.53400	 23.80	
  3.394	 69.283	  4.95429	  2.82947	  2.44936	  3.06340	  2.30963	  0.01425	  4.95694	705.50800	 23.80	
  3.399	 96.763	  4.94652	  2.60967	  2.65868	  3.08901	  2.29135	  0.01600	  4.95399	705.44897	 23.80	
  3.397	124.529	  4.96865	  2.41035	  2.89381	  3.01431	  2.37271	  0.01358	  4.97147	705.47498	 23.80	
  3.388	152.325	  4.95494	  2.26566	  3.04539	  2.82933	  2.51850	  0.01341	  4.96076	705.56097	 23.80	
  5.099	161.165	  4.92421	  1.96551	  3.29322	  2.80189	  2.46429	 -0.00280	  4.94852	705.59497	 23.80	
  5.109	142.013	  4.93336	  2.07770	  3.17447	  3.03125	  2.26764	 -0.00348	  4.95754	705.45697	 23.80	
  5.095	123.033	  4.92426	  2.24091	  2.97860	  3.19317	  2.12336	 -0.00377	  4.94739	705.43298	 23.80	
  5.105	104.191	  4.94397	  2.45995	  2.76171	  3.31145	  2.03927	 -0.00406	  4.96711	705.50598	 23.80	
  5.093	 85.207	  4.93077	  2.68918	  2.51184	  3.32670	  2.01030	 -0.00473	  4.95655	705.53900	 23.80	
  5.104	 66.290	  4.93372	  2.92790	  2.28624	  3.26195	  2.06222	 -0.00364	  4.95898	705.45801	 23.80	
  5.094	 47.331	  4.92745	  3.13783	  2.09111	  3.11387	  2.17432	 -0.00458	  4.95495	705.49200	 23.80	
  5.089	 28.397	  4.93420	  3.29490	  1.95851	  2.92123	  2.34839	 -0.00660	  4.96370	705.60901	 23.80	
  5.096	  9.576	  4.92789	  3.37129	  1.88412	  2.68516	  2.56283	 -0.00990	  4.95810	705.46899	 23.80	
  5.096	 -9.576	  4.93112	  3.36995	  1.88410	  2.43842	  2.81090	 -0.01458	  4.96543	705.59302	 23.80	
  5.089	-28.397	  4.92364	  3.27567	  1.95171	  2.22093	  3.03523	 -0.01729	  4.95810	705.58698	 23.70	
  5.094	-47.331	  4.93519	  3.12185	  2.08772	  2.04865	  3.24659	 -0.02024	  4.97227	705.56702	 23.70	
  5.104	-66.290	  4.91646	  2.89536	  2.27304	  1.92022	  3.37679	 -0.02310	  4.95474	705.73901	 23.70	
  5.093	-85.207	  4.91688	  2.65827	  2.49909	  1.86272	  3.44768	 -0.02502	  4.95632	705.60901	 23.70	
  5.105	-104.191	  4.93829	  2.42966	  2.75673	  1.88906	  3.44519	 -0.01833	  4.97510	705.51599	 23.70	
  5.095	-123.033	  4.92363	  2.21230	  2.97953	  1.97498	  3.32876	 -0.01327	  4.95774	705.47498	 23.70	
  5.109	-142.013	  4.92374	  2.04977	  3.17192	  2.12846	  3.15686	 -0.00862	  4.95710	705.52301	 23.70	
  5.099	-161.165	  4.92236	  1.94955	  3.29576	  2.33238	  2.93116	 -0.00666	  4.95214	705.69299	 23.70	
  5.100	180.000	  4.92772	  1.92349	  3.34229	  2.56536	  2.69781	 -0.00552	  4.95729	705.46503	 23.70	
  6.800	180.000	  4.88434	  1.63862	  3.56108	  2.51413	  2.65276	 -0.03121	  4.95369	705.51898	 23.70	
  6.796	-166.229	  4.89450	  1.66351	  3.53980	  2.28890	  2.89574	 -0.03236	  4.96733	705.63000	 23.70	
  6.808	-152.311	  4.87797	  1.72542	  3.43805	  2.06604	  3.11511	 -0.03077	  4.95346	705.65399	 23.70	
  6.795	-138.383	  4.88524	  1.84493	  3.29547	  1.88268	  3.32713	 -0.03929	  4.96528	705.53900	 23.70	
  6.792	-124.591	  4.88152	  2.00375	  3.10191	  1.73519	  3.49348	 -0.04238	  4.96232	705.52002	 23.70	
  6.787	-110.754	  4.86858	  2.19834	  2.87023	  1.63265	  3.59932	 -0.04690	  4.95100	705.56097	 23.70	
  6.800	-96.985	  4.86847	  2.42134	  2.63418	  1.58011	  3.65929	 -0.05298	  4.95483	705.56799	 23.70	
  6.800	-83.015	  4.88205	  2.67182	  2.39497	  1.58527	  3.66493	 -0.05844	  4.96678	705.65997	 23.70	
  6.787	-69.246	  4.87202	  2.90282	  2.16699	  1.63422	  3.59462	 -0.05710	  4.95748	705.49902	 23.70	
  6.792	-55.409	  4.86976	  3.12315	  1.96634	  1.73035	  3.47266	 -0.05359	  4.95468	705.50598	 23.70	
  6.795	-41.617	  4.87193	  3.31527	  1.80260	  1.87582	  3.30230	 -0.05274	  4.95609	705.44397	 23.60	
  6.808	-27.689	  4.86603	  3.46379	  1.67610	  2.05556	  3.09055	 -0.04912	  4.94545	705.57501	 23.60	
  6.796	-13.771	  4.87981	  3.56383	  1.60821	  2.27791	  2.86711	 -0.04166	  4.95581	705.45801	 23.60	
  6.800	  0.000	  4.87489	  3.59286	  1.58488	  2.50544	  2.62642	 -0.04098	  4.95174	705.47998	 23.60	
  6.796	 13.771	  4.87408	  3.56972	  1.60549	  2.74380	  2.39471	 -0.04170	  4.94867	705.50800	 23.60	
  6.808	 27.689	  4.88336	  3.48774	  1.68614	  2.98313	  2.18440	 -0.03794	  4.95377	705.59302	 23.60	
  6.795	 41.617	  4.88613	  3.34516	  1.81487	  3.18802	  2.01191	 -0.02979	  4.95579	705.50299	 23.60	
  6.792	 55.409	  4.88673	  3.15766	  1.98099	  3.35907	  1.87200	 -0.03037	  4.95213	705.65503	 23.60	
  6.787	 69.246	  4.88751	  2.94343	  2.17974	  3.47741	  1.78105	 -0.02608	  4.95158	705.45099	 23.60	
  6.800	 83.015	  4.88598	  2.70686	  2.40403	  3.54040	  1.73094	 -0.02769	  4.94862	705.46100	 23.60	
  6.800	 96.985	  4.90199	  2.47201	  2.65378	  3.55403	  1.73833	 -0.03527	  4.96391	705.38800	 23.60	
  6.787	110.754	  4.89067	  2.24215	  2.88251	  3.48295	  1.78764	 -0.03402	  4.95391	705.31702	 23.60	
  6.792	124.591	  4.89129	  2.04593	  3.10312	  3.36225	  1.88885	 -0.03175	  4.95254	705.38501	 23.60	
  6.795	138.383	  4.89325	  1.87998	  3.29617	  3.19448	  2.03238	 -0.03084	  4.95576	705.29401	 23.60	
  6.808	152.311	  4.89264	  1.75101	  3.44582	  2.99128	  2.20987	 -0.02957	  4.95601	705.50598	 23.60	
  6.796	166.229	  4.88376	  1.67356	  3.53008	  2.75620	  2.42068	 -0.02694	  4.95313	705.47198	 23.60	
  8.491	168.704	  4.83920	  1.38346	  3.75307	  2.71215	  2.35974	 -0.06059	  4.96763	705.31897	 23.60	
  8.502	157.493	  4.83294	  1.44505	  3.67369	  2.94456	  2.13593	 -0.06041	  4.95584	705.36499	 23.60	
  8.494	146.194	  4.84217	  1.55320	  3.55424	  3.17596	  1.93886	 -0.06632	  4.96226	705.37000	 23.60	
  8.495	135.039	  4.84946	  1.69462	  3.39552	  3.38161	  1.77100	 -0.06669	  4.97082	705.31702	 23.60	
  8.487	123.723	  4.83869	  1.86859	  3.18329	  3.54162	  1.62890	 -0.06449	  4.95674	705.44299	 23.60	
  8.492	112.575	  4.84304	  2.06961	  2.96095	  3.66886	  1.52738	 -0.06961	  4.96403	705.45697	 23.60	
  8.510	101.220	  4.84829	  2.29662	  2.72228	  3.75135	  1.46439	 -0.07479	  4.97048	705.51398	 23.60	
  8.500	 90.000	  4.84748	  2.53852	  2.47392	  3.77086	  1.44377	 -0.06961	  4.96706	705.48798	 23.60	
  8.510	 78.780	  4.82813	  2.77350	  2.22568	  3.73595	  1.45211	 -0.06313	  4.95053	705.42902	 23.60	
  8.492	 67.425	  4.82386	  3.01162	  1.99283	  3.65129	  1.50829	 -0.06389	  4.94750	705.34998	 23.60	
  8.487	 56.277	  4.82331	  3.23374	  1.79188	  3.52804	  1.60501	 -0.06699	  4.95073	705.44702	 23.60	
  8.495	 44.961	  4.83634	  3.44204	  1.61883	  3.37168	  1.74124	 -0.06590	  4.96718	705.44397	 23.60	
  8.494	 33.806	  4.83340	  3.60190	  1.48210	  3.16680	  1.91213	 -0.06480	  4.96743	705.35901	 23.60	
  8.502	 22.507	  4.81923	  3.71331	  1.37334	  2.93268	  2.10479	 -0.07363	  4.95169	705.34198	 23.60	
  8.491	 11.296	  4.82102	  3.78374	  1.31268	  2.69376	  2.32474	 -0.08228	  4.95510	705.25403	 23.60	
  8.500	  0.000	  4.82395	  3.81270	  1.28896	  2.44536	  2.56950	 -0.07827	  4.96430	705.40100	 23.60	
  8.491	-11.296	  4.81804	  3.77820	  1.31081	  2.20540	  2.80916	 -0.07585	  4.95690	705.41803	 23.60	
  8.502	-22.507	  4.82099	  3.70226	  1.37044	  1.98510	  3.04958	 -0.08009	  4.96648	705.42401	 23.60	
  8.494	-33.806	  4.82381	  3.57320	  1.47436	  1.78274	  3.27946	 -0.08836	  4.97027	705.32599	 23.60	
  8.495	-44.961	  4.80584	  3.39176	  1.60549	  1.60292	  3.46952	 -0.09036	  4.95412	705.51300	 23.60	
  8.487	-56.277	  4.80935	  3.19165	  1.78275	  1.46894	  3.63905	 -0.09086	  4.95939	705.48199	 23.60	
  8.492	-67.425	  4.80440	  2.96330	  1.98026	  1.36571	  3.75959	 -0.09558	  4.95484	705.43701	 23.60	
  8.510	-78.780	  4.81099	  2.72512	  2.20858	  1.30379	  3.84782	 -0.10048	  4.96372	705.40601	 23.60	
  8.500	-90.000	  4.81074	  2.47722	  2.45394	  1.28964	  3.87125	 -0.09726	  4.96076	705.50500	 23.60	
  8.510	-101.220	  4.81455	  2.24000	  2.70168	  1.30794	  3.85356	 -0.09085	  4.96567	705.42603	 23.60	
  8.492	-112.575	  4.81323	  2.01497	  2.94534	  1.37305	  3.77500	 -0.08119	  4.96142	705.40198	 23.60	
  8.487	-123.723	  4.81720	  1.81976	  3.17455	  1.47585	  3.65902	 -0.07834	  4.96743	705.43500	 23.60	
  8.495	-135.039	  4.82680	  1.64943	  3.38433	  1.61295	  3.50340	 -0.07301	  4.97294	705.42700	 23.50	
  8.494	-146.194	  4.82841	  1.52011	  3.54895	  1.78804	  3.30768	 -0.06506	  4.96822	705.40900	 23.50	
  8.502	-157.493	  4.83593	  1.42471	  3.67971	  1.99757	  3.08361	 -0.06440	  4.97059	705.49701	 23.50	
  8.491	-168.704	  4.82821	  1.36819	  3.74843	  2.21734	  2.84229	 -0.06766	  4.96239	705.43298	 23.50	
  8.500	180.000	  4.82543	  1.35217	  3.77208	  2.45404	  2.59669	 -0.06481	  4.95428	705.49701	 23.50	
 10.200	180.000	  4.75350	  1.06006	  3.97158	  2.38296	  2.52847	 -0.10400	  4.96269	705.42700	 23.50	
 10.191	-170.497	  4.73811	  1.06915	  3.93784	  2.13497	  2.76397	 -0.10567	  4.94963	705.37903	 23.50	
 10.210	-161.034	  4.74960	  1.11450	  3.88585	  1.90960	  3.01301	 -0.10547	  4.96209	705.36401	 23.50	
 10.194	-151.526	  4.73354	  1.19257	  3.76262	  1.69112	  3.24192	 -0.10098	  4.95362	705.48199	 23.50	
 10.190	-142.105	  4.73794	  1.30614	  3.62036	  1.49975	  3.46259	 -0.10380	  4.96336	705.50800	 23.50	
 10.215	-132.646	  4.72963	  1.44584	  3.43854	  1.33684	  3.64835	 -0.10615	  4.95851	705.37500	 23.50	
 10.203	-123.092	  4.72855	  1.61985	  3.22664	  1.20143	  3.81009	 -0.11142	  4.95816	705.44897	 23.50	
 10.192	-113.678	  4.72623	  1.81631	  2.99609	  1.10255	  3.93027	 -0.11866	  4.95794	705.39600	 23.50	
 10.208	-104.249	  4.70824	  2.02769	  2.74415	  1.02456	  4.00436	 -0.12874	  4.94372	705.38501	 23.50	
 10.210	-94.801	  4.72660	  2.27444	  2.50437	  0.99325	  4.06178	 -0.13773	  4.96656	705.28601	 23.50	
 10.210	-85.199	  4.72671	  2.52310	  2.25212	  0.99160	  4.05717	 -0.14241	  4.96439	705.33698	 23.50	
 10.208	-75.751	  4.72543	  2.76781	  2.01249	  1.02655	  4.00798	 -0.14472	  4.96315	705.31897	 23.50	
 10.192	-66.322	  4.73496	  3.01788	  1.79317	  1.09901	  3.92474	 -0.13652	  4.96877	705.27802	 23.50	
 10.203	-56.908	  4.72007	  3.23816	  1.58498	  1.19266	  3.78710	 -0.13214	  4.95301	705.32599	 23.50	
 10.215	-47.354	  4.73115	  3.46073	  1.40506	  1.32888	  3.62880	 -0.13175	  4.96396	705.43701	 23.50	
 10.190	-37.895	  4.73372	  3.63664	  1.26517	  1.49520	  3.43378	 -0.12435	  4.96124	705.31702	 23.50	
 10.194	-28.474	  4.72516	  3.77906	  1.14585	  1.67916	  3.20886	 -0.11890	  4.95211	705.34698	 23.50	
 10.210	-18.966	  4.73667	  3.90331	  1.05931	  1.89856	  2.97439	 -0.12042	  4.95877	705.28802	 23.50	
 10.191	 -9.503	  4.73966	  3.97169	  1.01174	  2.12833	  2.73237	 -0.11563	  4.95949	705.43500	 23.50	
 10.200	  0.000	  4.73800	  3.99774	  0.99454	  2.36797	  2.48725	 -0.11801	  4.95455	705.34003	 23.50	
 10.191	  9.503	  4.73849	  3.98058	  1.01351	  2.61945	  2.24413	 -0.11856	  4.95407	705.42603	 23.50	
 10.210	 18.966	  4.75346	  3.93046	  1.06817	  2.87315	  2.02419	 -0.11388	  4.96636	705.34198	 23.50	
 10.194	 28.474	  4.74859	  3.82314	  1.15682	  3.10614	  1.81630	 -0.10560	  4.95882	705.38702	 23.50	
 10.190	 37.895	  4.75925	  3.68907	  1.27583	  3.33545	  1.62950	 -0.10001	  4.96999	705.25500	 23.50	
 10.215	 47.354	  4.74500	  3.50329	  1.41700	  3.52121	  1.46472	 -0.10212	  4.95466	705.41602	 23.50	
 10.203	 56.908	  4.75092	  3.30142	  1.60049	  3.68561	  1.34008	 -0.09974	  4.95600	705.45697	 23.50	
 10.192	 66.322	  4.75659	  3.07385	  1.80881	  3.81652	  1.24486	 -0.09932	  4.95450	705.36401	 23.50	
 10.208	 75.751	  4.75256	  2.83153	  2.02865	  3.90529	  1.17575	 -0.09865	  4.95264	705.35400	 23.50	
 10.210	 85.199	  4.76816	  2.59582	  2.27458	  3.96285	  1.15195	 -0.10701	  4.96780	705.26398	 23.50	
 10.210	 94.801	  4.75902	  2.33944	  2.52471	  3.95665	  1.15207	 -0.11535	  4.95762	705.35400	 23.50	
 10.208	104.249	  4.77126	  2.10840	  2.77907	  3.92136	  1.19180	 -0.11848	  4.96804	705.39502	 23.50	
 10.192	113.678	  4.76590	  1.88482	  3.01837	  3.82690	  1.26505	 -0.11237	  4.95973	705.42603	 23.50	
 10.203	123.092	  4.75900	  1.68139	  3.24189	  3.69625	  1.36138	 -0.10483	  4.95385	705.34998	 23.50	
 10.215	132.646	  4.77567	  1.50454	  3.46418	  3.54922	  1.49597	 -0.10222	  4.97160	705.46002	 23.50	
 10.190	142.105	  4.76758	  1.35316	  3.63520	  3.34443	  1.65961	 -0.10106	  4.96355	705.41803	 23.50	
 10.194	151.526	  4.77048	  1.23489	  3.78463	  3.12610	  1.85163	 -0.09943	  4.96776	705.34198	 23.50	
 10.210	161.034	  4.75629	  1.13931	  3.88692	  2.88354	  2.05614	 -0.09556	  4.95785	705.35699	 23.50	
 10.191	170.497	  4.75198	  1.08507	  3.94734	  2.63673	  2.28177	 -0.09737	  4.95688	705.30298	 23.50	
 11.899	171.783	  4.65575	  0.78912	  4.12845	  2.55245	  2.19316	 -0.13784	  4.95513	705.31403	 23.50	
 11.890	163.610	  4.67278	  0.84142	  4.08440	  2.80826	  1.97268	 -0.13440	  4.96763	705.34802	 23.50	
 11.889	155.445	  4.66997	  0.91451	  3.98720	  3.04882	  1.75212	 -0.13678	  4.96236	705.29401	 23.50	
 11.909	147.299	  4.67093	  1.00712	  3.86521	  3.28093	  1.54692	 -0.14782	  4.96438	705.31598	 23.50	
 11.902	139.148	  4.67017	  1.14878	  3.69703	  3.49355	  1.37420	 -0.14003	  4.96078	705.27197	 23.50	
 11.894	130.867	  4.67052	  1.30619	  3.50412	  3.68223	  1.22104	 -0.14718	  4.96032	705.29102	 23.50	
 11.897	122.732	  4.66712	  1.48526	  3.29028	  3.84047	  1.09324	 -0.14947	  4.95746	705.31403	 23.50	
 11.903	114.597	  4.67400	  1.68556	  3.06619	  3.97863	  0.99319	 -0.15832	  4.96340	705.43500	 23.50	
 11.893	106.346	  4.66754	  1.90681	  2.81373	  4.06753	  0.91679	 -0.16303	  4.96063	705.36200	 23.50	
 11.892	 98.155	  4.65841	  2.13760	  2.55838	  4.11619	  0.86991	 -0.15946	  4.94788	705.33301	 23.50	
 11.900	 90.000	  4.67204	  2.38743	  2.31470	  4.14656	  0.85533	 -0.15347	  4.95970	705.21198	 23.50	
 11.892	 81.845	  4.66868	  2.63503	  2.06953	  4.12315	  0.86867	 -0.14133	  4.95976	705.26001	 23.50	
 11.893	 73.654	  4.66560	  2.88220	  1.83285	  4.06379	  0.90501	 -0.13399	  4.96226	705.23798	 23.50	
 11.903	 65.403	  4.65288	  3.11802	  1.60483	  3.95948	  0.97162	 -0.13272	  4.95129	705.16803	 23.50	
 11.897	 57.268	  4.65907	  3.35097	  1.40464	  3.83355	  1.07043	 -0.13434	  4.95850	705.21198	 23.50	
 11.894	 49.133	  4.65558	  3.55452	  1.22633	  3.66758	  1.19515	 -0.13663	  4.95612	705.17401	 23.40	
 11.902	 40.852	  4.65137	  3.74308	  1.06607	  3.47723	  1.34004	 -0.14013	  4.95926	705.21600	 23.40	
 11.909	 32.701	  4.64813	  3.89541	  0.93835	  3.26480	  1.51207	 -0.14136	  4.95798	705.26001	 23.40	
 11.889	 24.555	  4.64407	  4.01660	  0.83882	  3.02585	  1.71373	 -0.14773	  4.95231	705.14203	 23.40	
 11.890	 16.390	  4.65105	  4.11478	  0.76651	  2.78716	  1.92933	 -0.15498	  4.96286	705.28497	 23.40	
 11.899	  8.217	  4.63866	  4.15596	  0.71842	  2.53378	  2.15103	 -0.16044	  4.95116	705.13898	 23.40	
 11.900	  0.000	  4.65178	  4.18186	  0.70531	  2.28978	  2.40033	 -0.16188	  4.96646	705.36200	 23.40	
 11.899	 -8.217	  4.64922	  4.15663	  0.71869	  2.04302	  2.64926	 -0.15253	  4.96242	705.23602	 23.40	
 11.890	-16.390	  4.64166	  4.09079	  0.76099	  1.80847	  2.89137	 -0.14969	  4.95921	705.17798	 23.40	
 11.889	-24.555	  4.63253	  3.98540	  0.83219	  1.58682	  3.12949	 -0.15366	  4.95279	705.21802	 23.40	
 11.909	-32.701	  4.63850	  3.86140	  0.92880	  1.38560	  3.36837	 -0.15865	  4.96274	705.29401	 23.40	
 11.902	-40.852	  4.62795	  3.69094	  1.05401	  1.21170	  3.57086	 -0.15994	  4.95537	705.12903	 23.40	
 11.894	-49.133	  4.63297	  3.49996	  1.21199	  1.05672	  3.76721	 -0.16723	  4.96392	705.18500	 23.40	
 11.897	-57.268	  4.62632	  3.28302	  1.38883	  0.92794	  3.92577	 -0.17141	  4.95936	705.17297	 23.40	
 11.903	-65.403	  4.62510	  3.04910	  1.58882	  0.82475	  4.05868	 -0.17583	  4.96142	705.13397	 23.40	
 11.893	-73.654	  4.62191	  2.80177	  1.81039	  0.75643	  4.14757	 -0.17945	  4.95584	705.22601	 23.40	
 11.892	-81.845	  4.62630	  2.55646	  2.04760	  0.71719	  4.21178	 -0.17922	  4.96428	705.20398	 23.40	
 11.900	-90.000	  4.61443	  2.29947	  2.28740	  0.69996	  4.22270	 -0.18184	  4.95146	705.13599	 23.40	
 11.892	-98.155	  4.63064	  2.06664	  2.54572	  0.72054	  4.21974	 -0.17490	  4.96753	705.22601	 23.40	
 11.893	-106.346	  4.62176	  1.83198	  2.79025	  0.76002	  4.15964	 -0.16299	  4.95913	705.11499	 23.40	
 11.903	-114.597	  4.62465	  1.61209	  3.04131	  0.83131	  4.07200	 -0.15220	  4.96140	705.25702	 23.40	
 11.897	-122.732	  4.63340	  1.42122	  3.27490	  0.93475	  3.95276	 -0.14502	  4.96690	705.28802	 23.40	
 11.894	-130.867	  4.62327	  1.24615	  3.47770	  1.06172	  3.78273	 -0.14005	  4.94852	705.22998	 23.40	
 11.902	-139.148	  4.64395	  1.09823	  3.68581	  1.22049	  3.60993	 -0.13927	  4.96776	705.24902	 23.40	
 11.909	-147.299	  4.64428	  0.97292	  3.84830	  1.40004	  3.40073	 -0.13914	  4.96608	705.27502	 23.40	
 11.889	-155.445	  4.63760	  0.88167	  3.96669	  1.59810	  3.16594	 -0.14094	  4.95354	705.19800	 23.40	
 11.890	-163.610	  4.64500	  0.81532	  4.06521	  1.82051	  2.92642	 -0.14753	  4.95425	705.03900	 23.40	
 11.899	-171.783	  4.65224	  0.77853	  4.12779	  2.05509	  2.68661	 -0.14617	  4.95752	705.13397	 23.40	
 11.900	180.000	  4.65493	  0.77141	  4.14815	  2.29926	  2.44119	 -0.14162	  4.95689	705.06299	 23.40	
 13.600	180.000	  4.53993	  0.48411	  4.30709	  2.19958	  2.34191	 -0.18236	  4.95480	705.08801	 23.40	
 13.608	-172.853	  4.54555	  0.48793	  4.30169	  1.96376	  2.58949	 -0.18882	  4.96713	705.13702	 23.40	
 13.611	-165.583	  4.52575	  0.51714	  4.23425	  1.71923	  2.82734	 -0.18948	  4.94894	705.06702	 23.40	
 13.601	-158.353	  4.53229	  0.57446	  4.15723	  1.49743	  3.08071	 -0.18594	  4.96227	705.08099	 23.40	
 13.609	-151.210	  4.52271	  0.65138	  4.03670	  1.29151	  3.30471	 -0.18377	  4.95487	705.11499	 23.40	
 13.611	-143.999	  4.51975	  0.75265	  3.89297	  1.10084	  3.52715	 -0.17807	  4.95738	705.07202	 23.40	
 13.601	-136.825	  4.51465	  0.88198	  3.71604	  0.93221	  3.73142	 -0.17441	  4.95784	705.17401	 23.40	
 13.596	-129.640	  4.51706	  1.03895	  3.51979	  0.78925	  3.91674	 -0.17263	  4.96414	705.20697	 23.40	
 13.611	-122.431	  4.51680	  1.21006	  3.30396	  0.66413	  4.07540	 -0.17888	  4.96743	705.14502	 23.40	
 13.604	-115.211	  4.51053	  1.40234	  3.06731	  0.56682	  4.19761	 -0.18703	  4.96388	705.13599	 23.40	
 13.595	-108.042	  4.50980	  1.61526	  2.82376	  0.49666	  4.28941	 -0.19350	  4.96229	705.06598	 23.40	
 13.607	-100.793	  4.50074	  1.83948	  2.56830	  0.44231	  4.34790	 -0.20370	  4.95672	705.26300	 23.40	
 13.601	-93.617	  4.49840	  2.07308	  2.31651	  0.41783	  4.37413	 -0.20927	  4.95444	705.03900	 23.40	
 13.601	-86.383	  4.50523	  2.32607	  2.06665	  0.41513	  4.38035	 -0.20529	  4.96116	705.16199	 23.40	
 13.607	-79.207	  4.50434	  2.57301	  1.82727	  0.43850	  4.34257	 -0.20800	  4.95865	705.10797	 23.40	
 13.595	-71.958	  4.50967	  2.82876	  1.59570	  0.48771	  4.27657	 -0.20175	  4.96257	705.26801	 23.40	
 13.604	-64.789	  4.50994	  3.07397	  1.37991	  0.56034	  4.17761	 -0.19892	  4.96318	705.16498	 23.40	
 13.611	-57.569	  4.51664	  3.31048	  1.18350	  0.65650	  4.05354	 -0.19865	  4.96962	705.09698	 23.40	
 13.596	-50.360	  4.51719	  3.53013	  1.00560	  0.78066	  3.89103	 -0.19136	  4.96672	705.18103	 23.40	
 13.601	-43.175	  4.51355	  3.72435	  0.84807	  0.92361	  3.69949	 -0.19161	  4.95967	705.17603	 23.40	
 13.611	-36.001	  4.52504	  3.90922	  0.71536	  1.09343	  3.49950	 -0.18816	  4.97055	705.08600	 23.40	
 13.609	-28.790	  4.51782	  4.04879	  0.60472	  1.27763	  3.26909	 -0.18519	  4.95646	705.23602	 23.40	
 13.601	-21.647	  4.53143	  4.17843	  0.52159	  1.48404	  3.04376	 -0.18138	  4.96950	705.17401	 23.40	
 13.611	-14.417	  4.53158	  4.26549	  0.45844	  1.70717	  2.79447	 -0.17634	  4.96359	705.03900	 23.40	
 13.608	 -7.147	  4.52747	  4.31483	  0.42212	  1.94147	  2.54051	 -0.17637	  4.96029	705.13397	 23.40	
 13.600	  0.000	  4.52700	  4.33289	  0.41322	  2.18072	  2.29743	 -0.18233	  4.95566	705.15698	 23.40	
 13.608	  7.147	  4.53394	  4.32737	  0.42306	  2.43425	  2.05494	 -0.19068	  4.95838	705.16998	 23.40	
 13.611	 14.417	  4.52950	  4.27591	  0.46357	  2.68383	  1.82323	 -0.18994	  4.95494	705.03497	 23.40	
 13.601	 21.647	  4.53768	  4.20531	  0.53034	  2.93559	  1.60878	 -0.18369	  4.96173	705.03198	 23.40	
 13.609	 28.790	  4.54289	  4.10103	  0.61499	  3.18177	  1.40230	 -0.17957	  4.96945	705.02899	 23.40	
 13.611	 36.001	  4.53730	  3.95388	  0.72292	  3.40302	  1.21720	 -0.17342	  4.95925	705.09399	 23.40	
 13.601	 43.175	  4.53809	  3.78261	  0.86320	  3.60835	  1.05837	 -0.17503	  4.95876	704.97302	 23.40	
 13.596	 50.360	  4.54479	  3.59294	  1.02143	  3.79939	  0.91547	 -0.17133	  4.95981	705.03900	 23.40	
 13.611	 57.569	  4.55779	  3.39377	  1.20162	  3.97349	  0.79654	 -0.16753	  4.97284	705.11401	 23.40	
 13.604	 64.789	  4.55308	  3.15657	  1.39996	  4.09862	  0.70204	 -0.16932	  4.96237	705.23199	 23.40	
 13.595	 71.958	  4.56181	  2.92059	  1.62268	  4.20567	  0.63801	 -0.16807	  4.96912	705.17798	 23.40	
 13.607	 79.207	  4.55182	  2.66694	  1.84961	  4.26290	  0.58883	 -0.17533	  4.95781	705.17603	 23.40	
 13.601	 86.383	  4.56953	  2.42592	  2.09756	  4.30986	  0.57018	 -0.18815	  4.97073	705.08899	 23.40	
 13.601	 93.617	  4.55612	  2.16922	  2.34241	  4.29714	  0.57314	 -0.19594	  4.95671	705.10797	 23.40	
 13.607	100.793	  4.56500	  1.93438	  2.59774	  4.27464	  0.59942	 -0.19994	  4.96473	704.96503	 23.40	
 13.595	108.042	  4.55962	  1.70116	  2.84646	  4.20226	  0.64922	 -0.19921	  4.95758	704.99402	 23.40	
 13.604	115.211	  4.54117	  1.47832	  3.07756	  4.08952	  0.72057	 -0.19397	  4.93757	704.96503	 23.40	
 13.611	122.431	  4.54960	  1.28417	  3.31470	  3.96408	  0.82330	 -0.18455	  4.94567	704.97699	 23.40	
 13.596	129.640	  4.56224	  1.10866	  3.54016	  3.81409	  0.94902	 -0.18124	  4.96005	705.04401	 23.40	
 13.601	136.825	  4.56732	  0.94834	  3.74313	  3.63231	  1.09503	 -0.17914	  4.96695	705.09698	 23.40	
 13.611	143.999	  4.57194	  0.81207	  3.92181	  3.43160	  1.25856	 -0.17674	  4.97369	705.03302	 23.40	
 13.609	151.210	  4.56360	  0.69889	  4.06120	  3.20138	  1.44558	 -0.17601	  4.96974	705.03302	 23.40	
 13.601	158.353	  4.55769	  0.61012	  4.16968	  2.95765	  1.65035	 -0.17355	  4.96288	705.12799	 23.40	
 13.611	165.583	  4.54733	  0.54191	  4.24520	  2.70466	  1.86699	 -0.17086	  4.95626	705.13702	 23.40	
 13.608	172.853	  4.54563	  0.50124	  4.29551	  2.45465	  2.10090	 -0.17581	  4.95612	704.91699	 23.40	
 15.298	173.587	  4.41399	  0.21604	  4.43819	  2.34437	  1.98969	 -0.21027	  4.95462	705.00800	 23.40	
 15.291	167.167	  4.42759	  0.25256	  4.40754	  2.59902	  1.76624	 -0.20851	  4.96646	704.99298	 23.40	
 15.307	160.676	  4.43582	  0.30980	  4.33896	  2.85248	  1.54252	 -0.20974	  4.96819	705.05499	 23.40	
 15.300	154.261	  4.41803	  0.38713	  4.21622	  3.08472	  1.32842	 -0.20939	  4.94865	704.97699	 23.40	
 15.288	147.854	  4.44819	  0.48790	  4.11037	  3.33469	  1.14657	 -0.21038	  4.97657	705.01599	 23.40	
 15.293	141.428	  4.42416	  0.60589	  3.93139	  3.53398	  0.96654	 -0.21030	  4.94720	704.97699	 23.40	
 15.299	134.985	  4.43246	  0.74214	  3.75868	  3.74681	  0.80797	 -0.21191	  4.95928	704.92499	 23.40	
 15.305	128.583	  4.44108	  0.90360	  3.56203	  3.93577	  0.67129	 -0.21398	  4.96590	704.97302	 23.40	
 15.309	122.142	  4.42861	  1.08044	  3.33473	  4.08237	  0.55378	 -0.22106	  4.95348	704.95398	 23.40	
 15.304	115.711	  4.43115	  1.27625	  3.10253	  4.21352	  0.46020	 -0.22459	  4.95623	704.95398	 23.40	
 15.297	109.291	  4.44718	  1.49082	  2.86971	  4.33063	  0.38540	 -0.22765	  4.97243	704.89502	 23.40	
 15.293	102.897	  4.42756	  1.70906	  2.60923	  4.38732	  0.33048	 -0.22627	  4.95520	704.83899	 23.40	
 15.293	 96.458	  4.42814	  1.94338	  2.35872	  4.43085	  0.29558	 -0.22322	  4.95430	704.93201	 23.30	
 15.300	 90.000	  4.43029	  2.19096	  2.10938	  4.45073	  0.28421	 -0.21983	  4.95859	704.93701	 23.30	
 15.293	 83.542	  4.44208	  2.44801	  1.86730	  4.44521	  0.29221	 -0.21406	  4.97407	704.91498	 23.30	
 15.293	 77.103	  4.41939	  2.68390	  1.62355	  4.37870	  0.31984	 -0.20542	  4.94973	704.96301	 23.30	
 15.297	 70.709	  4.44216	  2.94488	  1.40781	  4.32711	  0.37220	 -0.20100	  4.98067	705.00500	 23.30	
 15.304	 64.289	  4.42984	  3.18066	  1.18955	  4.21282	  0.43866	 -0.19698	  4.96776	705.01300	 23.40	
 15.309	 57.858	  4.40977	  3.39543	  0.98835	  4.06741	  0.52494	 -0.19382	  4.95491	704.97302	 23.30	
 15.305	 51.417	  4.41889	  3.61990	  0.81242	  3.91856	  0.63999	 -0.19620	  4.96587	705.00098	 23.30	
 15.299	 45.015	  4.41973	  3.81832	  0.65762	  3.73596	  0.77466	 -0.19555	  4.96884	704.95599	 23.40	
 15.293	 38.572	  4.40929	  3.98438	  0.51896	  3.51901	  0.93174	 -0.19528	  4.95759	704.87000	 23.30	
 15.288	 32.146	  4.41773	  4.14625	  0.40199	  3.30738	  1.10442	 -0.19434	  4.96960	704.86700	 23.30	
 15.300	 25.739	  4.39935	  4.25607	  0.30225	  3.06501	  1.28657	 -0.19940	  4.95295	704.95599	 23.30	
 15.307	 19.324	  4.41830	  4.37483	  0.22876	  2.83213	  1.49993	 -0.20229	  4.97289	705.05798	 23.40	
 15.291	 12.833	  4.40835	  4.43283	  0.17710	  2.57507	  1.72054	 -0.20282	  4.96404	704.85199	 23.30	
 15.298	  6.413	  4.39704	  4.46360	  0.14062	  2.32047	  1.94469	 -0.20033	  4.95373	704.96997	 23.40	
 15.300	  0.000	  4.40255	  4.47875	  0.13180	  2.07314	  2.18727	 -0.19691	  4.96074	704.98102	 23.40	
 15.298	 -6.413	  4.41586	  4.47441	  0.13965	  1.83954	  2.43941	 -0.19211	  4.97830	704.98199	 23.40	
 15.291	-12.833	  4.39204	  4.40277	  0.17297	  1.59897	  2.67197	 -0.19461	  4.95411	704.75403	 23.40	
 15.307	-19.324	  4.39795	  4.33310	  0.22264	  1.37371	  2.92722	 -0.19692	  4.96298	704.79102	 23.40	
 15.300	-25.739	  4.39370	  4.22400	  0.29742	  1.16840	  3.16316	 -0.20346	  4.95971	704.85199	 23.40	
 15.288	-32.146	  4.38536	  4.08201	  0.39122	  0.97874	  3.38833	 -0.20100	  4.95338	704.84601	 23.40	
 15.293	-38.572	  4.38418	  3.92329	  0.50657	  0.80125	  3.60914	 -0.20003	  4.95972	704.86700	 23.40	
 15.299	-45.015	  4.37952	  3.73807	  0.64126	  0.64171	  3.81069	 -0.20376	  4.95992	704.94598	 23.40	
 15.305	-51.417	  4.36317	  3.52290	  0.79600	  0.50913	  3.97528	 -0.20355	  4.94269	704.92499	 23.30	
 15.309	-57.858	  4.38111	  3.31742	  0.97565	  0.39546	  4.14991	 -0.20291	  4.96566	704.83002	 23.40	
 15.304	-64.289	  4.37733	  3.07890	  1.16888	  0.30150	  4.27693	 -0.20225	  4.96291	704.76501	 23.40	
 15.297	-70.709	  4.37016	  2.83048	  1.37886	  0.22658	  4.37779	 -0.19955	  4.95522	704.88599	 23.40	
 15.293	-77.103	  4.37596	  2.58617	  1.60487	  0.17265	  4.46292	 -0.20911	  4.96299	704.88702	 23.40	
 15.293	-83.542	  4.37816	  2.33831	  1.83953	  0.14142	  4.51072	 -0.21338	  4.96929	704.85498	 23.40	
 15.300	-90.000	  4.37202	  2.08458	  2.08355	  0.12945	  4.52469	 -0.21704	  4.96225	704.98700	 23.40	
 15.293	-96.458	  4.36452	  1.84037	  2.32927	  0.14272	  4.50350	 -0.22186	  4.95371	704.76202	 23.30	
 15.293	-102.897	  4.37544	  1.61180	  2.58681	  0.17388	  4.47393	 -0.21771	  4.96795	704.71399	 23.40	
 15.297	-109.291	  4.37086	  1.39190	  2.83244	  0.22837	  4.39726	 -0.21363	  4.96033	704.81897	 23.40	
 15.304	-115.711	  4.37778	  1.18779	  3.07910	  0.30444	  4.30334	 -0.20694	  4.96551	704.79303	 23.40	
 15.309	-122.142	  4.37594	  0.99894	  3.31003	  0.40237	  4.16936	 -0.20268	  4.95751	704.75201	 23.40	
 15.305	-128.583	  4.37861	  0.82990	  3.53085	  0.51880	  4.01812	 -0.20181	  4.95852	704.73700	 23.40	
 15.299	-134.985	  4.38268	  0.67754	  3.73402	  0.65016	  3.84505	 -0.20546	  4.95945	704.83002	 23.30	
 15.293	-141.428	  4.40345	  0.54988	  3.93059	  0.81344	  3.65866	 -0.20914	  4.97558	704.78003	 23.30	
 15.288	-147.854	  4.39698	  0.43797	  4.08259	  0.99185	  3.43434	 -0.21120	  4.96391	704.80103	 23.30	
 15.300	-154.261	  4.40017	  0.34868	  4.21227	  1.18324	  3.20653	 -0.21909	  4.95966	704.86102	 23.30	
 15.307	-160.676	  4.40721	  0.27925	  4.32202	  1.39045	  2.97361	 -0.22317	  4.96535	704.97101	 23.30	
 15.291	-167.167	  4.42069	  0.23446	  4.40560	  1.62495	  2.73004	 -0.22771	  4.97386	704.73700	 23.30	
 15.298	-173.587	  4.42364	  0.21021	  4.45118	  1.85802	  2.48421	 -0.22215	  4.97286	704.84698	 23.30	
 15.300	180.000	  4.41806	  0.20252	  4.45807	  2.09616	  2.23466	 -0.21699	  4.96037	704.76001	 23.40	
 17.000	180.000	  4.27111	 -0.06905	  4.58265	  1.97811	  2.11706	 -0.24119	  4.95902	704.85498	 23.30	
 16.990	-174.179	  4.25501	 -0.06308	  4.55455	  1.73542	  2.35203	 -0.24575	  4.94483	704.75702	 23.40	
 17.009	-168.383	  4.25821	 -0.04417	  4.52325	  1.50423	  2.59586	 -0.25186	  4.95401	704.90802	 23.40	
 17.000	-162.596	  4.25274	 -0.00155	  4.45412	  1.28151	  2.84284	 -0.24940	  4.95422	704.87500	 23.40	
 16.990	-156.759	  4.24780	  0.05853	  4.35623	  1.07094	  3.08030	 -0.24377	  4.94903	704.80499	 23.40	
 16.995	-150.919	  4.25308	  0.13637	  4.24458	  0.87883	  3.31986	 -0.24135	  4.96394	704.72498	 23.40	
 16.988	-145.161	  4.24712	  0.23080	  4.09727	  0.69763	  3.53965	 -0.23540	  4.96084	704.75201	 23.40	
 17.014	-139.343	  4.24237	  0.34160	  3.93030	  0.52893	  3.75221	 -0.23245	  4.96460	704.78198	 23.40	
 17.007	-133.546	  4.22813	  0.47316	  3.73229	  0.38538	  3.92959	 -0.22835	  4.94992	704.85199	 23.40	
 17.001	-127.699	  4.23568	  0.62450	  3.53620	  0.25902	  4.11486	 -0.22583	  4.96490	704.69000	 23.40	
 17.006	-121.937	  4.22646	  0.79132	  3.30860	  0.14579	  4.25937	 -0.22481	  4.95628	704.81500	 23.40	
 17.002	-116.134	  4.22364	  0.97032	  3.07521	  0.04949	  4.38742	 -0.22466	  4.95794	704.62500	 23.40	
 17.001	-110.310	  4.21262	  1.16831	  2.82815	 -0.02268	  4.48050	 -0.22258	  4.95054	704.70099	 23.40	
 16.988	-104.517	  4.22076	  1.38232	  2.58479	 -0.07804	  4.56263	 -0.22304	  4.95804	704.75702	 23.40	
 17.008	-98.662	  4.22385	  1.60985	  2.33619	 -0.11643	  4.61815	 -0.21781	  4.96544	704.78998	 23.40	
 16.996	-92.909	  4.23604	  1.84714	  2.09741	 -0.13229	  4.65238	 -0.21274	  4.97747	704.72101	 23.40	
 16.996	-87.091	  4.23113	  2.09040	  1.84962	 -0.13172	  4.64350	 -0.20696	  4.96983	704.65198	 23.40	
 17.012	-81.253	  4.21565	  2.32994	  1.60368	 -0.11817	  4.60120	 -0.20215	  4.95525	704.82202	 23.40	
 16.988	-75.483	  4.22758	  2.58080	  1.38142	 -0.08069	  4.55701	 -0.19742	  4.96337	704.74597	 23.30	
 17.001	-69.690	  4.22359	  2.82559	  1.16128	 -0.02993	  4.47338	 -0.19579	  4.95873	704.63501	 23.30	
 17.002	-63.866	  4.23630	  3.07566	  0.95808	  0.04071	  4.37749	 -0.19455	  4.97245	704.76501	 23.40	
 17.006	-58.063	  4.23273	  3.30818	  0.77005	  0.13583	  4.23975	 -0.20078	  4.96649	704.74200	 23.40	
 17.001	-52.301	  4.23805	  3.52944	  0.60029	  0.24779	  4.08497	 -0.20167	  4.96747	704.73901	 23.30	
 17.007	-46.454	  4.24181	  3.74245	  0.44432	  0.37643	  3.90974	 -0.20113	  4.96690	704.77002	 23.40	
 17.014	-40.657	  4.23723	  3.92892	  0.30230	  0.51639	  3.71049	 -0.20174	  4.96055	704.70898	 23.40	
 16.988	-34.839	  4.23246	  4.08762	  0.18742	  0.67967	  3.49052	 -0.19997	  4.94795	704.69702	 23.40	
 16.995	-29.081	  4.25439	  4.25418	  0.08847	  0.85999	  3.28294	 -0.20396	  4.97014	704.64899	 23.40	
 16.990	-23.241	  4.25707	  4.37889	  0.00707	  1.05635	  3.04598	 -0.20263	  4.96764	704.65802	 23.40	
 17.000	-17.404	  4.24763	  4.46661	 -0.06067	  1.25924	  2.79669	 -0.19904	  4.95748	704.75403	 23.40	
 17.009	-11.617	  4.26335	  4.55129	 -0.10634	  1.48582	  2.55877	 -0.19409	  4.97001	704.72498	 23.40	
 16.990	 -5.821	  4.24877	  4.57313	 -0.12903	  1.71337	  2.30348	 -0.18926	  4.94812	704.82703	 23.40	
 17.000	  0.000	  4.25405	  4.59727	 -0.13803	  1.95484	  2.06592	 -0.18781	  4.95497	704.78198	 23.40	
 16.990	  5.821	  4.26477	  4.60000	 -0.13035	  2.20672	  1.82889	 -0.19576	  4.96875	704.85602	 23.40	
 17.009	 11.617	  4.26361	  4.56612	 -0.10535	  2.45236	  1.59918	 -0.19644	  4.96389	704.53198	 23.40	
 17.000	 17.404	  4.25979	  4.50121	 -0.05772	  2.69584	  1.38163	 -0.20179	  4.95932	704.64697	 23.40	
 16.990	 23.241	  4.25808	  4.40801	  0.00921	  2.94255	  1.17195	 -0.19796	  4.95456	704.63898	 23.40	
 16.995	 29.081	  4.26940	  4.30385	  0.09616	  3.18866	  0.98484	 -0.20240	  4.96644	704.65802	 23.40	
 16.988	 34.839	  4.26938	  4.16562	  0.19524	  3.41228	  0.80713	 -0.20617	  4.96363	704.59601	 23.40	
 17.014	 40.657	  4.27071	  4.01006	  0.31213	  3.63406	  0.64177	 -0.21068	  4.96962	704.67499	 23.40	
 17.007	 46.454	  4.27245	  3.82683	  0.45119	  3.83309	  0.49744	 -0.21662	  4.96725	704.64398	 23.40	
 17.001	 52.301	  4.27547	  3.62467	  0.61059	  4.01374	  0.37498	 -0.21680	  4.96709	704.75897	 23.40	
 17.006	 58.063	  4.27431	  3.40619	  0.78333	  4.16655	  0.26967	 -0.21763	  4.96157	704.76801	 23.40	
 17.002	 63.866	  4.27461	  3.17667	  0.97324	  4.30166	  0.17675	 -0.21867	  4.96035	704.62500	 23.40	
 17.001	 69.690	  4.27319	  2.93470	  1.17733	  4.40791	  0.10208	 -0.22074	  4.95472	704.66998	 23.40	
 16.988	 75.483	  4.28094	  2.69474	  1.39847	  4.49357	  0.05458	 -0.22613	  4.96060	704.72803	 23.40	
 17.012	 81.253	  4.28695	  2.45096	  1.62516	  4.55642	  0.01476	 -0.23120	  4.96694	704.78198	 23.40	
 16.996	 87.091	  4.28979	  2.20186	  1.86761	  4.58124	  0.00215	 -0.23088	  4.96424	704.73700	 23.40	
 16.996	 92.909	  4.28428	  1.95339	  2.11313	  4.57559	  0.00738	 -0.23061	  4.95738	704.72900	 23.40	
 17.008	 98.662	  4.29682	  1.72325	  2.36669	  4.56216	  0.02781	 -0.23670	  4.96963	704.76001	 23.40	
 16.988	104.517	  4.29590	  1.49218	  2.61866	  4.50413	  0.06724	 -0.23626	  4.96506	704.70099	 23.40	
 17.001	110.310	  4.30640	  1.27416	  2.87165	  4.43716	  0.12363	 -0.23981	  4.97835	704.74597	 23.40	
 17.002	116.134	  4.29979	  1.07048	  3.11172	  4.32182	  0.20360	 -0.23969	  4.96770	704.61603	 23.40	
 17.006	121.937	  4.29871	  0.87828	  3.34436	  4.18900	  0.29408	 -0.23687	  4.96847	704.59998	 23.40	
 17.001	127.699	  4.30605	  0.70728	  3.57002	  4.03799	  0.40782	 -0.24030	  4.97357	704.65002	 23.40	
 17.007	133.546	  4.30087	  0.54579	  3.77296	  3.85771	  0.53319	 -0.23701	  4.96953	704.54602	 23.40	
 17.014	139.343	  4.29763	  0.40602	  3.95686	  3.65820	  0.68071	 -0.23710	  4.96559	704.67297	 23.50	
 16.988	145.161	  4.29510	  0.28604	  4.12049	  3.43886	  0.84902	 -0.23775	  4.96227	704.61603	 23.40	
 16.995	150.919	  4.28474	  0.17997	  4.25452	  3.20932	  1.02196	 -0.23704	  4.95546	704.76599	 23.40	
 16.990	156.759	  4.27968	  0.09964	  4.36718	  2.96900	  1.22091	 -0.23955	  4.94677	704.70300	 23.40	
 17.000	162.596	  4.29335	  0.02789	  4.47992	  2.73339	  1.43241	 -0.23793	  4.97190	704.85498	 23.40	
 17.009	168.383	  4.27946	 -0.02462	  4.53508	  2.47763	  1.64817	 -0.23881	  4.95957	704.74902	 23.40	
 16.990	174.179	  4.27129	 -0.05319	  4.56510	  2.22750	  1.87403	 -0.23744	  4.95499	704.74500	 23.40	
 18.709	174.675	  4.11623	 -0.31286	  4.67995	  2.10526	  1.75383	 -0.25388	  4.95753	704.71100	 23.40	
 18.703	169.441	  4.12456	 -0.28661	  4.65303	  2.34843	  1.53310	 -0.25772	  4.96240	704.66602	 23.40	
 18.691	164.085	  4.13420	 -0.24510	  4.59966	  2.60228	  1.31193	 -0.26012	  4.96946	704.75403	 23.40	
 18.706	158.818	  4.12531	 -0.18718	  4.50663	  2.84205	  1.10012	 -0.25780	  4.95600	704.61298	 23.40	
 18.695	153.537	  4.13909	 -0.10722	  4.40919	  3.08608	  0.91367	 -0.25782	  4.96733	704.73499	 23.40	
 18.704	148.255	  4.13355	 -0.01968	  4.27436	  3.31311	  0.72951	 -0.25616	  4.95974	704.68701	 23.40	
 18.698	142.952	  4.12592	  0.08730	  4.11237	  3.52731	  0.55673	 -0.25524	  4.95041	704.73499	 23.40	
 18.699	137.625	  4.13865	  0.21202	  3.94954	  3.74780	  0.40431	 -0.25367	  4.96165	704.90900	 23.40	
 18.705	132.343	  4.14519	  0.35005	  3.76424	  3.94146	  0.26986	 -0.25251	  4.96782	704.65198	 23.40	
 18.713	127.067	  4.12806	  0.50278	  3.54286	  4.10067	  0.14608	 -0.24610	  4.95034	704.56799	 23.40	
 18.700	121.794	  4.13537	  0.67365	  3.32689	  4.26062	  0.04187	 -0.24212	  4.95626	704.63898	 23.40	
 18.698	116.504	  4.13523	  0.86025	  3.09555	  4.39234	 -0.04572	 -0.23913	  4.95544	704.65802	 23.40	
 18.707	111.165	  4.12298	  1.05557	  2.84788	  4.49206	 -0.11943	 -0.23298	  4.94351	704.65198	 23.40	
 18.690	105.863	  4.13522	  1.26938	  2.60933	  4.58462	 -0.17704	 -0.22710	  4.95947	704.65802	 23.50	
 18.696	100.583	  4.13781	  1.49078	  2.36185	  4.64758	 -0.21987	 -0.22415	  4.96434	704.70099	 23.40	
 18.700	 95.309	  4.13638	  1.72042	  2.11707	  4.68231	 -0.24605	 -0.22437	  4.96632	704.61298	 23.50	
 18.700	 90.000	  4.13849	  1.96289	  1.87301	  4.69521	 -0.25232	 -0.22360	  4.96751	704.60199	 23.40	
 18.700	 84.691	  4.12535	  2.20029	  1.62642	  4.66964	 -0.24702	 -0.22792	  4.95681	704.72803	 23.40	
 18.696	 79.417	  4.12606	  2.44490	  1.39942	  4.63546	 -0.22385	 -0.23176	  4.96015	704.61102	 23.50	
 18.690	 74.137	  4.12139	  2.68728	  1.17603	  4.57126	 -0.18776	 -0.23580	  4.95360	704.54797	 23.50	
 18.707	 68.835	  4.12582	  2.93404	  0.96415	  4.49571	 -0.13915	 -0.23734	  4.96762	704.59399	 23.50	
 18.698	 63.496	  4.12798	  3.17701	  0.76529	  4.38899	 -0.06927	 -0.23173	  4.97087	704.63202	 23.50	
 18.700	 58.206	  4.11415	  3.39591	  0.57873	  4.24091	  0.01863	 -0.22921	  4.95650	704.60498	 23.50	
 18.713	 52.933	  4.11331	  3.61346	  0.40937	  4.08808	  0.11911	 -0.22635	  4.95796	704.64899	 23.50	
 18.705	 47.657	  4.11624	  3.82039	  0.25619	  3.91476	  0.23798	 -0.22413	  4.96563	704.61603	 23.50	
 18.699	 42.375	  4.10457	  3.99658	  0.11739	  3.71529	  0.36946	 -0.21947	  4.95400	704.57599	 23.50	
 18.698	 37.048	  4.09699	  4.15650	 -0.00148	  3.49937	  0.51990	 -0.21130	  4.94596	704.62097	 23.50	
 18.704	 31.745	  4.09691	  4.30723	 -0.10953	  3.27558	  0.68372	 -0.20014	  4.94928	704.61902	 23.50	
 18.695	 26.463	  4.10313	  4.43545	 -0.19756	  3.04786	  0.86399	 -0.19299	  4.95417	704.41400	 23.50	
 18.706	 21.182	  4.10376	  4.54181	 -0.26951	  2.81234	  1.05564	 -0.18786	  4.96081	704.53998	 23.50	
 18.691	 15.915	  4.10211	  4.61740	 -0.32557	  2.56555	  1.26084	 -0.18598	  4.95748	704.68903	 23.50	
 18.703	 10.559	  4.10895	  4.68180	 -0.36870	  2.31926	  1.48077	 -0.18781	  4.96782	704.72803	 23.50	
 18.709	  5.325	  4.10470	  4.70787	 -0.39478	  2.07694	  1.70282	 -0.18585	  4.96447	704.64203	 23.50	
 18.700	  0.000	  4.09081	  4.69975	 -0.39796	  1.82452	  1.93580	 -0.18301	  4.94639	704.68103	 23.50	
 18.709	 -5.325	  4.10228	  4.70016	 -0.39640	  1.59465	  2.17904	 -0.18626	  4.96335	704.50000	 23.50	
 18.703	-10.559	  4.08772	  4.64525	 -0.36992	  1.36542	  2.41300	 -0.18899	  4.94930	704.72498	 23.50	
 18.691	-15.915	  4.08920	  4.57988	 -0.33196	  1.14160	  2.66180	 -0.19139	  4.95204	704.69501	 23.50	
 18.706	-21.182	  4.08858	  4.49774	 -0.27789	  0.93944	  2.90229	 -0.19901	  4.95503	704.54199	 23.50	
 18.695	-26.463	  4.09567	  4.39439	 -0.20913	  0.74320	  3.14368	 -0.19850	  4.96583	704.59601	 23.50	
 18.704	-31.745	  4.07855	  4.24541	 -0.11968	  0.55983	  3.36536	 -0.19576	  4.95353	704.63599	 23.50	
 18.698	-37.048	  4.09679	  4.10684	 -0.01767	  0.39580	  3.59963	 -0.19837	  4.97711	704.62701	 23.50	
 18.699	-42.375	  4.07829	  3.91588	  0.10510	  0.24668	  3.79129	 -0.19013	  4.95973	704.65802	 23.50	
 18.705	-47.657	  4.07537	  3.72369	  0.23757	  0.10652	  3.98350	 -0.18991	  4.96225	704.63599	 23.50	
 18.713	-52.933	  4.06436	  3.50591	  0.38677	 -0.01582	  4.14832	 -0.19336	  4.95334	704.61298	 23.50	
 18.700	-58.206	  4.07355	  3.29127	  0.55867	 -0.11817	  4.31368	 -0.18835	  4.96676	704.62402	 23.50	
 18.698	-63.496	  4.06918	  3.05777	  0.74202	 -0.19969	  4.43573	 -0.18508	  4.96098	704.69397	 23.50	
 18.707	-68.835	  4.06170	  2.81305	  0.93716	 -0.27288	  4.53883	 -0.18114	  4.95532	704.63898	 23.50	
 18.690	-74.137	  4.06345	  2.56626	  1.15230	 -0.32406	  4.62290	 -0.18307	  4.95771	704.67200	 23.50	
 18.696	-79.417	  4.05503	  2.31669	  1.36801	 -0.36553	  4.67745	 -0.18366	  4.95068	704.68903	 23.50	
 18.700	-84.691	  4.05755	  2.07483	  1.59785	 -0.38969	  4.72004	 -0.18647	  4.95530	704.66998	 23.50	
 18.700	-90.000	  4.06029	  1.83178	  1.84026	 -0.39752	  4.73942	 -0.19003	  4.95936	704.68597	 23.50	
 18.700	-95.309	  4.06487	  1.59968	  2.08809	 -0.39015	  4.73701	 -0.20268	  4.96925	704.75403	 23.50	
 18.696	-100.583	  4.04986	  1.36679	  2.32440	 -0.36582	  4.68735	 -0.21000	  4.94739	704.66400	 23.50	
 18.690	-105.863	  4.05330	  1.15356	  2.57192	 -0.32273	  4.63373	 -0.21661	  4.94959	704.65802	 23.50	
 18.707	-111.165	  4.06328	  0.94700	  2.82128	 -0.27182	  4.56672	 -0.22622	  4.96155	704.53400	 23.50	
 18.698	-116.504	  4.06787	  0.75682	  3.06680	 -0.19566	  4.46524	 -0.23214	  4.96724	704.61603	 23.50	
 18.700	-121.794	  4.06407	  0.57635	  3.29258	 -0.11266	  4.33651	 -0.23643	  4.96113	704.66602	 23.50	
 18.713	-127.067	  4.07480	  0.41442	  3.52068	 -0.00646	  4.19290	 -0.24228	  4.96713	704.70898	 23.50	
 18.705	-132.343	  4.07085	  0.27210	  3.72163	  0.11683	  4.01391	 -0.24705	  4.95536	704.65601	 23.50	
 18.699	-137.625	  4.08089	  0.14149	  3.92055	  0.25883	  3.83243	 -0.25453	  4.96136	704.69000	 23.50	
 18.698	-142.952	  4.07741	  0.02348	  4.08783	  0.40907	  3.62335	 -0.25351	  4.95154	704.56299	 23.50	
 18.704	-148.255	  4.09256	 -0.07332	  4.25509	  0.58004	  3.41771	 -0.25445	  4.96620	704.62097	 23.50	
 18.695	-153.537	  4.09274	 -0.15777	  4.38403	  0.76341	  3.18507	 -0.25214	  4.95688	704.53699	 23.50	
 18.706	-158.818	  4.10270	 -0.22274	  4.50100	  0.95925	  2.95558	 -0.25293	  4.96495	704.67200	 23.50	
 18.691	-164.085	  4.09683	 -0.27244	  4.57379	  1.16376	  2.71222	 -0.25574	  4.95313	704.50299	 23.50	
 18.703	-169.441	  4.10102	 -0.30600	  4.63579	  1.39120	  2.46565	 -0.25632	  4.95072	704.50897	 23.50	
 18.709	-174.675	  4.10671	 -0.32560	  4.67539	  1.61834	  2.22585	 -0.25330	  4.95331	704.65802	 23.50	
 18.700	180.000	  4.11868	 -0.32830	  4.69391	  1.85910	  1.99068	 -0.25248	  4.96030	704.67297	 23.50	
 20.400	180.000	  3.94136	 -0.60964	  4.78671	  1.71569	  1.84514	 -0.24377	  4.96159	704.61902	 23.50	
 20.401	-175.153	  3.92929	 -0.60832	  4.76979	  1.47856	  2.07615	 -0.24440	  4.95383	704.57599	 23.50	
 20.407	-170.264	  3.92236	 -0.59425	  4.73424	  1.25011	  2.31391	 -0.24240	  4.95348	704.56201	 23.50	
 20.410	-165.423	  3.91403	 -0.56289	  4.67188	  1.02685	  2.55258	 -0.24196	  4.94737	704.56799	 23.50	
 20.392	-160.496	  3.91922	 -0.51890	  4.60398	  0.81954	  2.80222	 -0.24094	  4.95727	704.56500	 23.50	
 20.401	-155.705	  3.91832	 -0.46317	  4.50921	  0.62599	  3.03622	 -0.24262	  4.96397	704.60199	 23.50	
 20.405	-150.835	  3.89930	 -0.39440	  4.37368	  0.43265	  3.25823	 -0.24173	  4.94836	704.61798	 23.50	
 20.397	-145.903	  3.90033	 -0.30685	  4.23161	  0.26174	  3.48379	 -0.25072	  4.95505	704.58698	 23.50	
 20.392	-141.062	  3.89735	 -0.20438	  4.07121	  0.10664	  3.69193	 -0.25395	  4.95653	704.63898	 23.50	
 20.396	-136.227	  3.88403	 -0.09155	  3.88178	 -0.03787	  3.88365	 -0.25281	  4.94682	704.48700	 23.50	
 20.408	-131.372	  3.88865	  0.03633	  3.69497	 -0.17317	  4.07800	 -0.24786	  4.96141	704.60400	 23.50	
 20.410	-126.511	  3.88589	  0.18047	  3.48532	 -0.28764	  4.24321	 -0.24361	  4.96308	704.59601	 23.50	
 20.400	-121.604	  3.87413	  0.34065	  3.25328	 -0.38461	  4.37896	 -0.23461	  4.94855	704.65601	 23.50	
 20.403	-116.741	  3.87079	  0.51599	  3.02115	 -0.46846	  4.50438	 -0.22907	  4.94803	704.49298	 23.50	
 20.413	-111.900	  3.86804	  0.69777	  2.78304	 -0.54375	  4.61301	 -0.21603	  4.95149	704.43799	 23.50	
 20.398	-107.004	  3.86540	  0.89530	  2.53940	 -0.59901	  4.69276	 -0.20775	  4.94896	704.48102	 23.50	
 20.394	-102.132	  3.86776	  1.10840	  2.29426	 -0.64356	  4.75839	 -0.19974	  4.95308	704.55200	 23.50	
 20.403	-97.332	  3.86712	  1.32338	  2.05250	 -0.67421	  4.79735	 -0.18717	  4.95178	704.65198	 23.50	
 20.392	-92.440	  3.86818	  1.55455	  1.80816	 -0.68565	  4.81389	 -0.17545	  4.95344	704.76801	 23.50	
 20.392	-87.560	  3.87821	  1.79681	  1.57078	 -0.69100	  4.82697	 -0.16809	  4.96845	704.51398	 23.50	
 20.403	-82.668	  3.86825	  2.03515	  1.33472	 -0.67683	  4.79269	 -0.17014	  4.95393	704.50299	 23.50	
 20.394	-77.868	  3.86929	  2.27287	  1.11262	 -0.64842	  4.74692	 -0.15953	  4.94977	704.59399	 23.50	
 20.398	-72.996	  3.87964	  2.52768	  0.90042	 -0.60585	  4.69182	 -0.16548	  4.96209	704.51099	 23.50	
 20.413	-68.100	  3.88449	  2.77681	  0.69448	 -0.55263	  4.60842	 -0.16918	  4.96630	704.65601	 23.50	
 20.403	-63.259	  3.88249	  3.00965	  0.50434	 -0.47852	  4.48926	 -0.17167	  4.95724	704.42200	 23.50	
 20.400	-58.396	  3.88526	  3.24426	  0.32703	 -0.39356	  4.36009	 -0.17185	  4.95867	704.45502	 23.50	
 20.410	-53.489	  3.88060	  3.46482	  0.15783	 -0.29735	  4.20475	 -0.18056	  4.95074	704.45898	 23.50	
 20.408	-48.628	  3.89178	  3.68545	  0.00873	 -0.18857	  4.04754	 -0.18116	  4.96379	704.43103	 23.50	
 20.396	-43.773	  3.89652	  3.88106	 -0.12355	 -0.05348	  3.85683	 -0.18440	  4.95675	704.63202	 23.50	
 20.392	-38.938	  3.90707	  4.07223	 -0.24161	  0.09084	  3.66092	 -0.18143	  4.96468	704.40302	 23.50	
 20.397	-34.097	  3.90543	  4.23366	 -0.34901	  0.24358	  3.44462	 -0.18330	  4.96046	704.45001	 23.50	
 20.405	-29.165	  3.90219	  4.37518	 -0.44135	  0.41253	  3.21708	 -0.17682	  4.95603	704.51501	 23.50	
 20.401	-24.295	  3.91401	  4.51045	 -0.51490	  0.60290	  2.98946	 -0.18149	  4.96133	704.42401	 23.50	
 20.392	-19.504	  3.91036	  4.60271	 -0.57403	  0.79383	  2.74785	 -0.18003	  4.95491	704.52600	 23.50	
 20.410	-14.577	  3.91975	  4.69707	 -0.62798	  1.00268	  2.51106	 -0.18581	  4.96825	704.54199	 23.50	
 20.407	 -9.736	  3.91666	  4.74902	 -0.65954	  1.22098	  2.26522	 -0.17705	  4.96092	704.50598	 23.50	
 20.401	 -4.847	  3.92049	  4.78477	 -0.67742	  1.44919	  2.02455	 -0.17417	  4.96006	704.57300	 23.60	
 20.400	  0.000	  3.92826	  4.80951	 -0.68623	  1.68357	  1.79160	 -0.16988	  4.97038	704.59998	 23.60	
 20.401	  4.847	  3.92199	  4.79498	 -0.67642	  1.92152	  1.55555	 -0.16773	  4.96038	704.48999	 23.60	
 20.407	  9.736	  3.92068	  4.76775	 -0.65443	  2.16527	  1.33097	 -0.16992	  4.95824	704.57898	 23.60	
 20.410	 14.577	  3.91772	  4.71232	 -0.61750	  2.40680	  1.11571	 -0.16960	  4.95351	704.47601	 23.60	
 20.392	 19.504	  3.92778	  4.65083	 -0.56433	  2.66290	  0.91082	 -0.17518	  4.96472	704.46100	 23.60	
 20.401	 24.295	  3.92889	  4.56155	 -0.50393	  2.89771	  0.72343	 -0.17899	  4.96433	704.72803	 23.60	
 20.405	 29.165	  3.92525	  4.44268	 -0.42519	  3.13192	  0.54224	 -0.18356	  4.95762	704.58301	 23.60	
 20.397	 34.097	  3.92257	  4.30166	 -0.33007	  3.36250	  0.36857	 -0.19587	  4.95323	704.56500	 23.60	
 20.392	 38.938	  3.92980	  4.15371	 -0.22276	  3.58196	  0.21592	 -0.20563	  4.95996	704.54797	 23.60	
 20.396	 43.773	  3.92687	  3.97585	 -0.09907	  3.78110	  0.08044	 -0.21487	  4.95210	704.60797	 23.60	
 20.408	 48.628	  3.91933	  3.77597	  0.03305	  3.96574	 -0.05140	 -0.22380	  4.94478	704.59900	 23.60	
 20.410	 53.489	  3.92667	  3.58055	  0.18168	  4.14613	 -0.16219	 -0.23129	  4.95213	704.45502	 23.60	
 20.400	 58.396	  3.92538	  3.35998	  0.34691	  4.29738	 -0.25917	 -0.22497	  4.94636	704.48700	 23.60	
 20.403	 63.259	  3.94374	  3.14261	  0.53029	  4.44490	 -0.34103	 -0.23278	  4.96421	704.48102	 23.60	
 20.413	 68.100	  3.94527	  2.90933	  0.72034	  4.55601	 -0.40724	 -0.23307	  4.96073	704.52600	 23.60	
 20.398	 72.996	  3.94977	  2.66917	  0.92830	  4.64882	 -0.45972	 -0.23494	  4.96436	704.54498	 23.60	
 20.394	 77.868	  3.95897	  2.42926	  1.14859	  4.72415	 -0.49945	 -0.23134	  4.97153	704.52100	 23.60	
 20.403	 82.668	  3.95909	  2.18950	  1.36866	  4.76637	 -0.52582	 -0.21959	  4.96856	704.51099	 23.60	
 20.392	 87.560	  3.96895	  1.95054	  1.60862	  4.79659	 -0.53439	 -0.21032	  4.97460	704.52600	 23.60	
 20.392	 92.440	  3.95739	  1.70448	  1.84690	  4.78018	 -0.52766	 -0.20303	  4.95579	704.56201	 23.60	
 20.403	 97.332	  3.95792	  1.46851	  2.09218	  4.75984	 -0.51348	 -0.19925	  4.95759	704.38300	 23.60	
 20.394	102.132	  3.96255	  1.25090	  2.33521	  4.71879	 -0.47876	 -0.20413	  4.95617	704.53802	 23.60	
 20.398	107.004	  3.96136	  1.03387	  2.58397	  4.65438	 -0.43908	 -0.20895	  4.95893	704.51801	 23.60	
 20.413	111.900	  3.96648	  0.83000	  2.82918	  4.57199	 -0.38318	 -0.21892	  4.96116	704.51501	 23.60	
 20.403	116.741	  3.96886	  0.63821	  3.06791	  4.46714	 -0.31180	 -0.22747	  4.96329	704.61798	 23.60	
 20.400	121.604	  3.97449	  0.45727	  3.30534	  4.34097	 -0.22684	 -0.23198	  4.97061	704.51398	 23.60	
 20.410	126.511	  3.95825	  0.28693	  3.51548	  4.17294	 -0.12816	 -0.23904	  4.95171	704.42102	 23.60	
 20.408	131.372	  3.96666	  0.13735	  3.72967	  4.00830	 -0.01170	 -0.25164	  4.95918	704.51703	 23.60	
 20.396	136.227	  3.96392	  0.00103	  3.92320	  3.81591	  0.12051	 -0.25178	  4.95357	704.51801	 23.60	
 20.392	141.062	  3.96419	 -0.12462	  4.10280	  3.61762	  0.25867	 -0.25614	  4.95622	704.26398	 23.60	
 20.397	145.903	  3.96561	 -0.23249	  4.26729	  3.40729	  0.41494	 -0.25551	  4.96077	704.40002	 23.60	
 20.405	150.835	  3.95873	 -0.32940	  4.40446	  3.17051	  0.58788	 -0.26000	  4.95648	704.36200	 23.60	
 20.401	155.705	  3.96326	 -0.40881	  4.53008	  2.93956	  0.77420	 -0.26202	  4.96362	704.41901	 23.60	
 20.392	160.496	  3.95248	 -0.47483	  4.61608	  2.69949	  0.96229	 -0.26230	  4.95299	704.45001	 23.60	
 20.410	165.423	  3.94642	 -0.53166	  4.68979	  2.44822	  1.17209	 -0.26216	  4.95200	704.56000	 23.60	
 20.407	170.264	  3.94811	 -0.57375	  4.74751	  2.20435	  1.38705	 -0.25767	  4.96065	704.47302	 23.60	
 20.401	175.153	  3.94921	 -0.59726	  4.78272	  1.96390	  1.61390	 -0.25133	  4.96809	704.49298	 23.60	
  0.141	 45.000	  4.95958	  2.71427	  2.64314	  2.66538	  2.75937	  0.03188	  4.95438	704.44202	 23.60	
  4.001	128.691	  4.95648	  2.31568	  2.96816	  3.05334	  2.30623	  0.00975	  4.96487	704.48102	 23.60	
  4.002	 76.995	  4.95957	  2.78677	  2.47986	  3.16891	  2.20958	  0.01112	  4.96474	704.42700	 23.60	
  4.002	 25.892	  4.94525	  3.17488	  2.10932	  2.84102	  2.46772	  0.00722	  4.95899	704.44702	 23.60	
  4.002	-25.892	  4.94914	  3.16900	  2.10496	  2.34729	  2.96345	  0.00029	  4.96403	704.46600	 23.60	
  4.002	-76.995	  4.93797	  2.75519	  2.45940	  2.05848	  3.28288	 -0.00112	  4.95430	704.47601	 23.60	
  4.001	-128.691	  4.94922	  2.28692	  2.96565	  2.16786	  3.17687	  0.00489	  4.96366	704.43799	 23.60	
  4.000	180.000	  4.95821	  2.11177	  3.19807	  2.59732	  2.72825	  0.01032	  4.96871	704.49200	 23.60	
  8.000	180.000	  4.85137	  1.44006	  3.71811	  2.47842	  2.61737	 -0.05466	  4.96237	704.56299	 23.60	
  7.991	-152.370	  4.84256	  1.54048	  3.56830	  1.95036	  3.16354	 -0.05338	  4.95996	704.58502	 23.60	
  7.997	-124.550	  4.82907	  1.86290	  3.15930	  1.55429	  3.59894	 -0.06415	  4.95176	704.56500	 23.60	
  8.006	-96.837	  4.83665	  2.36299	  2.61730	  1.38141	  3.81178	 -0.08016	  4.96779	704.44397	 23.60	
  7.988	-69.228	  4.82809	  2.92147	  2.06278	  1.43954	  3.72510	 -0.08421	  4.95581	704.52899	 23.60	
  7.997	-41.563	  4.83766	  3.41958	  1.63575	  1.72062	  3.39109	 -0.07828	  4.96448	704.44501	 23.60	
  8.008	-13.821	  4.84432	  3.71398	  1.40553	  2.19493	  2.86973	 -0.06474	  4.96487	704.46899	 23.60	
  8.008	 13.821	  4.83455	  3.71589	  1.40339	  2.74736	  2.30899	 -0.06619	  4.94825	704.34302	 23.60	
  7.997	 41.563	  4.85788	  3.45703	  1.64767	  3.27886	  1.86088	 -0.05195	  4.96584	704.46600	 23.60	
  7.988	 69.228	  4.86096	  2.97722	  2.08172	  3.62769	  1.58543	 -0.04853	  4.96292	704.57098	 23.60	
  8.006	 96.837	  4.84551	  2.40702	  2.62390	  3.69159	  1.52846	 -0.05926	  4.94313	704.36902	 23.60	
  7.997	124.550	  4.86168	  1.91503	  3.17694	  3.48988	  1.71126	 -0.05257	  4.96375	704.37201	 23.60	
  7.991	152.370	  4.86621	  1.57359	  3.58113	  3.04147	  2.10012	 -0.05084	  4.96452	704.46899	 23.60	
 12.009	161.059	  4.66226	  0.84454	  4.06406	  2.88146	  1.89119	 -0.13695	  4.96204	704.34802	 23.60	
 12.013	142.081	  4.66401	  1.08468	  3.76552	  3.42351	  1.42164	 -0.14113	  4.95926	704.36902	 23.60	
 12.006	123.113	  4.67911	  1.47003	  3.31512	  3.85661	  1.08766	 -0.14944	  4.96910	704.42200	 23.60	
 12.007	104.200	  4.67456	  1.96328	  2.75415	  4.10791	  0.88615	 -0.16358	  4.97079	704.50598	 23.60	
 11.989	 85.301	  4.65068	  2.51950	  2.15957	  4.13449	  0.84090	 -0.14965	  4.94841	704.51099	 23.60	
 12.013	 66.294	  4.65338	  3.09746	  1.61929	  3.98428	  0.94721	 -0.13497	  4.95303	704.35699	 23.60	
 12.012	 47.388	  4.64850	  3.60602	  1.17680	  3.63436	  1.21188	 -0.13770	  4.95590	704.46100	 23.60	
 11.990	 28.440	  4.63913	  3.97238	  0.86654	  3.14035	  1.60555	 -0.14640	  4.95093	704.37701	 23.60	
 11.991	  9.464	  4.63793	  4.16539	  0.70853	  2.57187	  2.11406	 -0.15836	  4.95555	704.52301	 23.60	
 11.991	 -9.464	  4.63935	  4.15689	  0.70595	  1.99710	  2.68236	 -0.15028	  4.95969	704.50598	 23.60	
 11.990	-28.440	  4.63258	  3.94226	  0.85849	  1.47934	  3.24848	 -0.15820	  4.96212	704.51099	 23.60	
 12.012	-47.388	  4.61366	  3.54145	  1.15820	  1.07075	  3.72374	 -0.16862	  4.94822	704.52399	 23.60	
 12.013	-66.294	  4.62670	  3.03125	  1.60106	  0.80322	  4.08320	 -0.17589	  4.96923	704.42798	 23.60	
 11.989	-85.301	  4.61036	  2.44071	  2.13929	  0.68993	  4.22411	 -0.18018	  4.94972	704.39099	 23.60	
 12.007	-104.200	  4.61760	  1.88121	  2.72632	  0.72925	  4.19007	 -0.16823	  4.96183	704.49500	 23.60	
 12.006	-123.113	  4.61720	  1.39554	  3.28182	  0.92178	  3.94422	 -0.14698	  4.95473	704.46100	 23.60	
 12.013	-142.081	  4.62616	  1.03335	  3.74379	  1.26891	  3.53065	 -0.14080	  4.95315	704.42401	 23.60	
 12.009	-161.059	  4.63302	  0.81574	  4.04615	  1.73798	  3.00108	 -0.14771	  4.95131	704.54602	 23.60	
 16.000	180.000	  4.36406	  0.08950	  4.51550	  2.04929	  2.18938	 -0.22977	  4.96659	704.40302	 23.60	
 15.990	-165.604	  4.35937	  0.13057	  4.44049	  1.49943	  2.76331	 -0.23824	  4.97050	704.43799	 23.60	
 16.002	-151.165	  4.33511	  0.27907	  4.19081	  1.00337	  3.31076	 -0.22760	  4.95753	704.30103	 23.60	
 16.002	-136.836	  4.33455	  0.53513	  3.82178	  0.59823	  3.81663	 -0.21672	  4.96881	704.36499	 23.60	
 15.995	-122.439	  4.32159	  0.90267	  3.32873	  0.30095	  4.20361	 -0.21354	  4.96276	704.44501	 23.60	
 15.993	-107.966	  4.31465	  1.36207	  2.76470	  0.10542	  4.46378	 -0.22165	  4.96271	704.27002	 23.60	
 16.005	-93.629	  4.31245	  1.89188	  2.17963	  0.01748	  4.57555	 -0.21587	  4.96604	704.45801	 23.60	
 15.992	-79.234	  4.30955	  2.46715	  1.61520	  0.04602	  4.52510	 -0.20601	  4.95805	704.38000	 23.60	
 16.009	-64.774	  4.32459	  3.05458	  1.10381	  0.18005	  4.34093	 -0.20146	  4.97029	704.46698	 23.60	
 15.997	-50.364	  4.33153	  3.58876	  0.68169	  0.42905	  4.00039	 -0.20213	  4.97082	704.37701	 23.60	
 15.997	-36.045	  4.33190	  4.02739	  0.35277	  0.77255	  3.53904	 -0.20392	  4.96350	704.43903	 23.60	
 16.000	-21.597	  4.34400	  4.34945	  0.13568	  1.22000	  3.00372	 -0.19908	  4.96786	704.40698	 23.60	
 16.003	 -7.169	  4.35107	  4.51759	  0.02746	  1.74744	  2.42607	 -0.19265	  4.97107	704.38202	 23.60	
 16.003	  7.169	  4.34288	  4.51572	  0.02825	  2.31395	  1.85638	 -0.20071	  4.95661	704.48297	 23.60	
 16.000	 21.597	  4.34734	  4.37654	  0.14321	  2.89695	  1.34183	 -0.20473	  4.95705	704.36603	 23.60	
 15.997	 36.045	  4.35131	  4.08744	  0.36262	  3.44542	  0.90203	 -0.20117	  4.96030	704.48999	 23.60	
 15.997	 50.364	  4.35624	  3.66666	  0.68951	  3.91315	  0.55677	 -0.20778	  4.95876	704.55200	 23.60	
 16.009	 64.774	  4.36099	  3.15007	  1.12007	  4.25730	  0.32062	 -0.20897	  4.95496	704.47498	 23.60	
 15.992	 79.234	  4.37064	  2.57909	  1.63599	  4.46171	  0.18625	 -0.21866	  4.96117	704.43402	 23.60	
 16.005	 93.629	  4.37792	  2.00224	  2.20709	  4.50741	  0.16889	 -0.22837	  4.96066	704.46100	 23.60	
 15.993	107.966	  4.37594	  1.46422	  2.78821	  4.38418	  0.26046	 -0.23446	  4.95445	704.57703	 23.60	
 15.995	122.439	  4.38010	  0.99103	  3.35405	  4.11805	  0.45772	 -0.22874	  4.95887	704.54602	 23.60	
 16.002	136.836	  4.37306	  0.60345	  3.83578	  3.71058	  0.75232	 -0.22555	  4.95481	704.37402	 23.60	
 16.002	151.165	  4.38231	  0.32837	  4.21536	  3.21299	  1.15213	 -0.22545	  4.96878	704.51099	 23.60	
 15.990	165.604	  4.37454	  0.15789	  4.44276	  2.63656	  1.64370	 -0.22446	  4.96362	704.62701	 23.60	
 20.003	168.362	  3.99483	 -0.48944	  4.71049	  2.32514	  1.34974	 -0.25917	  4.96007	704.53101	 23.60	
 20.008	156.764	  4.00590	 -0.36422	  4.54107	  2.90279	  0.86535	 -0.26587	  4.97049	704.57599	 23.60	
 20.000	145.147	  4.01568	 -0.15331	  4.24036	  3.45029	  0.44941	 -0.25934	  4.96948	704.41901	 23.60	
 19.995	133.545	  4.01692	  0.13525	  3.82423	  3.92452	  0.11038	 -0.25255	  4.96533	704.43903	 23.60	
 20.009	121.926	  4.01361	  0.50048	  3.32585	  4.31504	 -0.15769	 -0.23403	  4.96564	704.57599	 23.60	
 20.005	110.327	  4.01556	  0.94431	  2.77447	  4.59250	 -0.33595	 -0.21758	  4.97141	704.64697	 23.60	
 19.989	 98.733	  3.99542	  1.44684	  2.18903	  4.71697	 -0.43093	 -0.20619	  4.94823	704.42798	 23.70	
 19.999	 87.075	  3.99931	  1.99732	  1.62266	  4.75464	 -0.45874	 -0.21582	  4.95340	704.37701	 23.60	
 19.992	 75.457	  4.00234	  2.57201	  1.09155	  4.66786	 -0.40549	 -0.23634	  4.96560	704.43597	 23.70	
 20.009	 63.844	  3.98495	  3.12316	  0.61064	  4.43840	 -0.27723	 -0.23462	  4.95493	704.37701	 23.70	
 19.989	 52.269	  3.97979	  3.63938	  0.21020	  4.09706	 -0.06261	 -0.22729	  4.95740	704.50598	 23.60	
 19.999	 40.602	  3.97302	  4.08549	 -0.11747	  3.65284	  0.23002	 -0.21213	  4.95764	704.50702	 23.70	
 20.004	 29.051	  3.98141	  4.44605	 -0.36097	  3.14600	  0.60435	 -0.18333	  4.97289	704.43402	 23.70	
 20.005	 17.433	  3.96830	  4.66414	 -0.52245	  2.57764	  1.04528	 -0.17320	  4.96032	704.41901	 23.70	
 20.006	  5.780	  3.96666	  4.77354	 -0.60640	  1.99953	  1.55520	 -0.17460	  4.96345	704.46100	 23.70	
 20.006	 -5.780	  3.97214	  4.77201	 -0.60876	  1.44866	  2.10705	 -0.17808	  4.96922	704.39600	 23.70	
 20.005	-17.433	  3.95507	  4.62667	 -0.53125	  0.92957	  2.67195	 -0.18640	  4.95730	704.42200	 23.70	
 20.004	-29.051	  3.95419	  4.37486	 -0.37646	  0.47464	  3.22858	 -0.18501	  4.96351	704.42200	 23.70	
 19.999	-40.602	  3.94684	  4.00339	 -0.13743	  0.10402	  3.73115	 -0.18353	  4.96503	704.45203	 23.70	
 19.989	-52.269	  3.93152	  3.52896	  0.18155	 -0.20322	  4.16251	 -0.17715	  4.95926	704.49799	 23.70	
 20.009	-63.844	  3.92960	  3.00207	  0.58316	 -0.41622	  4.49311	 -0.16994	  4.96152	704.50598	 23.70	
 19.992	-75.457	  3.92508	  2.42945	  1.05598	 -0.55516	  4.70770	 -0.16152	  4.96107	704.45898	 23.70	
 19.999	-87.075	  3.92753	  1.86178	  1.58777	 -0.61570	  4.80709	 -0.16547	  4.96825	704.38300	 23.70	
 19.989	-98.733	  3.91697	  1.30870	  2.15215	 -0.59501	  4.77266	 -0.19098	  4.95538	704.48297	 23.70	
 20.005	-110.327	  3.91913	  0.81674	  2.72518	 -0.49441	  4.63157	 -0.21994	  4.95740	704.53101	 23.70	
 20.009	-121.926	  3.92560	  0.39188	  3.27933	 -0.31172	  4.36942	 -0.23947	  4.95735	704.48700	 23.70	
 19.995	-133.545	  3.94347	  0.04405	  3.78796	 -0.04907	  4.00216	 -0.25528	  4.96828	704.47498	 23.70	
 20.000	-145.147	  3.94649	 -0.22340	  4.19804	  0.29600	  3.52557	 -0.25356	  4.95865	704.30103	 23.70	
 20.008	-156.764	  3.96837	 -0.41076	  4.52338	  0.72065	  3.00586	 -0.24965	  4.97156	704.39697	 23.70	
 20.003	-168.362	  3.98328	 -0.51670	  4.71665	  1.21114	  2.44927	 -0.25177	  4.97575	704.32001	 23.70	
 20.000	180.000	  3.98665	 -0.54343	  4.76871	  1.75170	  1.88334	 -0.24973	  4.96511	704.35699	 23.70	
