FileType=PCF
NHL=14
Date=10/22/18	17:08:28
Facility=APL
Serial=16328-17
Customer=NASA
NP=6
Mach=0.100000
Calibration=1:1
CalPts=490
TstPts=95
PortNumbering=AP Standard
Units=Torr C m/s kg/m^3 deg mm 
Theta[deg]	Phi[deg]	P1[Torr]	P2[Torr]	P3[Torr]	P4[Torr]	P5[Torr]	P6[Torr]	Pt[Torr]	Ps[Abs,Torr]	Ts[C]	
  0.000	  0.000	  4.96023	  2.66085	  2.52376	  2.58134	  2.62986	  0.03724	  4.95630	709.43103	 25.10	
  1.691	128.401	  4.97685	  2.52117	  2.67474	  2.77260	  2.45306	  0.03669	  4.97537	709.50098	 25.10	
  1.692	 77.194	  4.97444	  2.70958	  2.47943	  2.80954	  2.40504	  0.03547	  4.97185	709.39099	 25.00	
  1.699	 26.182	  4.96980	  2.84970	  2.32153	  2.68069	  2.50226	  0.02633	  4.96734	709.44000	 25.00	
  1.699	-26.182	  4.96895	  2.85038	  2.31222	  2.45679	  2.72176	  0.02374	  4.96672	709.51501	 25.00	
  1.692	-77.194	  4.98346	  2.69971	  2.46984	  2.35979	  2.85479	  0.02293	  4.98061	709.44800	 25.00	
  1.691	-128.401	  4.97334	  2.50697	  2.65818	  2.40662	  2.79696	  0.02652	  4.97019	709.44299	 25.00	
  1.700	180.000	  4.97060	  2.42709	  2.76049	  2.58800	  2.63306	  0.03339	  4.96956	709.34302	 25.00	
  3.400	180.000	  4.96080	  2.16495	  2.98260	  2.54934	  2.60222	  0.01878	  4.96177	709.40198	 24.90	
  3.388	-152.325	  4.97038	  2.21084	  2.92749	  2.34091	  2.83240	  0.01327	  4.97221	709.43402	 24.90	
  3.397	-124.529	  4.96409	  2.34314	  2.76237	  2.15785	  3.01393	  0.00890	  4.96804	709.39899	 24.90	
  3.399	-96.763	  4.95191	  2.55060	  2.53063	  2.06874	  3.09653	  0.00473	  4.95849	709.45099	 24.90	
  3.394	-69.283	  4.95789	  2.78562	  2.30686	  2.09055	  3.06723	  0.00140	  4.96730	709.49902	 24.90	
  3.400	-41.398	  4.95395	  2.99510	  2.11437	  2.20922	  2.92017	  0.00154	  4.96636	709.42401	 24.90	
  3.401	-14.021	  4.95451	  3.11050	  2.01945	  2.41025	  2.70082	  0.00648	  4.96668	709.46100	 24.90	
  3.401	 14.021	  4.97070	  3.11974	  2.03238	  2.65310	  2.47123	  0.01212	  4.98141	709.45001	 24.90	
  3.400	 41.398	  4.96153	  3.00114	  2.13355	  2.85698	  2.27487	  0.01604	  4.96980	709.44202	 24.90	
  3.394	 69.283	  4.97064	  2.80159	  2.32731	  3.00390	  2.16249	  0.02136	  4.97431	709.49103	 24.90	
  3.399	 96.763	  4.98298	  2.57563	  2.55960	  3.04485	  2.15129	  0.02149	  4.98390	709.38800	 24.90	
  3.397	124.529	  4.97856	  2.37145	  2.77120	  2.96235	  2.22984	  0.02193	  4.97945	709.44299	 24.80	
  3.388	152.325	  4.96821	  2.22691	  2.92491	  2.78058	  2.38410	  0.02027	  4.96917	709.41498	 24.80	
  5.099	161.165	  4.94922	  1.93177	  3.18208	  2.76431	  2.33416	  0.00350	  4.96507	709.46100	 24.80	
  5.109	142.013	  4.96264	  2.03648	  3.07435	  2.99306	  2.13191	  0.00434	  4.97798	709.46899	 24.80	
  5.095	123.033	  4.95526	  2.20473	  2.87876	  3.16281	  1.97760	  0.00321	  4.97205	709.43701	 24.80	
  5.105	104.191	  4.96348	  2.42312	  2.65305	  3.26798	  1.89167	  0.00257	  4.98120	709.46899	 24.80	
  5.093	 85.207	  4.95793	  2.66327	  2.40554	  3.28552	  1.86339	  0.00385	  4.97992	709.45300	 24.80	
  5.104	 66.290	  4.95190	  2.90709	  2.16612	  3.22339	  1.89985	  0.00575	  4.97994	709.38800	 24.80	
  5.094	 47.331	  4.94506	  3.12078	  1.96743	  3.06525	  2.02479	  0.00294	  4.97476	709.46600	 24.80	
  5.089	 28.397	  4.93676	  3.27678	  1.81853	  2.85757	  2.20172	 -0.00080	  4.97073	709.48798	 24.80	
  5.096	  9.576	  4.91816	  3.35094	  1.73641	  2.61121	  2.41649	 -0.00751	  4.95655	709.50897	 24.70	
  5.096	 -9.576	  4.92478	  3.35400	  1.73066	  2.36704	  2.67171	 -0.01297	  4.96722	709.50897	 24.70	
  5.089	-28.397	  4.93116	  3.27683	  1.79576	  2.14380	  2.91371	 -0.02008	  4.97507	709.47699	 24.70	
  5.094	-47.331	  4.93698	  3.11512	  1.93844	  1.95442	  3.13131	 -0.02502	  4.98066	709.47998	 24.70	
  5.104	-66.290	  4.92407	  2.88842	  2.12965	  1.82750	  3.27066	 -0.02616	  4.96775	709.45599	 24.70	
  5.093	-85.207	  4.92926	  2.64348	  2.36920	  1.78251	  3.33836	 -0.02357	  4.96794	709.40900	 24.70	
  5.105	-104.191	  4.94416	  2.40464	  2.62651	  1.81211	  3.32865	 -0.01733	  4.97881	709.50598	 24.70	
  5.095	-123.033	  4.94871	  2.18906	  2.86278	  1.90699	  3.22873	 -0.01083	  4.97891	709.52802	 24.70	
  5.109	-142.013	  4.95362	  2.01889	  3.06225	  2.07145	  3.05162	 -0.00401	  4.97847	709.43701	 24.70	
  5.099	-161.165	  4.96026	  1.92046	  3.19147	  2.28970	  2.82586	 -0.00038	  4.98113	709.49902	 24.70	
  5.100	180.000	  4.96159	  1.89333	  3.23346	  2.53239	  2.57695	  0.00293	  4.97973	709.49597	 24.70	
  6.800	180.000	  4.92602	  1.60191	  3.47275	  2.48441	  2.53868	 -0.02356	  4.98001	709.50702	 24.70	
  6.796	-166.229	  4.91064	  1.61490	  3.42878	  2.24344	  2.77223	 -0.02588	  4.96816	709.46399	 24.70	
  6.808	-152.311	  4.91451	  1.68314	  3.34353	  2.01227	  3.02004	 -0.02705	  4.97525	709.47498	 24.70	
  6.795	-138.383	  4.90833	  1.80787	  3.18631	  1.82315	  3.22503	 -0.03359	  4.97456	709.50098	 24.70	
  6.792	-124.591	  4.90505	  1.97527	  2.99168	  1.66446	  3.39844	 -0.04144	  4.97695	709.47198	 24.70	
  6.787	-110.754	  4.90120	  2.18443	  2.75717	  1.55830	  3.51744	 -0.04625	  4.97966	709.45300	 24.70	
  6.800	-96.985	  4.88916	  2.40946	  2.51107	  1.49481	  3.57040	 -0.05448	  4.97276	709.52100	 24.70	
  6.800	-83.015	  4.87668	  2.64758	  2.25947	  1.48492	  3.56193	 -0.06405	  4.96501	709.43701	 24.70	
  6.787	-69.246	  4.88353	  2.89810	  2.02720	  1.53760	  3.50200	 -0.06643	  4.97683	709.56897	 24.70	
  6.792	-55.409	  4.88100	  3.12499	  1.81937	  1.63519	  3.37831	 -0.06092	  4.97723	709.51202	 24.70	
  6.795	-41.617	  4.87714	  3.31754	  1.64974	  1.78412	  3.19617	 -0.06062	  4.97454	709.53998	 24.70	
  6.808	-27.689	  4.87811	  3.47091	  1.52257	  1.97536	  2.97952	 -0.05925	  4.97705	709.52899	 24.70	
  6.796	-13.771	  4.87001	  3.55833	  1.44572	  2.19197	  2.73617	 -0.04839	  4.96725	709.48297	 24.70	
  6.800	  0.000	  4.87552	  3.59646	  1.42285	  2.43386	  2.49142	 -0.04037	  4.97130	709.48199	 24.60	
  6.796	 13.771	  4.88522	  3.57112	  1.45729	  2.68207	  2.25525	 -0.03599	  4.97549	709.41199	 24.60	
  6.808	 27.689	  4.89471	  3.48750	  1.54118	  2.92111	  2.04070	 -0.03190	  4.97974	709.41602	 24.60	
  6.795	 41.617	  4.89707	  3.33648	  1.67473	  3.14108	  1.84519	 -0.02189	  4.97714	709.46600	 24.60	
  6.792	 55.409	  4.90297	  3.14729	  1.84640	  3.31643	  1.70434	 -0.02109	  4.97738	709.48999	 24.60	
  6.787	 69.246	  4.90538	  2.92281	  2.05571	  3.43985	  1.61112	 -0.01907	  4.97309	709.47198	 24.60	
  6.800	 83.015	  4.91107	  2.67990	  2.29084	  3.51242	  1.56375	 -0.01971	  4.97345	709.47198	 24.60	
  6.800	 96.985	  4.92489	  2.44089	  2.54249	  3.52281	  1.57716	 -0.02286	  4.98257	709.44202	 24.60	
  6.787	110.754	  4.92801	  2.21416	  2.78416	  3.46181	  1.63793	 -0.02401	  4.97989	709.47998	 24.60	
  6.792	124.591	  4.92378	  2.00542	  3.00771	  3.34267	  1.73614	 -0.02147	  4.97334	709.43701	 24.60	
  6.795	138.383	  4.92980	  1.83774	  3.20409	  3.17771	  1.88755	 -0.02209	  4.97825	709.52002	 24.60	
  6.808	152.311	  4.92722	  1.71157	  3.34909	  2.96829	  2.07477	 -0.02083	  4.97509	709.52899	 24.60	
  6.796	166.229	  4.92773	  1.63479	  3.44130	  2.73023	  2.29996	 -0.01922	  4.97700	709.49597	 24.60	
  8.491	168.704	  4.87563	  1.32692	  3.67156	  2.68412	  2.23636	 -0.05450	  4.97940	709.44000	 24.50	
  8.502	157.493	  4.87095	  1.38615	  3.59405	  2.92921	  1.99997	 -0.05572	  4.97428	709.50897	 24.60	
  8.494	146.194	  4.87046	  1.49730	  3.46289	  3.15722	  1.78925	 -0.05859	  4.97210	709.40698	 24.50	
  8.495	135.039	  4.87354	  1.63901	  3.29929	  3.35917	  1.61376	 -0.05686	  4.97686	709.55603	 24.50	
  8.487	123.723	  4.86563	  1.81625	  3.08908	  3.52080	  1.46772	 -0.05603	  4.96909	709.46899	 24.50	
  8.492	112.575	  4.87123	  2.02263	  2.86742	  3.64902	  1.36057	 -0.06048	  4.97679	709.47498	 24.50	
  8.510	101.220	  4.86909	  2.25636	  2.61653	  3.72911	  1.28917	 -0.06454	  4.98132	709.44299	 24.50	
  8.500	 90.000	  4.86284	  2.49972	  2.36509	  3.74508	  1.26289	 -0.05678	  4.97883	709.45898	 24.50	
  8.510	 78.780	  4.84916	  2.74749	  2.11047	  3.70684	  1.27774	 -0.05300	  4.97114	709.45801	 24.50	
  8.492	 67.425	  4.85010	  2.99921	  1.87500	  3.62944	  1.33785	 -0.05394	  4.97889	709.44800	 24.50	
  8.487	 56.277	  4.83362	  3.21832	  1.66225	  3.48925	  1.43484	 -0.05416	  4.96828	709.45099	 24.50	
  8.495	 44.961	  4.83562	  3.42598	  1.48258	  3.31881	  1.57644	 -0.05286	  4.97578	709.39899	 24.50	
  8.494	 33.806	  4.82385	  3.58906	  1.33135	  3.10980	  1.74666	 -0.05744	  4.97105	709.51300	 24.50	
  8.502	 22.507	  4.82446	  3.71996	  1.22093	  2.87774	  1.95611	 -0.06951	  4.97876	709.40198	 24.50	
  8.491	 11.296	  4.81862	  3.79023	  1.15478	  2.63012	  2.18548	 -0.07370	  4.97592	709.45001	 24.50	
  8.500	  0.000	  4.81603	  3.81796	  1.12810	  2.38038	  2.43071	 -0.07501	  4.97769	709.43103	 24.50	
  8.491	-11.296	  4.81873	  3.79467	  1.14487	  2.12670	  2.69352	 -0.08159	  4.98568	709.45599	 24.50	
  8.502	-22.507	  4.80888	  3.70993	  1.20026	  1.89269	  2.93319	 -0.09388	  4.97889	709.43701	 24.50	
  8.494	-33.806	  4.80134	  3.57558	  1.30247	  1.67717	  3.16694	 -0.09888	  4.97168	709.46100	 24.40	
  8.495	-44.961	  4.81397	  3.41471	  1.44818	  1.50983	  3.37615	 -0.10113	  4.98360	709.48499	 24.40	
  8.487	-56.277	  4.81462	  3.20330	  1.63102	  1.36199	  3.55295	 -0.10289	  4.98082	709.49597	 24.40	
  8.492	-67.425	  4.81709	  2.97620	  1.83603	  1.26015	  3.68271	 -0.11008	  4.98067	709.50098	 24.40	
  8.510	-78.780	  4.81841	  2.72364	  2.06966	  1.19721	  3.76650	 -0.11173	  4.98028	709.41602	 24.40	
  8.500	-90.000	  4.81898	  2.47018	  2.31735	  1.17843	  3.79651	 -0.10410	  4.97602	709.36102	 24.40	
  8.510	-101.220	  4.82904	  2.23046	  2.57065	  1.21092	  3.77530	 -0.09155	  4.98006	709.37500	 24.40	
  8.492	-112.575	  4.83168	  1.99107	  2.82772	  1.27925	  3.69828	 -0.08233	  4.97437	709.25098	 24.40	
  8.487	-123.723	  4.83546	  1.78641	  3.05823	  1.39177	  3.57609	 -0.07727	  4.97349	709.29401	 24.40	
  8.495	-135.039	  4.84788	  1.61063	  3.27645	  1.54473	  3.41118	 -0.07123	  4.97787	709.38800	 24.40	
  8.494	-146.194	  4.85157	  1.47146	  3.44730	  1.72947	  3.20785	 -0.06226	  4.97577	709.48798	 24.40	
  8.502	-157.493	  4.85879	  1.36845	  3.58273	  1.94398	  2.97952	 -0.06159	  4.97663	709.40100	 24.40	
  8.491	-168.704	  4.85508	  1.31140	  3.65476	  2.17516	  2.72965	 -0.06433	  4.96804	709.46100	 24.40	
  8.500	180.000	  4.87468	  1.30044	  3.69825	  2.43042	  2.48560	 -0.06181	  4.98255	709.39899	 24.30	
 10.200	180.000	  4.78685	  0.99380	  3.89373	  2.36122	  2.40869	 -0.10117	  4.96927	709.39099	 24.30	
 10.191	-170.497	  4.79142	  1.01103	  3.87480	  2.11111	  2.67072	 -0.10761	  4.97747	709.44501	 24.30	
 10.210	-161.034	  4.78020	  1.05230	  3.80237	  1.86309	  2.92132	 -0.10622	  4.97523	709.44299	 24.30	
 10.194	-151.526	  4.77851	  1.14098	  3.68898	  1.64434	  3.16127	 -0.10000	  4.97630	709.37701	 24.30	
 10.190	-142.105	  4.77365	  1.26099	  3.53602	  1.44429	  3.38358	 -0.10077	  4.97867	709.46100	 24.30	
 10.215	-132.646	  4.76773	  1.41119	  3.34701	  1.26570	  3.58286	 -0.10564	  4.97909	709.38800	 24.30	
 10.203	-123.092	  4.76217	  1.59309	  3.12953	  1.12101	  3.74717	 -0.11232	  4.97981	709.35303	 24.30	
 10.192	-113.678	  4.75716	  1.79708	  2.89504	  1.00920	  3.87236	 -0.11943	  4.98303	709.36102	 24.30	
 10.208	-104.249	  4.73930	  2.02027	  2.63542	  0.93179	  3.94602	 -0.12825	  4.97049	709.34802	 24.30	
 10.210	-94.801	  4.73338	  2.26347	  2.37676	  0.88683	  3.98924	 -0.14353	  4.97255	709.38800	 24.30	
 10.210	-85.199	  4.73116	  2.51947	  2.11944	  0.88532	  3.98457	 -0.15338	  4.97571	709.29602	 24.30	
 10.208	-75.751	  4.73184	  2.78081	  1.87132	  0.91622	  3.93955	 -0.15638	  4.98342	709.39600	 24.30	
 10.192	-66.322	  4.71821	  3.02143	  1.63874	  0.97879	  3.84054	 -0.15339	  4.97396	709.35602	 24.30	
 10.203	-56.908	  4.72791	  3.26106	  1.43528	  1.08642	  3.71790	 -0.14772	  4.98557	709.31598	 24.30	
 10.215	-47.354	  4.71791	  3.47132	  1.24756	  1.21887	  3.54172	 -0.14496	  4.98019	709.34802	 24.30	
 10.190	-37.895	  4.71692	  3.65209	  1.09780	  1.38837	  3.33902	 -0.14045	  4.97636	709.33502	 24.30	
 10.194	-28.474	  4.73043	  3.81535	  0.98092	  1.58642	  3.12058	 -0.13663	  4.99096	709.29602	 24.30	
 10.210	-18.966	  4.71709	  3.91904	  0.88679	  1.80184	  2.86744	 -0.12960	  4.97757	709.25897	 24.30	
 10.191	 -9.503	  4.71465	  3.97786	  0.84105	  2.04458	  2.60907	 -0.11908	  4.96947	709.35400	 24.20	
 10.200	  0.000	  4.72630	  4.01279	  0.82991	  2.29702	  2.35705	 -0.11568	  4.97818	709.32397	 24.20	
 10.191	  9.503	  4.74054	  4.00635	  0.84846	  2.55802	  2.11173	 -0.11607	  4.99071	709.27802	 24.20	
 10.210	 18.966	  4.73584	  3.93632	  0.90284	  2.80484	  1.87519	 -0.11128	  4.98060	709.28802	 24.20	
 10.194	 28.474	  4.74171	  3.82977	  0.99647	  3.05224	  1.65394	 -0.10282	  4.97917	709.30701	 24.20	
 10.190	 37.895	  4.75085	  3.68279	  1.12713	  3.28002	  1.46315	 -0.09269	  4.98066	709.28101	 24.20	
 10.215	 47.354	  4.75656	  3.50552	  1.28291	  3.48240	  1.29626	 -0.09235	  4.98044	709.34497	 24.20	
 10.203	 56.908	  4.76593	  3.29392	  1.47338	  3.66089	  1.16040	 -0.09280	  4.98211	709.31500	 24.20	
 10.192	 66.322	  4.76982	  3.06448	  1.67804	  3.79631	  1.05730	 -0.09303	  4.98084	709.38300	 24.20	
 10.208	 75.751	  4.77827	  2.81826	  1.91438	  3.89246	  0.99147	 -0.09391	  4.98249	709.32397	 24.20	
 10.210	 85.199	  4.78205	  2.56530	  2.15967	  3.94258	  0.96055	 -0.09834	  4.97995	709.38000	 24.20	
 10.210	 94.801	  4.78166	  2.30562	  2.41497	  3.94417	  0.96437	 -0.10515	  4.97301	709.94000	 24.20	
 10.208	104.249	  4.78741	  2.05986	  2.67496	  3.90420	  1.00746	 -0.10732	  4.97239	709.38300	 24.20	
 10.192	113.678	  4.80082	  1.83882	  2.92585	  3.82782	  1.08720	 -0.10367	  4.98116	709.32898	 24.20	
 10.203	123.092	  4.80156	  1.62916	  3.16271	  3.70117	  1.19194	 -0.09693	  4.97944	709.37799	 24.20	
 10.215	132.646	  4.80523	  1.44506	  3.37632	  3.53790	  1.33445	 -0.09481	  4.97953	709.44501	 24.20	
 10.190	142.105	  4.81056	  1.28889	  3.56455	  3.34357	  1.50607	 -0.09557	  4.98410	709.39398	 24.20	
 10.194	151.526	  4.79967	  1.16386	  3.70375	  3.11773	  1.69692	 -0.09548	  4.97399	709.40399	 24.20	
 10.210	161.034	  4.81177	  1.07323	  3.82665	  2.88263	  1.92480	 -0.09223	  4.98928	709.41498	 24.20	
 10.191	170.497	  4.81310	  1.02311	  3.89140	  2.62939	  2.16987	 -0.09286	  4.99071	709.38000	 24.20	
 11.899	171.783	  4.71863	  0.71854	  4.08183	  2.55363	  2.08712	 -0.13324	  4.98707	709.49799	 24.20	
 11.890	163.610	  4.71380	  0.76508	  4.02094	  2.80349	  1.84037	 -0.13063	  4.97861	709.32898	 24.20	
 11.889	155.445	  4.71883	  0.84034	  3.93034	  3.05579	  1.61114	 -0.13295	  4.98459	709.39899	 24.20	
 11.909	147.299	  4.71931	  0.94560	  3.80085	  3.28521	  1.40765	 -0.13278	  4.98265	709.32098	 24.20	
 11.902	139.148	  4.71878	  1.07866	  3.63828	  3.50064	  1.21909	 -0.13457	  4.98401	709.39600	 24.20	
 11.894	130.867	  4.71369	  1.24456	  3.43580	  3.69110	  1.05287	 -0.13402	  4.97894	709.26501	 24.20	
 11.897	122.732	  4.70874	  1.42537	  3.22013	  3.85209	  0.91581	 -0.13842	  4.97895	709.31299	 24.20	
 11.903	114.597	  4.70696	  1.63186	  2.98392	  3.97855	  0.81057	 -0.14823	  4.98001	709.32397	 24.20	
 11.893	106.346	  4.70385	  1.86015	  2.73219	  4.07078	  0.73074	 -0.15128	  4.98084	709.31201	 24.20	
 11.892	 98.155	  4.70621	  2.10808	  2.47490	  4.12823	  0.68352	 -0.15091	  4.98799	709.34698	 24.20	
 11.900	 90.000	  4.69563	  2.35571	  2.21750	  4.13466	  0.66551	 -0.14626	  4.98129	709.36902	 24.20	
 11.892	 81.845	  4.68531	  2.60854	  1.95716	  4.10941	  0.67480	 -0.13790	  4.97945	709.38800	 24.20	
 11.893	 73.654	  4.68357	  2.86559	  1.71723	  4.04882	  0.71418	 -0.13193	  4.98375	709.35602	 24.20	
 11.903	 65.403	  4.67499	  3.10949	  1.48749	  3.95084	  0.78020	 -0.12775	  4.98469	709.36102	 24.20	
 11.897	 57.268	  4.66728	  3.34551	  1.27538	  3.80598	  0.88433	 -0.12853	  4.98160	709.39899	 24.20	
 11.894	 49.133	  4.65290	  3.55256	  1.08614	  3.63166	  1.01343	 -0.12772	  4.97431	709.36102	 24.10	
 11.902	 40.852	  4.64654	  3.74357	  0.92161	  3.43262	  1.17135	 -0.12853	  4.97659	709.43201	 24.10	
 11.909	 32.701	  4.63183	  3.90018	  0.78232	  3.21030	  1.34597	 -0.13698	  4.97009	709.30701	 24.10	
 11.889	 24.555	  4.64303	  4.03610	  0.68450	  2.98249	  1.55974	 -0.14832	  4.98670	709.40100	 24.10	
 11.890	 16.390	  4.62794	  4.12210	  0.60229	  2.72465	  1.77921	 -0.15429	  4.97542	709.25403	 24.10	
 11.899	  8.217	  4.62324	  4.18099	  0.54925	  2.46721	  2.01922	 -0.15774	  4.97926	709.32898	 24.20	
 11.900	  0.000	  4.62181	  4.19670	  0.53371	  2.20597	  2.27452	 -0.15652	  4.98066	709.36700	 24.10	
 11.899	 -8.217	  4.61757	  4.17815	  0.53818	  1.95416	  2.53174	 -0.15833	  4.98298	709.47198	 24.20	
 11.890	-16.390	  4.60801	  4.10769	  0.58167	  1.71192	  2.78180	 -0.16442	  4.97518	709.36902	 24.10	
 11.889	-24.555	  4.61112	  4.01422	  0.65295	  1.48906	  3.03112	 -0.17014	  4.97980	709.49799	 24.20	
 11.909	-32.701	  4.60033	  3.87700	  0.75213	  1.27731	  3.26223	 -0.17664	  4.97058	709.39301	 24.10	
 11.902	-40.852	  4.61418	  3.72052	  0.88707	  1.09742	  3.49086	 -0.18103	  4.98439	709.30402	 24.10	
 11.894	-49.133	  4.61419	  3.52262	  1.04756	  0.93775	  3.68901	 -0.18173	  4.98114	709.38599	 24.10	
 11.897	-57.268	  4.62114	  3.30888	  1.23212	  0.81036	  3.85995	 -0.18285	  4.98648	709.39099	 24.10	
 11.903	-65.403	  4.60721	  3.06435	  1.43027	  0.70300	  3.98221	 -0.18835	  4.96827	709.37500	 24.10	
 11.893	-73.654	  4.62958	  2.82623	  1.66518	  0.63419	  4.09711	 -0.19201	  4.98817	709.40900	 24.10	
 11.892	-81.845	  4.61519	  2.55750	  1.90284	  0.59059	  4.14366	 -0.19172	  4.96732	709.44501	 24.10	
 11.900	-90.000	  4.62869	  2.30542	  2.15798	  0.58371	  4.17505	 -0.18745	  4.97538	709.30499	 24.10	
 11.892	-98.155	  4.63964	  2.06074	  2.42099	  0.60038	  4.16450	 -0.17783	  4.98025	709.39398	 24.10	
 11.893	-106.346	  4.64768	  1.82281	  2.67906	  0.65537	  4.11268	 -0.16495	  4.98183	709.32300	 24.10	
 11.903	-114.597	  4.65855	  1.59622	  2.93705	  0.73465	  4.02587	 -0.15424	  4.98590	709.31897	 24.10	
 11.897	-122.732	  4.65671	  1.39091	  3.16782	  0.84630	  3.89131	 -0.14597	  4.97638	709.42603	 24.10	
 11.894	-130.867	  4.67157	  1.21119	  3.39816	  0.98559	  3.73819	 -0.14246	  4.98481	709.33502	 24.10	
 11.902	-139.148	  4.66427	  1.04433	  3.59293	  1.14673	  3.53860	 -0.13945	  4.97149	709.24597	 24.10	
 11.909	-147.299	  4.67634	  0.91944	  3.76307	  1.34046	  3.32772	 -0.13689	  4.97410	709.31598	 24.10	
 11.889	-155.445	  4.69008	  0.82222	  3.90539	  1.55769	  3.09633	 -0.14127	  4.98165	709.31299	 24.10	
 11.890	-163.610	  4.69853	  0.75286	  4.00564	  1.78854	  2.85225	 -0.14788	  4.98297	709.33502	 24.10	
 11.899	-171.783	  4.69990	  0.70904	  4.06633	  2.03116	  2.59369	 -0.14599	  4.97810	709.34497	 24.10	
 11.900	180.000	  4.70590	  0.69763	  4.09248	  2.28611	  2.33708	 -0.14163	  4.98000	709.43402	 24.10	
 13.600	180.000	  4.59310	  0.39622	  4.26503	  2.19577	  2.24159	 -0.17816	  4.97866	709.38800	 24.10	
 13.608	-172.853	  4.58837	  0.40301	  4.24675	  1.94184	  2.49576	 -0.18359	  4.97837	709.33698	 24.10	
 13.611	-165.583	  4.57988	  0.43924	  4.18782	  1.68986	  2.75766	 -0.18657	  4.97737	709.32300	 24.10	
 13.601	-158.353	  4.58116	  0.50210	  4.10530	  1.45996	  3.01313	 -0.18117	  4.98434	709.33698	 24.00	
 13.609	-151.210	  4.57179	  0.58814	  3.97685	  1.24036	  3.25239	 -0.17356	  4.98076	709.38501	 24.10	
 13.611	-143.999	  4.56469	  0.69660	  3.82788	  1.04157	  3.47885	 -0.16871	  4.98319	709.33197	 24.00	
 13.601	-136.825	  4.55391	  0.83401	  3.64100	  0.86457	  3.68271	 -0.17059	  4.97723	709.65698	 24.00	
 13.596	-129.640	  4.55315	  0.99607	  3.43974	  0.70639	  3.87151	 -0.17186	  4.98476	709.35303	 24.00	
 13.611	-122.431	  4.55828	  1.18202	  3.22031	  0.57160	  4.04346	 -0.17613	  4.99825	709.29999	 24.00	
 13.604	-115.211	  4.54282	  1.38373	  2.97244	  0.45826	  4.16557	 -0.18257	  4.99059	709.24298	 24.00	
 13.595	-108.042	  4.53049	  1.59601	  2.71949	  0.38127	  4.25201	 -0.19252	  4.98425	709.31201	 24.00	
 13.607	-100.793	  4.52220	  1.83476	  2.45596	  0.31732	  4.31883	 -0.20136	  4.98479	709.34698	 24.00	
 13.601	-93.617	  4.51449	  2.08158	  2.19468	  0.28876	  4.34274	 -0.20838	  4.98106	709.34302	 24.00	
 13.601	-86.383	  4.50778	  2.33465	  1.93698	  0.28592	  4.33489	 -0.21233	  4.98090	709.37500	 24.00	
 13.607	-79.207	  4.51381	  2.59708	  1.69096	  0.30524	  4.31175	 -0.21481	  4.99578	709.29102	 24.00	
 13.595	-71.958	  4.49521	  2.84744	  1.44373	  0.35455	  4.22330	 -0.21195	  4.98030	709.29102	 24.00	
 13.604	-64.789	  4.49699	  3.09697	  1.22676	  0.42794	  4.12469	 -0.21136	  4.98722	709.32300	 24.00	
 13.611	-57.569	  4.49293	  3.33762	  1.01936	  0.52723	  3.98641	 -0.21018	  4.98838	709.26202	 24.00	
 13.596	-50.360	  4.49250	  3.55638	  0.83770	  0.65892	  3.81941	 -0.21267	  4.98723	709.26703	 24.00	
 13.601	-43.175	  4.48688	  3.75510	  0.67670	  0.80555	  3.62552	 -0.21259	  4.98430	709.63000	 24.00	
 13.611	-36.001	  4.48241	  3.92848	  0.53604	  0.97586	  3.41236	 -0.20944	  4.98139	709.43201	 24.00	
 13.609	-28.790	  4.47630	  4.07290	  0.42546	  1.16867	  3.17330	 -0.20886	  4.97319	709.31598	 24.00	
 13.601	-21.647	  4.48465	  4.19823	  0.33586	  1.38346	  2.93631	 -0.20522	  4.98051	709.27802	 23.90	
 13.611	-14.417	  4.48667	  4.28629	  0.27601	  1.61165	  2.68468	 -0.20161	  4.98046	709.39600	 23.90	
 13.608	 -7.147	  4.49286	  4.34693	  0.23646	  1.86224	  2.42166	 -0.19869	  4.98774	709.41602	 23.90	
 13.600	  0.000	  4.49371	  4.36114	  0.23089	  2.10884	  2.16646	 -0.19743	  4.98046	709.41803	 23.90	
 13.608	  7.147	  4.49738	  4.34520	  0.24834	  2.36247	  1.92421	 -0.19979	  4.97867	709.41602	 23.90	
 13.611	 14.417	  4.50235	  4.30027	  0.28787	  2.62170	  1.67875	 -0.19899	  4.98101	709.30701	 23.90	
 13.601	 21.647	  4.51695	  4.22285	  0.36208	  2.88524	  1.45234	 -0.19296	  4.98811	709.39301	 23.90	
 13.609	 28.790	  4.52026	  4.11117	  0.45365	  3.12191	  1.24389	 -0.18448	  4.98429	709.37500	 23.90	
 13.611	 36.001	  4.53140	  3.96805	  0.57383	  3.36087	  1.05224	 -0.17451	  4.98799	709.35901	 23.90	
 13.601	 43.175	  4.52816	  3.79244	  0.70743	  3.57009	  0.87869	 -0.16963	  4.97952	709.40900	 23.90	
 13.596	 50.360	  4.53466	  3.59377	  0.87684	  3.76543	  0.72768	 -0.16679	  4.97919	709.80603	 23.90	
 13.611	 57.569	  4.55112	  3.38130	  1.06697	  3.94280	  0.60213	 -0.16616	  4.98788	709.39600	 23.90	
 13.604	 64.789	  4.56282	  3.15249	  1.27620	  4.08085	  0.50664	 -0.16862	  4.98873	709.37799	 23.90	
 13.595	 71.958	  4.55792	  2.89736	  1.49763	  4.18141	  0.42944	 -0.17138	  4.97856	709.35101	 23.90	
 13.607	 79.207	  4.57236	  2.64611	  1.74378	  4.26243	  0.38357	 -0.17796	  4.98376	709.30798	 23.90	
 13.601	 86.383	  4.57777	  2.39087	  1.99182	  4.30335	  0.36050	 -0.18733	  4.98281	709.36401	 23.90	
 13.601	 93.617	  4.58824	  2.13910	  2.25037	  4.31011	  0.36866	 -0.19307	  4.98521	709.31500	 23.90	
 13.607	100.793	  4.59572	  1.88961	  2.51254	  4.28582	  0.39619	 -0.19549	  4.98871	709.21802	 23.90	
 13.595	108.042	  4.61207	  1.65885	  2.77809	  4.22972	  0.45709	 -0.19517	  5.00000	709.34302	 23.90	
 13.604	115.211	  4.60213	  1.43370	  3.01654	  4.12432	  0.53508	 -0.18750	  4.98429	709.29999	 23.90	
 13.611	122.431	  4.60821	  1.22756	  3.25797	  3.99542	  0.64069	 -0.17989	  4.98664	709.24298	 23.90	
 13.596	129.640	  4.61361	  1.04130	  3.48363	  3.84176	  0.77153	 -0.17284	  4.99074	709.28601	 23.90	
 13.601	136.825	  4.61373	  0.87701	  3.68477	  3.65321	  0.92629	 -0.16953	  4.98870	709.17999	 23.90	
 13.611	143.999	  4.62256	  0.73616	  3.86799	  3.45609	  1.10150	 -0.16835	  4.99852	709.21802	 23.90	
 13.609	151.210	  4.61773	  0.61624	  4.01219	  3.22115	  1.29878	 -0.16808	  4.99178	709.33698	 23.90	
 13.601	158.353	  4.61268	  0.52335	  4.12636	  2.97613	  1.51443	 -0.16844	  4.98834	709.31598	 23.80	
 13.611	165.583	  4.60401	  0.45239	  4.20759	  2.71573	  1.74410	 -0.16762	  4.98225	709.28003	 23.80	
 13.608	172.853	  4.60029	  0.41507	  4.25263	  2.45292	  1.99183	 -0.17202	  4.97984	709.34802	 23.80	
 15.298	173.587	  4.47694	  0.11672	  4.41404	  2.35661	  1.88584	 -0.19749	  4.98537	709.37201	 23.80	
 15.291	167.167	  4.48349	  0.15176	  4.37398	  2.61525	  1.64547	 -0.19671	  4.98836	709.31897	 23.80	
 15.307	160.676	  4.47343	  0.20601	  4.29101	  2.86553	  1.40341	 -0.19783	  4.97503	709.35901	 23.80	
 15.300	154.261	  4.47775	  0.29017	  4.18886	  3.11272	  1.18936	 -0.19894	  4.97726	709.30701	 23.80	
 15.288	147.854	  4.48668	  0.39575	  4.06052	  3.35425	  0.98959	 -0.19977	  4.98534	709.35101	 23.80	
 15.293	141.428	  4.48355	  0.51727	  3.89877	  3.57171	  0.80325	 -0.20010	  4.98262	709.33099	 23.80	
 15.299	134.985	  4.48188	  0.66286	  3.71282	  3.77512	  0.63467	 -0.20443	  4.98262	709.28601	 23.80	
 15.305	128.583	  4.48124	  0.82803	  3.50880	  3.95777	  0.48998	 -0.20912	  4.98512	709.29401	 23.80	
 15.309	122.142	  4.47685	  1.01132	  3.28255	  4.11784	  0.35763	 -0.21570	  4.98602	709.31897	 23.80	
 15.304	115.711	  4.47570	  1.21479	  3.04353	  4.24460	  0.26084	 -0.22194	  4.98586	709.31897	 23.80	
 15.297	109.291	  4.48178	  1.43412	  2.80353	  4.35400	  0.17948	 -0.22685	  4.99754	709.48999	 23.80	
 15.293	102.897	  4.46813	  1.66368	  2.53910	  4.41509	  0.11993	 -0.22899	  4.98710	709.45099	 23.80	
 15.293	 96.458	  4.45947	  1.90543	  2.27863	  4.45350	  0.08169	 -0.22942	  4.98413	709.35303	 23.80	
 15.300	 90.000	  4.45916	  2.15621	  2.02696	  4.46898	  0.06471	 -0.22606	  4.99070	709.37500	 23.80	
 15.293	 83.542	  4.45061	  2.41342	  1.76713	  4.44370	  0.07481	 -0.21984	  4.98904	709.39301	 23.80	
 15.293	 77.103	  4.43916	  2.66670	  1.52393	  4.38781	  0.10341	 -0.21428	  4.98413	709.35901	 23.80	
 15.297	 70.709	  4.44188	  2.92462	  1.29125	  4.31617	  0.15662	 -0.21014	  4.99610	709.34698	 23.80	
 15.304	 64.289	  4.44000	  3.17280	  1.07362	  4.20821	  0.23465	 -0.20373	  5.00122	709.35602	 23.80	
 15.309	 57.858	  4.42149	  3.40373	  0.86403	  4.05865	  0.33096	 -0.20366	  4.99001	709.58502	 23.80	
 15.305	 51.417	  4.41559	  3.62516	  0.68073	  3.89241	  0.45167	 -0.20524	  4.99096	709.62500	 23.80	
 15.299	 45.015	  4.40652	  3.82095	  0.51445	  3.70526	  0.59266	 -0.20392	  4.98936	709.82501	 23.80	
 15.293	 38.572	  4.39548	  3.99734	  0.36987	  3.49465	  0.75060	 -0.21042	  4.98572	709.37500	 23.70	
 15.288	 32.146	  4.39663	  4.16261	  0.24345	  3.26603	  0.93855	 -0.21818	  4.99392	709.46899	 23.70	
 15.300	 25.739	  4.38355	  4.28504	  0.13999	  3.02889	  1.12952	 -0.22657	  4.98891	709.50897	 23.70	
 15.307	 19.324	  4.38750	  4.39793	  0.05774	  2.78178	  1.34859	 -0.23349	  5.00123	710.02100	 23.70	
 15.291	 12.833	  4.36568	  4.44696	  0.00585	  2.51297	  1.58030	 -0.23301	  4.97899	709.39600	 23.70	
 15.298	  6.413	  4.36156	  4.49663	 -0.03885	  2.25972	  1.81664	 -0.23033	  4.98422	709.29602	 23.70	
 15.300	  0.000	  4.36390	  4.51609	 -0.05475	  2.00700	  2.06431	 -0.22813	  4.99371	709.35602	 23.70	
 15.298	 -6.413	  4.35412	  4.49444	 -0.05039	  1.75593	  2.31796	 -0.22881	  4.98974	709.33698	 23.70	
 15.291	-12.833	  4.35126	  4.44240	 -0.01376	  1.51219	  2.57429	 -0.22882	  4.98526	709.38501	 23.70	
 15.307	-19.324	  4.34636	  4.36441	  0.03443	  1.27729	  2.82895	 -0.23122	  4.98509	709.32300	 23.70	
 15.300	-25.739	  4.35302	  4.26695	  0.10647	  1.06131	  3.08090	 -0.23353	  4.99674	709.81702	 23.70	
 15.288	-32.146	  4.34612	  4.12449	  0.20757	  0.86487	  3.31209	 -0.23403	  4.98586	709.39600	 23.70	
 15.293	-38.572	  4.34394	  3.96044	  0.32950	  0.68000	  3.53677	 -0.23292	  4.98315	709.38599	 23.70	
 15.299	-45.015	  4.34740	  3.77949	  0.46716	  0.52066	  3.74517	 -0.22953	  4.98677	709.40900	 23.70	
 15.305	-51.417	  4.35502	  3.58084	  0.62678	  0.37502	  3.93925	 -0.22269	  4.99519	709.36200	 23.70	
 15.309	-57.858	  4.35496	  3.35476	  0.81018	  0.25183	  4.10281	 -0.22255	  4.99288	709.42297	 23.70	
 15.304	-64.289	  4.36166	  3.11847	  1.01082	  0.15816	  4.24083	 -0.21662	  4.99400	709.45801	 23.70	
 15.297	-70.709	  4.35475	  2.86209	  1.22877	  0.08466	  4.33660	 -0.21405	  4.97950	709.32300	 23.70	
 15.293	-77.103	  4.36142	  2.61616	  1.45323	  0.02899	  4.42174	 -0.21594	  4.98431	709.28900	 23.70	
 15.293	-83.542	  4.37546	  2.36394	  1.70265	 -0.00022	  4.47807	 -0.21459	  4.99204	709.34698	 23.70	
 15.300	-90.000	  4.38005	  2.10428	  1.95773	 -0.00938	  4.49966	 -0.21589	  4.99202	709.34802	 23.70	
 15.293	-96.458	  4.38148	  1.85236	  2.21416	  0.01045	  4.48235	 -0.21584	  4.98369	709.34003	 23.70	
 15.293	-102.897	  4.38899	  1.61038	  2.47577	  0.04630	  4.44579	 -0.21047	  4.98578	709.32703	 23.70	
 15.297	-109.291	  4.38657	  1.38074	  2.72749	  0.10126	  4.37069	 -0.20693	  4.97721	709.40698	 23.70	
 15.304	-115.711	  4.40579	  1.17335	  2.98145	  0.19395	  4.27738	 -0.20003	  4.98636	709.42297	 23.70	
 15.309	-122.142	  4.41164	  0.96933	  3.23002	  0.29933	  4.14798	 -0.19580	  4.98745	709.96997	 23.70	
 15.305	-128.583	  4.42547	  0.79404	  3.46056	  0.42630	  4.00083	 -0.19505	  4.99131	709.38300	 23.70	
 15.299	-134.985	  4.42797	  0.62974	  3.66886	  0.57360	  3.81685	 -0.19537	  4.98780	709.36401	 23.60	
 15.293	-141.428	  4.42435	  0.48809	  3.84730	  0.74949	  3.60116	 -0.19345	  4.97370	709.33099	 23.70	
 15.288	-147.854	  4.43955	  0.36742	  4.02481	  0.93060	  3.39379	 -0.19642	  4.98564	709.35303	 23.60	
 15.300	-154.261	  4.44910	  0.26833	  4.16608	  1.13714	  3.15951	 -0.20095	  4.98851	709.31201	 23.60	
 15.307	-160.676	  4.45937	  0.19518	  4.27905	  1.36375	  2.91248	 -0.20484	  4.99018	709.40698	 23.60	
 15.291	-167.167	  4.45936	  0.14137	  4.35269	  1.59597	  2.65504	 -0.20837	  4.98353	709.42798	 23.60	
 15.298	-173.587	  4.47068	  0.10727	  4.41244	  1.84359	  2.40012	 -0.20722	  4.99183	709.41602	 23.60	
 15.300	180.000	  4.47828	  0.10269	  4.43196	  2.09579	  2.14731	 -0.20417	  4.99315	709.40997	 23.60	
 17.000	180.000	  4.33351	 -0.18104	  4.56307	  1.99453	  2.03046	 -0.21133	  4.99037	709.43201	 23.60	
 16.990	-174.179	  4.33082	 -0.17433	  4.55031	  1.73708	  2.28991	 -0.21191	  4.99406	709.41602	 23.60	
 17.009	-168.383	  4.32305	 -0.15073	  4.50752	  1.49760	  2.53959	 -0.21009	  4.99361	709.33698	 23.60	
 17.000	-162.596	  4.31884	 -0.10162	  4.43405	  1.26492	  2.79486	 -0.21122	  4.99295	709.29700	 23.60	
 16.990	-156.759	  4.30828	 -0.03519	  4.32831	  1.03799	  3.04622	 -0.20768	  4.99069	709.36700	 23.60	
 16.995	-150.919	  4.29725	  0.04692	  4.20304	  0.82807	  3.28396	 -0.20411	  4.98819	709.90900	 23.60	
 16.988	-145.161	  4.30117	  0.15710	  4.05696	  0.64104	  3.51623	 -0.20778	  4.99648	709.37201	 23.60	
 17.014	-139.343	  4.28152	  0.27884	  3.87225	  0.45610	  3.72979	 -0.20937	  4.98703	709.27301	 23.60	
 17.007	-133.546	  4.28586	  0.42371	  3.68475	  0.29891	  3.93116	 -0.21041	  4.99670	709.35303	 23.60	
 17.001	-127.699	  4.26186	  0.58442	  3.45516	  0.15558	  4.09229	 -0.20848	  4.97782	709.37201	 23.60	
 17.006	-121.937	  4.26357	  0.76016	  3.23967	  0.03311	  4.25256	 -0.21056	  4.99063	709.38800	 23.60	
 17.002	-116.134	  4.24766	  0.95335	  2.99127	 -0.07061	  4.37281	 -0.21287	  4.98059	709.31299	 23.60	
 17.001	-110.310	  4.25305	  1.16795	  2.74672	 -0.14924	  4.48358	 -0.21304	  4.99311	709.51202	 23.60	
 16.988	-104.517	  4.24297	  1.38466	  2.49167	 -0.21481	  4.55632	 -0.21393	  4.99095	709.33502	 23.60	
 17.008	-98.662	  4.22583	  1.61627	  2.22674	 -0.26258	  4.59683	 -0.20807	  4.98085	709.80603	 23.60	
 16.996	-92.909	  4.22225	  1.86161	  1.97400	 -0.28733	  4.62241	 -0.20878	  4.98668	709.36200	 23.60	
 16.996	-87.091	  4.21912	  2.10902	  1.72185	 -0.29469	  4.62248	 -0.20065	  4.99051	709.34698	 23.60	
 17.012	-81.253	  4.21912	  2.36868	  1.47481	 -0.27634	  4.59494	 -0.19719	  4.99634	709.31201	 23.60	
 16.988	-75.483	  4.21371	  2.62032	  1.24059	 -0.23322	  4.53081	 -0.20240	  4.99425	709.25598	 23.60	
 17.001	-69.690	  4.20567	  2.86811	  1.01829	 -0.18099	  4.44507	 -0.20311	  4.99193	709.29102	 23.60	
 17.002	-63.866	  4.19905	  3.11900	  0.79738	 -0.10311	  4.32726	 -0.20517	  4.98880	709.33197	 23.60	
 17.006	-58.063	  4.18758	  3.34402	  0.60330	 -0.01299	  4.18643	 -0.21580	  4.98087	709.67700	 23.60	
 17.001	-52.301	  4.19585	  3.57459	  0.42789	  0.10154	  4.03678	 -0.22579	  4.99331	709.37500	 23.50	
 17.007	-46.454	  4.19392	  3.78531	  0.26591	  0.24118	  3.85244	 -0.23369	  4.99283	709.35101	 23.50	
 17.014	-40.657	  4.19205	  3.97725	  0.12350	  0.38923	  3.65322	 -0.24092	  4.99379	709.39398	 23.50	
 16.988	-34.839	  4.19737	  4.14892	  0.00460	  0.56510	  3.44129	 -0.24797	  4.99691	709.35602	 23.50	
 16.995	-29.081	  4.19289	  4.29005	 -0.10102	  0.74863	  3.20351	 -0.24877	  4.99291	709.30701	 23.50	
 16.990	-23.241	  4.19462	  4.40948	 -0.18070	  0.95385	  2.96225	 -0.25155	  4.98937	709.33698	 23.50	
 17.000	-17.404	  4.19952	  4.51260	 -0.24887	  1.17633	  2.71384	 -0.25762	  4.99562	709.40698	 23.50	
 17.009	-11.617	  4.19522	  4.57744	 -0.29979	  1.40433	  2.45571	 -0.25295	  4.99008	709.38000	 23.50	
 16.990	 -5.821	  4.20669	  4.62704	 -0.32404	  1.64721	  2.20579	 -0.25092	  4.99648	709.37201	 23.50	
 17.000	  0.000	  4.20140	  4.63406	 -0.32774	  1.89319	  1.94994	 -0.25261	  4.98757	709.31500	 23.50	
 16.990	  5.821	  4.21011	  4.62913	 -0.31521	  2.14416	  1.70627	 -0.25311	  4.99031	709.35901	 23.50	
 17.009	 11.617	  4.21727	  4.59805	 -0.28868	  2.40212	  1.46476	 -0.25689	  4.99670	709.31299	 23.50	
 17.000	 17.404	  4.22184	  4.53073	 -0.23229	  2.65513	  1.24118	 -0.26057	  4.99227	709.29102	 23.50	
 16.990	 23.241	  4.23707	  4.45149	 -0.16257	  2.91109	  1.02632	 -0.25729	  5.00372	709.36902	 23.50	
 16.995	 29.081	  4.24315	  4.33414	 -0.07329	  3.15476	  0.82470	 -0.25266	  5.00149	709.29401	 23.50	
 16.988	 34.839	  4.25550	  4.19895	  0.03455	  3.39414	  0.64107	 -0.24856	  5.00897	709.29901	 23.50	
 17.014	 40.657	  4.25002	  4.02369	  0.16213	  3.60246	  0.46536	 -0.24274	  4.99203	709.33502	 23.50	
 17.007	 46.454	  4.26588	  3.84049	  0.31636	  3.81362	  0.31698	 -0.24361	  4.99949	709.28900	 23.50	
 17.001	 52.301	  4.27130	  3.63446	  0.47733	  4.00203	  0.17822	 -0.24072	  4.99916	709.28101	 23.50	
 17.006	 58.063	  4.27516	  3.41407	  0.65776	  4.15695	  0.06460	 -0.23892	  4.99254	709.33698	 23.50	
 17.002	 63.866	  4.28027	  3.17497	  0.85767	  4.30193	 -0.03641	 -0.23978	  4.99333	709.33502	 23.50	
 17.001	 69.690	  4.28730	  2.93280	  1.07143	  4.41279	 -0.10892	 -0.24292	  4.99104	709.26202	 23.40	
 16.988	 75.483	  4.29545	  2.68245	  1.29960	  4.49900	 -0.16442	 -0.24559	  4.99136	709.30499	 23.40	
 17.012	 81.253	  4.30427	  2.43364	  1.53271	  4.56122	 -0.19979	 -0.24599	  4.99334	709.31598	 23.40	
 16.996	 87.091	  4.30843	  2.17620	  1.78114	  4.59564	 -0.22052	 -0.24644	  4.99337	709.29102	 23.40	
 16.996	 92.909	  4.32209	  1.92907	  2.04067	  4.60280	 -0.21139	 -0.24782	  4.99512	709.32703	 23.40	
 17.008	 98.662	  4.32355	  1.68295	  2.29249	  4.57942	 -0.19267	 -0.24788	  4.99088	709.20697	 23.40	
 16.988	104.517	  4.33169	  1.44543	  2.55356	  4.53421	 -0.14941	 -0.24800	  4.99573	709.21503	 23.40	
 17.001	110.310	  4.33498	  1.21828	  2.80678	  4.45905	 -0.09098	 -0.24595	  4.99414	709.32703	 23.40	
 17.002	116.134	  4.34177	  1.00684	  3.05621	  4.35977	 -0.01055	 -0.24231	  4.99653	709.28101	 23.40	
 17.006	121.937	  4.34320	  0.80274	  3.29582	  4.23221	  0.08999	 -0.23818	  4.99637	709.33698	 23.40	
 17.001	127.699	  4.34525	  0.62603	  3.51790	  4.06994	  0.21383	 -0.23337	  4.98906	709.26202	 23.40	
 17.007	133.546	  4.34721	  0.45529	  3.73287	  3.89806	  0.34695	 -0.23140	  4.99362	709.29700	 23.40	
 17.014	139.343	  4.35267	  0.30968	  3.92720	  3.70633	  0.50383	 -0.22838	  4.99964	709.21802	 23.40	
 16.988	145.161	  4.35780	  0.18193	  4.10157	  3.48599	  0.68768	 -0.22634	  4.99899	709.16699	 23.40	
 16.995	150.919	  4.35603	  0.07463	  4.24380	  3.25628	  0.87693	 -0.22308	  4.99526	709.28003	 23.40	
 16.990	156.759	  4.35533	 -0.01364	  4.36272	  3.01397	  1.08647	 -0.22218	  4.99657	709.29999	 23.40	
 17.000	162.596	  4.34519	 -0.08674	  4.45030	  2.76136	  1.30226	 -0.21847	  4.98889	709.24200	 23.40	
 17.009	168.383	  4.34903	 -0.13732	  4.52367	  2.51387	  1.53679	 -0.21611	  4.99784	709.29700	 23.40	
 16.990	174.179	  4.33771	 -0.16543	  4.55162	  2.25099	  1.77835	 -0.21159	  4.98583	709.29901	 23.40	
 18.709	174.675	  4.17706	 -0.45040	  4.67487	  2.12957	  1.66414	 -0.20959	  4.98838	709.30798	 23.40	
 18.703	169.441	  4.18963	 -0.42046	  4.65193	  2.38782	  1.42559	 -0.21744	  4.99875	709.28302	 23.40	
 18.691	164.085	  4.19271	 -0.37587	  4.59105	  2.64485	  1.19270	 -0.22564	  4.99782	709.24597	 23.40	
 18.706	158.818	  4.19222	 -0.31256	  4.50138	  2.89059	  0.97702	 -0.23118	  4.99223	709.27802	 23.40	
 18.695	153.537	  4.19329	 -0.23342	  4.39283	  3.13451	  0.76590	 -0.23421	  4.99214	709.25897	 23.40	
 18.704	148.255	  4.19168	 -0.13911	  4.26059	  3.36956	  0.56419	 -0.23555	  4.99333	709.68402	 23.40	
 18.698	142.952	  4.18612	 -0.02697	  4.10269	  3.58295	  0.38828	 -0.23835	  4.98505	709.26703	 23.40	
 18.699	137.625	  4.19596	  0.10249	  3.93486	  3.80634	  0.22350	 -0.24040	  5.00150	709.24298	 23.40	
 18.705	132.343	  4.18876	  0.25424	  3.73373	  3.99020	  0.07683	 -0.24484	  4.99277	709.27301	 23.40	
 18.713	127.067	  4.19035	  0.41490	  3.52647	  4.16460	 -0.05722	 -0.24715	  4.99762	709.21899	 23.40	
 18.700	121.794	  4.18457	  0.59520	  3.29654	  4.31448	 -0.16990	 -0.24734	  4.99508	709.29102	 23.30	
 18.698	116.504	  4.17799	  0.78953	  3.05655	  4.43642	 -0.26352	 -0.24902	  4.99030	709.28900	 23.30	
 18.707	111.165	  4.17343	  0.99342	  2.80856	  4.54871	 -0.35185	 -0.24530	  4.99417	709.28003	 23.30	
 18.690	105.863	  4.17744	  1.22145	  2.55972	  4.63378	 -0.41228	 -0.24952	  5.00108	709.30798	 23.30	
 18.696	100.583	  4.16795	  1.44610	  2.30469	  4.68239	 -0.45181	 -0.24844	  4.99543	709.22400	 23.30	
 18.700	 95.309	  4.15541	  1.68200	  2.04811	  4.70788	 -0.48434	 -0.24635	  4.98930	709.33197	 23.30	
 18.700	 90.000	  4.14841	  1.92426	  1.79537	  4.71181	 -0.49594	 -0.24996	  4.98817	709.19501	 23.30	
 18.700	 84.691	  4.14728	  2.17728	  1.55067	  4.70375	 -0.49405	 -0.25691	  4.99574	709.27502	 23.30	
 18.696	 79.417	  4.13089	  2.42394	  1.30848	  4.64676	 -0.46285	 -0.26231	  4.98125	709.26398	 23.30	
 18.690	 74.137	  4.13383	  2.67762	  1.08118	  4.59130	 -0.42524	 -0.26623	  4.99375	709.25403	 23.30	
 18.707	 68.835	  4.12572	  2.92496	  0.86093	  4.50048	 -0.36744	 -0.26797	  4.99272	709.30402	 23.30	
 18.698	 63.496	  4.11183	  3.16669	  0.64730	  4.37389	 -0.28964	 -0.27032	  4.98474	709.26398	 23.30	
 18.700	 58.206	  4.10435	  3.39960	  0.45546	  4.23585	 -0.19539	 -0.27076	  4.98498	709.21802	 23.30	
 18.713	 52.933	  4.10481	  3.62452	  0.27478	  4.08902	 -0.09446	 -0.27165	  4.99944	709.28601	 23.30	
 18.705	 47.657	  4.09485	  3.82844	  0.11265	  3.90652	  0.03615	 -0.27522	  4.99588	709.21503	 23.30	
 18.699	 42.375	  4.09378	  4.02534	 -0.03293	  3.71011	  0.17979	 -0.27248	  5.00172	709.24799	 23.30	
 18.698	 37.048	  4.08105	  4.19064	 -0.16291	  3.48653	  0.34288	 -0.27041	  4.99343	709.22198	 23.30	
 18.704	 31.745	  4.06757	  4.33864	 -0.28016	  3.25675	  0.51551	 -0.27076	  4.99157	709.17798	 23.30	
 18.695	 26.463	  4.06816	  4.47217	 -0.37646	  3.01963	  0.71065	 -0.26826	  4.99756	709.23199	 23.30	
 18.706	 21.182	  4.06056	  4.58091	 -0.45941	  2.77656	  0.90692	 -0.26921	  5.00168	709.22601	 23.30	
 18.691	 15.915	  4.05067	  4.65427	 -0.51808	  2.52843	  1.11962	 -0.26575	  4.99540	709.20001	 23.30	
 18.703	 10.559	  4.04374	  4.71443	 -0.57065	  2.26521	  1.35096	 -0.26304	  4.99646	709.17603	 23.30	
 18.709	  5.325	  4.03554	  4.74530	 -0.60309	  2.01615	  1.58030	 -0.26137	  4.99518	709.22998	 23.30	
 18.700	  0.000	  4.02990	  4.74949	 -0.61232	  1.76598	  1.82060	 -0.25981	  4.99241	709.22998	 23.30	
 18.709	 -5.325	  4.02193	  4.73230	 -0.60959	  1.51647	  2.06772	 -0.25906	  4.98967	709.12097	 23.30	
 18.703	-10.559	  4.02247	  4.69707	 -0.58427	  1.28051	  2.32210	 -0.26189	  4.99402	709.19098	 23.30	
 18.691	-15.915	  4.02290	  4.63649	 -0.54544	  1.05406	  2.57348	 -0.26759	  4.99533	709.17798	 23.30	
 18.706	-21.182	  4.02857	  4.56086	 -0.49334	  0.83141	  2.83327	 -0.26194	  5.00789	709.21600	 23.30	
 18.695	-26.463	  4.02273	  4.44242	 -0.41547	  0.62775	  3.07151	 -0.25594	  4.99980	709.17200	 23.30	
 18.704	-31.745	  4.02035	  4.30681	 -0.32514	  0.43797	  3.30359	 -0.24869	  4.99691	709.13800	 23.30	
 18.698	-37.048	  4.02282	  4.15267	 -0.21752	  0.26085	  3.53150	 -0.24284	  5.00160	709.17499	 23.30	
 18.699	-42.375	  4.01982	  3.97583	 -0.09596	  0.09643	  3.74373	 -0.23857	  4.99962	709.27301	 23.30	
 18.705	-47.657	  4.02014	  3.77893	  0.04697	 -0.04773	  3.93871	 -0.23154	  4.99763	709.31897	 23.20	
 18.713	-52.933	  4.01865	  3.56188	  0.21371	 -0.17564	  4.11296	 -0.22214	  4.99123	709.21503	 23.20	
 18.700	-58.206	  4.02209	  3.34295	  0.38396	 -0.28655	  4.27488	 -0.21074	  4.99476	709.23999	 23.20	
 18.698	-63.496	  4.02585	  3.10538	  0.57461	 -0.37802	  4.40975	 -0.20337	  4.99333	709.33502	 23.20	
 18.707	-68.835	  4.02818	  2.85573	  0.78674	 -0.45564	  4.52404	 -0.19369	  4.99006	709.24298	 23.20	
 18.690	-74.137	  4.03979	  2.61253	  1.00278	 -0.50952	  4.61881	 -0.19124	  4.99829	709.26501	 23.20	
 18.696	-79.417	  4.04366	  2.36342	  1.23075	 -0.55057	  4.68419	 -0.19231	  4.99555	709.38800	 23.20	
 18.700	-84.691	  4.05616	  2.11206	  1.47963	 -0.57187	  4.73060	 -0.18785	  5.00292	709.28601	 23.20	
 18.700	-90.000	  4.06150	  1.86259	  1.72348	 -0.57967	  4.74891	 -0.19300	  5.00374	709.22699	 23.20	
 18.700	-95.309	  4.06562	  1.61658	  1.97577	 -0.56421	  4.73813	 -0.19668	  4.99816	709.28802	 23.20	
 18.696	-100.583	  4.07833	  1.38512	  2.23400	 -0.53235	  4.71201	 -0.20655	  5.00445	709.50403	 23.20	
 18.690	-105.863	  4.07323	  1.15137	  2.48285	 -0.48014	  4.64196	 -0.21008	  4.98880	709.90302	 23.20	
 18.707	-111.165	  4.08999	  0.94259	  2.74414	 -0.41718	  4.57602	 -0.21394	  5.00273	709.20697	 23.20	
 18.698	-116.504	  4.09671	  0.73697	  2.99319	 -0.33223	  4.47058	 -0.21686	  4.99996	709.26398	 23.20	
 18.700	-121.794	  4.10521	  0.54955	  3.23047	 -0.22918	  4.34455	 -0.21442	  4.99965	709.22699	 23.20	
 18.713	-127.067	  4.11646	  0.37592	  3.46413	 -0.11289	  4.20004	 -0.21593	  5.00443	709.32703	 23.20	
 18.705	-132.343	  4.11580	  0.21698	  3.67664	  0.02559	  4.01619	 -0.21918	  4.99226	709.53601	 23.20	
 18.699	-137.625	  4.12025	  0.07029	  3.87569	  0.17033	  3.82730	 -0.21845	  4.99232	709.92401	 23.20	
 18.698	-142.952	  4.13630	 -0.05175	  4.06387	  0.34445	  3.62330	 -0.21589	  4.99924	709.85999	 23.20	
 18.704	-148.255	  4.14051	 -0.16143	  4.22083	  0.52757	  3.39906	 -0.20751	  4.99543	709.27802	 23.20	
 18.695	-153.537	  4.14528	 -0.24960	  4.35479	  0.72252	  3.16560	 -0.20213	  4.99041	709.62201	 23.20	
 18.706	-158.818	  4.16009	 -0.32894	  4.48113	  0.93140	  2.93044	 -0.19713	  5.00217	709.65698	 23.20	
 18.691	-164.085	  4.17374	 -0.38639	  4.57642	  1.15945	  2.68282	 -0.19940	  5.00871	709.32397	 23.20	
 18.703	-169.441	  4.16698	 -0.42710	  4.62942	  1.38801	  2.42067	 -0.20007	  4.99315	709.18402	 23.20	
 18.709	-174.675	  4.17293	 -0.45250	  4.67419	  1.62801	  2.16944	 -0.20227	  4.99633	709.27502	 23.20	
 18.700	180.000	  4.17438	 -0.45975	  4.68495	  1.87321	  1.91321	 -0.20377	  4.99042	709.25403	 23.20	
 20.400	180.000	  4.00135	 -0.74790	  4.78873	  1.74707	  1.77466	 -0.19711	  4.99595	709.23798	 23.20	
 20.401	-175.153	  3.99656	 -0.74000	  4.77443	  1.50124	  2.02510	 -0.18996	  4.99543	709.38800	 23.20	
 20.407	-170.264	  3.99734	 -0.72777	  4.75192	  1.25591	  2.28292	 -0.18564	  5.00796	709.22601	 23.20	
 20.410	-165.423	  3.98765	 -0.69423	  4.68971	  1.02837	  2.52977	 -0.18204	  5.00503	709.47400	 23.10	
 20.392	-160.496	  3.97838	 -0.63793	  4.60005	  0.80444	  2.77915	 -0.18507	  4.99787	709.36700	 23.10	
 20.401	-155.705	  3.96799	 -0.57275	  4.49174	  0.58916	  3.02455	 -0.18706	  4.99532	709.27002	 23.10	
 20.405	-150.835	  3.95125	 -0.49655	  4.35892	  0.39059	  3.25000	 -0.19415	  4.98651	709.33099	 23.10	
 20.397	-145.903	  3.95155	 -0.39543	  4.21116	  0.19983	  3.49044	 -0.20426	  4.99324	709.25403	 23.10	
 20.392	-141.062	  3.94294	 -0.28524	  4.04256	  0.02919	  3.70243	 -0.21167	  4.99337	709.82800	 23.10	
 20.396	-136.227	  3.93672	 -0.16129	  3.85880	 -0.12849	  3.90543	 -0.21687	  4.99680	709.87799	 23.10	
 20.408	-131.372	  3.92480	 -0.02427	  3.65433	 -0.27360	  4.08612	 -0.21712	  4.99205	709.28601	 23.10	
 20.410	-126.511	  3.92586	  0.13560	  3.44134	 -0.40399	  4.26339	 -0.21873	  5.00177	709.71899	 23.10	
 20.400	-121.604	  3.91737	  0.30800	  3.20736	 -0.52126	  4.41431	 -0.21463	  5.00246	709.84399	 23.10	
 20.403	-116.741	  3.90080	  0.49134	  2.96087	 -0.61764	  4.53139	 -0.21288	  4.99227	709.38800	 23.10	
 20.413	-111.900	  3.90387	  0.68877	  2.72138	 -0.70174	  4.64811	 -0.20559	  5.00608	709.31299	 23.10	
 20.398	-107.004	  3.89703	  0.90105	  2.46776	 -0.76402	  4.72620	 -0.20072	  5.00384	709.86798	 23.10	
 20.394	-102.132	  3.87735	  1.11647	  2.20782	 -0.81689	  4.77116	 -0.18995	  4.98861	709.65997	 23.10	
 20.403	-97.332	  3.88099	  1.35119	  1.95772	 -0.85683	  4.82335	 -0.18520	  5.00303	709.29999	 23.10	
 20.392	-92.440	  3.86914	  1.58664	  1.70464	 -0.87497	  4.83215	 -0.17676	  4.99569	709.26202	 23.10	
 20.392	-87.560	  3.85941	  1.83071	  1.45398	 -0.88732	  4.82911	 -0.17926	  4.99594	709.85400	 23.10	
 20.403	-82.668	  3.86212	  2.08562	  1.20886	 -0.87661	  4.81496	 -0.17284	  5.00924	709.29102	 23.10	
 20.394	-77.868	  3.84915	  2.32650	  0.97771	 -0.84516	  4.75657	 -0.17552	  4.99867	709.21503	 23.10	
 20.398	-72.996	  3.83746	  2.57386	  0.74959	 -0.80856	  4.68239	 -0.17780	  4.99361	709.17999	 23.10	
 20.413	-68.100	  3.83549	  2.82656	  0.53170	 -0.74773	  4.59066	 -0.17747	  4.99640	709.94299	 23.10	
 20.403	-63.259	  3.83413	  3.06993	  0.33226	 -0.67767	  4.48116	 -0.18285	  5.00263	709.27301	 23.10	
 20.400	-58.396	  3.83220	  3.30235	  0.15134	 -0.58039	  4.34059	 -0.19272	  4.99862	709.30798	 23.10	
 20.410	-53.489	  3.82567	  3.53092	 -0.02879	 -0.48081	  4.18536	 -0.20063	  4.99945	709.25897	 23.10	
 20.408	-48.628	  3.81525	  3.74023	 -0.18988	 -0.35458	  3.99668	 -0.21519	  4.98774	709.26501	 23.10	
 20.396	-43.773	  3.82230	  3.94105	 -0.32634	 -0.21623	  3.81373	 -0.22443	  4.99558	709.35901	 23.10	
 20.392	-38.938	  3.83541	  4.13638	 -0.45214	 -0.05929	  3.61568	 -0.22930	  5.01151	709.25702	 23.10	
 20.397	-34.097	  3.82225	  4.28970	 -0.56303	  0.09820	  3.39129	 -0.23433	  4.99830	709.18298	 23.10	
 20.405	-29.165	  3.82057	  4.43590	 -0.66288	  0.28214	  3.15359	 -0.23570	  4.99739	709.33502	 23.10	
 20.401	-24.295	  3.82425	  4.55788	 -0.74047	  0.48693	  2.91179	 -0.24205	  4.99596	709.28802	 23.10	
 20.392	-19.504	  3.82274	  4.65640	 -0.80565	  0.68558	  2.67107	 -0.25135	  4.99409	709.24200	 23.00	
 20.410	-14.577	  3.82994	  4.74261	 -0.85647	  0.90252	  2.42609	 -0.25408	  5.00001	709.21802	 23.10	
 20.407	 -9.736	  3.82798	  4.79207	 -0.88737	  1.13297	  2.17144	 -0.25457	  4.99334	709.56799	 23.00	
 20.401	 -4.847	  3.83433	  4.83073	 -0.90740	  1.37466	  1.92050	 -0.25291	  4.99671	709.21600	 23.00	
 20.400	  0.000	  3.84415	  4.84661	 -0.90813	  1.61780	  1.67940	 -0.25093	  5.00059	709.26202	 23.00	
 20.401	  4.847	  3.83778	  4.83292	 -0.90181	  1.86005	  1.43468	 -0.24874	  4.99148	709.25897	 23.00	
 20.407	  9.736	  3.84363	  4.80344	 -0.87305	  2.11009	  1.20346	 -0.25340	  4.99075	709.26398	 23.00	
 20.410	 14.577	  3.86451	  4.77464	 -0.83877	  2.37090	  0.98184	 -0.25696	  5.01288	709.23999	 23.00	
 20.392	 19.504	  3.86834	  4.69237	 -0.77447	  2.62471	  0.76655	 -0.25980	  5.00349	709.92999	 23.00	
 20.401	 24.295	  3.87883	  4.60476	 -0.70546	  2.86869	  0.56780	 -0.26509	  5.00854	709.28900	 23.00	
 20.405	 29.165	  3.88224	  4.48434	 -0.61786	  3.11175	  0.37105	 -0.26671	  5.00540	709.29602	 23.00	
 20.397	 34.097	  3.88463	  4.33593	 -0.51288	  3.34623	  0.19022	 -0.27574	  4.99793	709.24298	 23.00	
 20.392	 38.938	  3.89451	  4.17940	 -0.39232	  3.56813	  0.02845	 -0.28117	  4.99724	709.34497	 23.00	
 20.396	 43.773	  3.90082	  4.00393	 -0.26269	  3.77541	 -0.12021	 -0.28762	  4.99605	709.23499	 23.00	
 20.408	 48.628	  3.90621	  3.80877	 -0.11788	  3.97455	 -0.26424	 -0.29045	  4.99587	709.30701	 23.00	
 20.410	 53.489	  3.92034	  3.60273	  0.04933	  4.15244	 -0.37544	 -0.28999	  4.99838	709.25897	 23.00	
 20.400	 58.396	  3.93246	  3.38408	  0.22344	  4.31793	 -0.48501	 -0.28726	  5.00418	709.24200	 23.00	
 20.403	 63.259	  3.94244	  3.15499	  0.41549	  4.46044	 -0.57459	 -0.28715	  5.00717	709.28101	 23.00	
 20.413	 68.100	  3.94315	  2.90777	  0.61871	  4.56672	 -0.64398	 -0.28442	  4.99442	709.27502	 23.00	
 20.398	 72.996	  3.94649	  2.65973	  0.83258	  4.65796	 -0.70362	 -0.27667	  4.99118	709.24597	 23.00	
 20.394	 77.868	  3.96590	  2.41662	  1.06563	  4.73884	 -0.74380	 -0.26665	  5.00252	709.20801	 23.00	
 20.403	 82.668	  3.96274	  2.16754	  1.28981	  4.78267	 -0.77560	 -0.25747	  4.99589	709.16803	 23.00	
 20.392	 87.560	  3.97938	  1.91873	  1.53970	  4.81814	 -0.78527	 -0.24289	  5.00465	709.29401	 23.00	
 20.392	 92.440	  3.98440	  1.67761	  1.78177	  4.82068	 -0.78105	 -0.23228	  5.00039	709.28601	 23.00	
 20.403	 97.332	  3.99052	  1.43197	  2.04088	  4.80558	 -0.76285	 -0.23204	  5.00175	709.24200	 23.00	
 20.394	102.132	  3.99184	  1.20091	  2.28757	  4.76418	 -0.73056	 -0.22949	  4.99670	709.30701	 23.00	
 20.398	107.004	  3.99465	  0.97749	  2.53758	  4.70278	 -0.68155	 -0.23061	  4.99318	709.25403	 23.00	
 20.413	111.900	  4.00826	  0.76560	  2.79832	  4.63090	 -0.62302	 -0.23365	  5.00628	709.25098	 23.00	
 20.403	116.741	  4.01857	  0.56464	  3.04554	  4.52732	 -0.54188	 -0.23663	  5.00970	709.30402	 23.00	
 20.400	121.604	  4.01068	  0.37501	  3.27475	  4.38968	 -0.44825	 -0.24365	  4.99771	709.33099	 23.00	
 20.410	126.511	  4.01035	  0.19777	  3.49854	  4.23944	 -0.33851	 -0.24441	  4.99528	709.22601	 23.00	
 20.408	131.372	  4.01771	  0.03230	  3.71922	  4.07231	 -0.21336	 -0.24650	  5.00025	709.31299	 22.90	
 20.396	136.227	  4.01594	 -0.10754	  3.91263	  3.88065	 -0.07184	 -0.24596	  4.99267	709.31299	 22.90	
 20.392	141.062	  4.02694	 -0.23636	  4.10015	  3.68558	  0.08887	 -0.24272	  5.00021	709.29999	 22.90	
 20.397	145.903	  4.02325	 -0.35322	  4.25859	  3.46487	  0.25831	 -0.24056	  4.99564	709.72198	 22.90	
 20.405	150.835	  4.02730	 -0.45973	  4.41222	  3.24147	  0.43897	 -0.23629	  5.00449	709.33197	 22.90	
 20.401	155.705	  4.02390	 -0.54836	  4.53265	  2.99767	  0.63779	 -0.23548	  4.99986	709.93500	 22.90	
 20.392	160.496	  4.02301	 -0.61567	  4.63095	  2.75398	  0.84621	 -0.22932	  5.00083	709.38501	 22.90	
 20.410	165.423	  4.02139	 -0.67278	  4.70822	  2.50551	  1.06711	 -0.22398	  5.00436	709.28900	 22.90	
 20.407	170.264	  4.01473	 -0.70827	  4.75349	  2.25148	  1.29796	 -0.21211	  4.99619	709.33698	 22.90	
 20.401	175.153	  4.02167	 -0.73874	  4.79807	  2.00019	  1.54426	 -0.20662	  5.01361	709.28601	 22.90	
  0.141	 45.000	  5.02533	  2.70401	  2.54675	  2.62924	  2.65091	  0.03718	  5.01625	709.26202	 22.90	
  4.001	128.691	  5.00280	  2.28362	  2.87045	  3.02034	  2.17904	  0.01489	  5.00458	709.25000	 22.90	
  4.002	 76.995	  4.99480	  2.76267	  2.37116	  3.13075	  2.06143	  0.01468	  5.00091	709.19897	 22.90	
  4.002	 25.892	  4.99732	  3.17997	  1.99151	  2.80144	  2.34290	  0.00810	  5.01199	709.20300	 22.90	
  4.002	-25.892	  4.97658	  3.16831	  1.97011	  2.27834	  2.84750	 -0.00263	  4.99644	709.31500	 22.90	
  4.002	-76.995	  4.98467	  2.75801	  2.34291	  1.99246	  3.19206	 -0.00491	  5.00270	709.26703	 22.90	
  4.001	-128.691	  4.98791	  2.26484	  2.85321	  2.10875	  3.07496	  0.00518	  4.99637	709.34497	 22.90	
  4.000	180.000	  4.98698	  2.07674	  3.09059	  2.55121	  2.60288	  0.01335	  4.99125	709.71503	 22.90	
  8.000	180.000	  4.92227	  1.39310	  3.65739	  2.46182	  2.51647	 -0.05074	  5.01342	709.78198	 22.90	
  7.991	-152.370	  4.91160	  1.50195	  3.49983	  1.90942	  3.08835	 -0.05120	  5.01338	709.23999	 22.90	
  7.997	-124.550	  4.88606	  1.83720	  3.07317	  1.48844	  3.53399	 -0.06787	  5.00050	709.50098	 22.90	
  8.006	-96.837	  4.88186	  2.36007	  2.50852	  1.28917	  3.75682	 -0.08510	  5.01150	709.39099	 22.90	
  7.988	-69.228	  4.86028	  2.93790	  1.93042	  1.33639	  3.65868	 -0.09624	  5.00079	709.81403	 22.90	
  7.997	-41.563	  4.85448	  3.43893	  1.48258	  1.63093	  3.29750	 -0.08791	  5.00020	709.88599	 22.90	
  8.008	-13.821	  4.85775	  3.73505	  1.24222	  2.11519	  2.76121	 -0.07547	  5.00394	709.92499	 22.90	
  8.008	 13.821	  4.86872	  3.74806	  1.25092	  2.69333	  2.18613	 -0.06561	  5.00493	709.61401	 22.90	
  7.997	 41.563	  4.88353	  3.46181	  1.51274	  3.24617	  1.69637	 -0.04648	  5.00690	709.31598	 22.90	
  7.988	 69.228	  4.89976	  2.97027	  1.96391	  3.60865	  1.41682	 -0.04488	  5.00804	709.51703	 22.90	
  8.006	 96.837	  4.89963	  2.38577	  2.53060	  3.69095	  1.36301	 -0.05074	  4.99430	709.89502	 22.90	
  7.997	124.550	  4.92357	  1.87882	  3.10120	  3.48724	  1.56559	 -0.04747	  5.00838	709.89001	 22.90	
  7.991	152.370	  4.92387	  1.52659	  3.50679	  3.03862	  1.96444	 -0.04783	  5.00873	709.31500	 22.90	
 12.009	161.059	  4.72496	  0.76576	  4.02188	  2.89518	  1.75893	 -0.13530	  4.99891	709.45599	 22.80	
 12.013	142.081	  4.72334	  1.00872	  3.71912	  3.44338	  1.26544	 -0.13811	  4.99784	709.30499	 22.80	
 12.006	123.113	  4.72742	  1.41080	  3.24636	  3.87333	  0.91004	 -0.14406	  5.00155	709.45099	 22.80	
 12.007	104.200	  4.71971	  1.92031	  2.67623	  4.11941	  0.69936	 -0.15554	  5.00448	709.38599	 22.80	
 11.989	 85.301	  4.70845	  2.50856	  2.07198	  4.15849	  0.64979	 -0.14528	  5.00678	709.31598	 22.80	
 12.013	 66.294	  4.69530	  3.10324	  1.50655	  3.99044	  0.75872	 -0.13622	  5.01053	709.24200	 22.80	
 12.012	 47.388	  4.67960	  3.62585	  1.04115	  3.62680	  1.03178	 -0.13470	  5.01170	709.86798	 22.80	
 11.990	 28.440	  4.66580	  4.01015	  0.71926	  3.11222	  1.45712	 -0.14915	  5.01215	709.36401	 22.80	
 11.991	  9.464	  4.63918	  4.19889	  0.54307	  2.51425	  1.98394	 -0.16363	  4.99873	709.27802	 22.80	
 11.991	 -9.464	  4.64831	  4.21104	  0.53274	  1.92672	  2.58280	 -0.16319	  5.02071	709.28302	 22.80	
 11.990	-28.440	  4.63475	  3.98904	  0.68641	  1.38420	  3.16766	 -0.17837	  5.01040	709.41498	 22.80	
 12.012	-47.388	  4.62530	  3.58939	  0.99561	  0.95665	  3.66894	 -0.18499	  5.00158	709.81897	 22.80	
 12.013	-66.294	  4.62878	  3.05386	  1.45150	  0.67972	  4.02949	 -0.19395	  4.99906	709.28802	 22.80	
 11.989	-85.301	  4.64254	  2.45869	  2.01573	  0.56377	  4.19814	 -0.19886	  5.00045	709.35303	 22.80	
 12.007	-104.200	  4.65990	  1.87957	  2.62185	  0.62137	  4.15833	 -0.17175	  5.00316	709.30499	 22.80	
 12.006	-123.113	  4.68276	  1.37837	  3.20498	  0.84559	  3.91323	 -0.14947	  5.00841	709.75500	 22.80	
 12.013	-142.081	  4.69260	  0.98779	  3.68496	  1.20790	  3.49037	 -0.14044	  5.00292	709.85999	 22.80	
 12.009	-161.059	  4.70803	  0.75434	  4.00502	  1.71210	  2.93795	 -0.15278	  5.00123	709.21802	 22.80	
 16.000	180.000	  4.42993	 -0.01750	  4.49818	  2.06401	  2.09805	 -0.20958	  5.00177	709.18597	 22.80	
 15.990	-165.604	  4.41813	  0.03723	  4.40850	  1.47729	  2.70399	 -0.21405	  5.00242	709.20001	 22.80	
 16.002	-151.165	  4.39574	  0.19857	  4.15642	  0.95799	  3.27914	 -0.20622	  4.99736	709.20801	 22.80	
 16.002	-136.836	  4.38412	  0.48489	  3.76551	  0.52594	  3.79483	 -0.20525	  5.00185	709.81702	 22.80	
 15.995	-122.439	  4.36430	  0.87091	  3.25847	  0.19449	  4.19396	 -0.20361	  5.00016	709.78900	 22.80	
 15.993	-107.966	  4.34743	  1.35611	  2.67551	 -0.02055	  4.45431	 -0.21321	  4.99887	709.71399	 22.80	
 16.005	-93.629	  4.32483	  1.90643	  2.06865	 -0.12072	  4.55532	 -0.21180	  4.99365	709.38501	 22.80	
 15.992	-79.234	  4.31221	  2.50247	  1.48006	 -0.10155	  4.50648	 -0.21324	  4.99555	709.56403	 22.80	
 16.009	-64.774	  4.30184	  3.09186	  0.95197	  0.03481	  4.30010	 -0.21435	  4.99699	709.39600	 22.80	
 15.997	-50.364	  4.28805	  3.62365	  0.50718	  0.29227	  3.93796	 -0.22975	  4.98939	709.82800	 22.80	
 15.997	-36.045	  4.28636	  4.06723	  0.17315	  0.65924	  3.46335	 -0.23823	  4.98959	709.26501	 22.80	
 16.000	-21.597	  4.29455	  4.38595	 -0.04973	  1.12640	  2.91041	 -0.24541	  4.99651	709.64502	 22.80	
 16.003	 -7.169	  4.29924	  4.55082	 -0.16065	  1.67426	  2.31497	 -0.24109	  4.99746	709.17499	 22.80	
 16.003	  7.169	  4.30956	  4.55583	 -0.14874	  2.25813	  1.73517	 -0.24361	  4.99577	709.23199	 22.80	
 16.000	 21.597	  4.32711	  4.41664	 -0.03111	  2.85750	  1.19568	 -0.24369	  5.00237	709.18597	 22.80	
 15.997	 36.045	  4.34677	  4.11710	  0.20725	  3.42524	  0.73096	 -0.22758	  5.00523	709.22198	 22.80	
 15.997	 50.364	  4.36092	  3.68351	  0.55381	  3.90075	  0.36722	 -0.22044	  4.99862	709.32898	 22.80	
 16.009	 64.774	  4.38229	  3.15409	  1.00466	  4.26978	  0.10955	 -0.22104	  5.00454	709.55603	 22.80	
 15.992	 79.234	  4.40260	  2.56887	  1.54297	  4.48208	 -0.02466	 -0.23007	  5.00575	709.55499	 22.80	
 16.005	 93.629	  4.41209	  1.97269	  2.12787	  4.53267	 -0.04842	 -0.24067	  5.00000	709.29999	 22.80	
 15.993	107.966	  4.42643	  1.41035	  2.73130	  4.43362	  0.04189	 -0.23993	  5.00360	709.15302	 22.80	
 15.995	122.439	  4.44821	  0.92009	  3.32091	  4.17350	  0.25961	 -0.22593	  5.01198	709.24799	 22.80	
 16.002	136.836	  4.44614	  0.51994	  3.81277	  3.76674	  0.57926	 -0.21731	  5.00403	709.13300	 22.80	
 16.002	151.165	  4.44225	  0.22413	  4.19264	  3.24667	  1.00550	 -0.21352	  4.99989	709.11102	 22.80	
 15.990	165.604	  4.43214	  0.04926	  4.41574	  2.66201	  1.51871	 -0.20805	  4.99143	709.21802	 22.80	
 20.003	168.362	  4.06298	 -0.62850	  4.71977	  2.37287	  1.24999	 -0.21706	  5.00220	709.25098	 22.80	
 20.008	156.764	  4.07004	 -0.50487	  4.54733	  2.96089	  0.73195	 -0.23541	  5.00980	709.10602	 22.80	
 20.000	145.147	  4.06851	 -0.27459	  4.22942	  3.50315	  0.28739	 -0.24117	  4.99965	709.16998	 22.80	
 19.995	133.545	  4.06632	  0.03126	  3.81045	  3.98475	 -0.08561	 -0.24654	  5.00257	709.17603	 22.80	
 20.009	121.926	  4.05816	  0.41680	  3.30045	  4.37135	 -0.37506	 -0.24271	  5.00326	709.14600	 22.80	
 20.005	110.327	  4.04262	  0.87768	  2.73150	  4.63178	 -0.57465	 -0.24011	  4.99681	709.14899	 22.80	
 19.989	 98.733	  4.04404	  1.40870	  2.14607	  4.78309	 -0.68539	 -0.23560	  5.00844	709.24597	 22.80	
 19.999	 87.075	  4.01794	  1.96975	  1.55507	  4.78968	 -0.71586	 -0.25136	  4.99677	709.29602	 22.80	
 19.992	 75.457	  4.00553	  2.56046	  0.99908	  4.68672	 -0.65699	 -0.27458	  5.00149	709.30798	 22.80	
 20.009	 63.844	  3.98245	  3.12617	  0.49586	  4.45597	 -0.51907	 -0.28577	  4.99851	709.26501	 22.80	
 19.989	 52.269	  3.96420	  3.65351	  0.06792	  4.10495	 -0.28627	 -0.28744	  4.99845	709.19397	 22.80	
 19.999	 40.602	  3.94980	  4.11602	 -0.28206	  3.64583	  0.03812	 -0.28761	  5.00067	709.21002	 22.80	
 20.004	 29.051	  3.93559	  4.47801	 -0.55140	  3.12770	  0.42883	 -0.27212	  5.01283	709.84302	 22.80	
 20.005	 17.433	  3.90853	  4.70377	 -0.72826	  2.54099	  0.90151	 -0.25880	  4.99912	709.46600	 22.80	
 20.006	  5.780	  3.89118	  4.81326	 -0.82475	  1.94230	  1.43368	 -0.25727	  4.99540	709.23401	 22.80	
 20.006	 -5.780	  3.89182	  4.82004	 -0.83704	  1.37330	  2.00256	 -0.25706	  5.01022	709.18701	 22.80	
 20.005	-17.433	  3.87773	  4.68702	 -0.76166	  0.82812	  2.58944	 -0.25606	  5.00370	709.23499	 22.80	
 20.004	-29.051	  3.87336	  4.42821	 -0.59599	  0.35107	  3.15837	 -0.24885	  4.99797	709.84399	 22.80	
 19.999	-40.602	  3.87807	  4.06563	 -0.34432	 -0.04549	  3.68101	 -0.23204	  5.00296	709.15302	 22.80	
 19.989	-52.269	  3.88222	  3.59962	 -0.00955	 -0.37424	  4.13552	 -0.20601	  5.00641	709.29102	 22.80	
 20.009	-63.844	  3.87966	  3.05720	  0.40565	 -0.61989	  4.48169	 -0.18252	  5.00177	709.23999	 22.70	
 19.992	-75.457	  3.89090	  2.48066	  0.90600	 -0.75494	  4.70343	 -0.18068	  4.99523	709.22699	 22.70	
 19.999	-87.075	  3.90651	  1.89273	  1.45996	 -0.81425	  4.81043	 -0.17602	  4.99932	709.15900	 22.70	
 19.989	-98.733	  3.92460	  1.32517	  2.05570	 -0.77783	  4.79093	 -0.19179	  4.99859	709.16400	 22.70	
 20.005	-110.327	  3.95364	  0.81052	  2.65860	 -0.66234	  4.66935	 -0.21083	  5.01436	709.34497	 22.70	
 20.009	-121.926	  3.95976	  0.35294	  3.22640	 -0.44916	  4.38926	 -0.21716	  4.99858	709.26703	 22.70	
 19.995	-133.545	  3.98531	 -0.01787	  3.74751	 -0.14589	  4.01035	 -0.22254	  5.00177	709.26703	 22.70	
 20.000	-145.147	  4.00776	 -0.31428	  4.18556	  0.23340	  3.53907	 -0.20827	  5.00852	709.38300	 22.70	
 20.008	-156.764	  4.01666	 -0.51962	  4.50047	  0.68643	  2.98460	 -0.19226	  4.99870	709.27301	 22.70	
 20.003	-168.362	  4.04857	 -0.64568	  4.71629	  1.21498	  2.40924	 -0.18976	  5.01686	709.27197	 22.70	
 20.000	180.000	  4.05562	 -0.67801	  4.77775	  1.78050	  1.81878	 -0.19847	  5.00564	709.23199	 22.70	
