FileType=PCF
NHL=14
Date=03/15/19	14:28:03
Facility=APL
Serial=16071-3
Customer=NASA
NP=6
Mach=0.230000
Calibration=1:1
CalPts=490
TstPts=95
PortNumbering=AP Standard
Units=Torr C m/s kg/m^3 deg mm 
Theta[deg]	Phi[deg]	P1[Torr]	P2[Torr]	P3[Torr]	P4[Torr]	P5[Torr]	P6[Torr]	Pt[Torr]	Ps[Abs,Torr]	Ts[C]	
  0.000	  0.000	 25.64013	 10.55468	 11.13903	 11.09340	 10.62450	  0.66699	 25.69238	702.90997	 23.70	
  1.691	128.401	 25.63446	  9.68702	 11.92396	 12.10694	  9.48856	  0.64387	 25.69403	702.94000	 23.70	
  1.692	 77.194	 25.63982	 10.80976	 10.78721	 12.37722	  9.22017	  0.67712	 25.69879	702.95001	 23.70	
  1.699	 26.182	 25.64773	 11.74822	  9.90944	 11.67834	  9.97252	  0.69346	 25.68954	703.03003	 23.70	
  1.699	-26.182	 25.65438	 11.78925	  9.93602	 10.47901	 11.25115	  0.66123	 25.69020	703.04999	 23.80	
  1.692	-77.194	 25.64422	 10.83477	 10.85504	  9.73031	 12.00621	  0.62447	 25.69155	702.97998	 23.80	
  1.691	-128.401	 25.64686	  9.71713	 11.98056	 10.00125	 11.71084	  0.60318	 25.70472	702.98999	 23.80	
  1.700	180.000	 25.63406	  9.19212	 12.48567	 11.05450	 10.58374	  0.61157	 25.69760	703.15002	 23.80	
  3.400	180.000	 25.58518	  7.79695	 13.80476	 10.93400	 10.51501	  0.51335	 25.71899	703.07001	 23.80	
  3.388	-152.325	 25.59273	  8.10724	 13.51252	  9.68594	 11.83480	  0.51028	 25.71973	703.03998	 23.80	
  3.397	-124.529	 25.60332	  8.96213	 12.62109	  8.73895	 12.82740	  0.50935	 25.72411	702.90997	 23.80	
  3.399	-96.763	 25.61589	 10.15378	 11.37923	  8.31120	 13.34947	  0.52657	 25.71470	703.03003	 23.90	
  3.394	-69.283	 25.63839	 11.43656	 10.14070	  8.46550	 13.21198	  0.56272	 25.71808	702.96002	 23.90	
  3.400	-41.398	 25.65199	 12.57708	  9.06357	  9.20532	 12.41732	  0.59988	 25.72387	703.03998	 23.90	
  3.401	-14.021	 25.65825	 13.22187	  8.46201	 10.34895	 11.25206	  0.63857	 25.72736	703.00000	 23.90	
  3.401	 14.021	 25.64486	 13.19589	  8.42110	 11.64863	  9.85785	  0.66481	 25.72579	703.01001	 23.90	
  3.400	 41.398	 25.64031	 12.52116	  8.99701	 12.79467	  8.65623	  0.65890	 25.71357	702.90002	 24.00	
  3.394	 69.283	 25.64549	 11.37592	 10.03873	 13.59198	  7.90739	  0.66110	 25.75159	702.87000	 24.00	
  3.399	 96.763	 25.61650	 10.08394	 11.28247	 13.73262	  7.74584	  0.62097	 25.72806	702.96997	 24.00	
  3.397	124.529	 25.60277	  8.89029	 12.54939	 13.21702	  8.19011	  0.57687	 25.73172	702.90997	 24.00	
  3.388	152.325	 25.59978	  8.07444	 13.46787	 12.18823	  9.18633	  0.53862	 25.73555	702.94000	 24.00	
  5.099	161.165	 25.43425	  6.49871	 14.86452	 12.05081	  8.94686	  0.39740	 25.72887	702.91998	 24.10	
  5.109	142.013	 25.44291	  7.08803	 14.16412	 13.31845	  7.76068	  0.41207	 25.73058	703.00000	 24.10	
  5.095	123.033	 25.45245	  8.02244	 13.07592	 14.33701	  6.87277	  0.46968	 25.71417	702.94000	 24.10	
  5.105	104.191	 25.47774	  9.22780	 11.80376	 14.93912	  6.40542	  0.50111	 25.71900	703.01001	 24.10	
  5.093	 85.207	 25.50785	 10.55104	 10.45211	 15.11520	  6.30066	  0.53574	 25.72240	702.96002	 24.10	
  5.104	 66.290	 25.52906	 11.89523	  9.19284	 14.76869	  6.60609	  0.56241	 25.73721	702.85999	 24.10	
  5.094	 47.331	 25.54945	 13.12124	  8.11204	 13.93231	  7.33441	  0.51290	 25.75194	702.85999	 24.10	
  5.089	 28.397	 25.54992	 14.06110	  7.35008	 12.76860	  8.32457	  0.58667	 25.73249	702.79999	 24.20	
  5.096	  9.576	 25.56734	 14.56561	  6.97718	 11.51924	  9.65931	  0.58015	 25.74116	702.84998	 24.20	
  5.096	 -9.576	 25.57041	 14.58445	  7.01465	 10.17156	 11.08468	  0.56209	 25.73539	702.96997	 24.20	
  5.089	-28.397	 25.57419	 14.10348	  7.44776	  8.93207	 12.38394	  0.49663	 25.74139	703.01001	 24.20	
  5.094	-47.331	 25.55899	 13.18087	  8.22410	  7.90231	 13.52207	  0.45447	 25.73484	703.03003	 24.20	
  5.104	-66.290	 25.53901	 11.99887	  9.29469	  7.21968	 14.34089	  0.42707	 25.73413	703.00000	 24.30	
  5.093	-85.207	 25.53302	 10.66287	 10.55843	  6.92004	 14.66412	  0.37135	 25.73823	703.02002	 24.30	
  5.105	-104.191	 25.52280	  9.37029	 11.87684	  6.97955	 14.55171	  0.36739	 25.74931	703.03003	 24.30	
  5.095	-123.033	 25.49619	  8.15782	 13.16102	  7.48027	 13.93259	  0.29151	 25.74814	703.01001	 24.30	
  5.109	-142.013	 25.47128	  7.16431	 14.22398	  8.29677	 12.95928	  0.35500	 25.73600	703.06000	 24.30	
  5.099	-161.165	 25.47050	  6.55444	 14.89907	  9.44570	 11.72356	  0.34324	 25.75076	703.09998	 24.30	
  5.100	180.000	 25.46048	  6.34835	 15.11066	 10.77272	 10.32297	  0.37779	 25.74685	703.04999	 24.40	
  6.800	180.000	 25.21730	  4.82287	 16.37498	 10.51695	 10.03321	  0.19496	 25.74518	702.95001	 24.40	
  6.796	-166.229	 25.22199	  4.95444	 16.21959	  9.20991	 11.41758	  0.12267	 25.74289	702.95001	 24.40	
  6.808	-152.311	 25.23419	  5.39562	 15.73065	  8.02208	 12.74961	  0.10238	 25.74976	702.88000	 24.40	
  6.795	-138.383	 25.24705	  6.11591	 14.91025	  7.05340	 13.88704	  0.15990	 25.74823	702.90997	 24.40	
  6.792	-124.591	 25.27926	  7.05540	 13.84702	  6.28109	 14.85983	  0.09313	 25.74577	703.03003	 24.40	
  6.787	-110.754	 25.28938	  8.18908	 12.61096	  5.73648	 15.55306	  0.12984	 25.73871	702.87000	 24.50	
  6.800	-96.985	 25.31616	  9.43672	 11.32380	  5.44989	 15.92825	  0.12521	 25.74867	703.03003	 24.50	
  6.800	-83.015	 25.34541	 10.76445	  9.98324	  5.46990	 15.94808	  0.15417	 25.75990	703.03998	 24.50	
  6.787	-69.246	 25.35237	 12.08661	  8.75614	  5.77821	 15.56536	  0.22447	 25.74479	703.01001	 24.50	
  6.792	-55.409	 25.38338	 13.32209	  7.66596	  6.30930	 14.91194	  0.26044	 25.75553	703.01001	 24.50	
  6.795	-41.617	 25.39071	 14.40259	  6.75453	  7.11115	 13.94389	  0.23772	 25.75018	702.96002	 24.50	
  6.808	-27.689	 25.37408	 15.24146	  6.04670	  8.10134	 12.77735	  0.35398	 25.74884	702.94000	 24.60	
  6.796	-13.771	 25.40807	 15.76372	  5.63735	  9.32734	 11.49727	  0.37961	 25.76077	702.85999	 24.60	
  6.800	  0.000	 25.38675	 15.91569	  5.47360	 10.59041	 10.12106	  0.38516	 25.75130	702.96997	 24.60	
  6.796	 13.771	 25.38923	 15.73726	  5.56550	 11.90283	  8.75437	  0.45508	 25.76697	702.90997	 24.60	
  6.808	 27.689	 25.37503	 15.20558	  5.90365	 13.18235	  7.53302	  0.40745	 25.75849	702.91998	 24.60	
  6.795	 41.617	 25.34931	 14.33358	  6.56061	 14.36865	  6.60685	  0.37500	 25.75374	702.96997	 24.60	
  6.792	 55.409	 25.34155	 13.20121	  7.49343	 15.35560	  5.77369	  0.35106	 25.75278	702.96997	 24.60	
  6.787	 69.246	 25.32168	 11.89787	  8.61110	 16.06627	  5.22320	  0.39493	 25.75202	702.95001	 24.70	
  6.800	 83.015	 25.31510	 10.61738	  9.87485	 16.42534	  4.90013	  0.27780	 25.77396	702.97998	 24.70	
  6.800	 96.985	 25.28735	  9.28330	 11.19828	 16.37081	  4.85173	  0.35930	 25.76562	702.94000	 24.70	
  6.787	110.754	 25.26719	  8.05484	 12.51716	 15.97493	  5.15872	  0.33614	 25.75336	703.03998	 24.70	
  6.792	124.591	 25.24824	  6.94881	 13.73096	 15.27624	  5.71010	  0.27729	 25.76420	703.06000	 24.70	
  6.795	138.383	 25.21372	  6.05802	 14.78592	 14.31733	  6.52418	  0.16782	 25.73995	703.04999	 24.70	
  6.808	152.311	 25.23164	  5.37332	 15.65792	 13.10681	  7.52682	  0.21547	 25.76003	703.10999	 24.80	
  6.796	166.229	 25.21974	  4.97151	 16.19201	 11.81987	  8.74989	  0.13735	 25.75977	703.15002	 24.80	
  8.491	168.704	 24.87908	  3.42851	 17.44139	 11.55359	  8.38784	 -0.12812	 25.76644	703.08002	 24.80	
  8.502	157.493	 24.87852	  3.73369	 16.98819	 12.86271	  7.12409	 -0.08633	 25.78186	703.09998	 24.80	
  8.494	146.194	 24.87944	  4.29525	 16.23721	 14.16849	  6.01446	 -0.06235	 25.76733	703.00000	 24.80	
  8.495	135.039	 24.90495	  5.04116	 15.30356	 15.31637	  5.09272	 -0.02727	 25.78252	702.96002	 24.80	
  8.487	123.723	 24.91319	  5.97062	 14.15005	 16.28214	  4.34793	 -0.04072	 25.77013	703.04999	 24.80	
  8.492	112.575	 24.94383	  7.03295	 12.93229	 17.02281	  3.75562	  0.07060	 25.78586	702.96997	 24.80	
  8.510	101.220	 24.95270	  8.28369	 11.56316	 17.49763	  3.38563	  0.12788	 25.77369	702.96997	 24.90	
  8.500	 90.000	 24.98863	  9.58291	 10.22926	 17.65886	  3.28891	  0.14266	 25.78564	702.94000	 24.90	
  8.510	 78.780	 25.00411	 10.91261	  8.89244	 17.58101	  3.48876	  0.04384	 25.78309	702.98999	 24.90	
  8.492	 67.425	 25.04182	 12.31790	  7.62049	 17.13016	  3.83267	  0.09981	 25.80087	702.97998	 24.90	
  8.487	 56.277	 25.05038	 13.63432	  6.53299	 16.34280	  4.37840	  0.11192	 25.76574	703.00000	 24.90	
  8.495	 44.961	 25.06315	 14.81547	  5.57407	 15.38568	  5.13567	  0.11391	 25.77165	702.90002	 24.90	
  8.494	 33.806	 25.09102	 15.80574	  4.84768	 14.25961	  6.07830	  0.15270	 25.79024	703.01001	 24.90	
  8.502	 22.507	 25.10604	 16.55574	  4.31402	 12.94059	  7.19324	  0.19108	 25.78390	702.90997	 24.90	
  8.491	 11.296	 25.10907	 17.02104	  4.01368	 11.61998	  8.42179	  0.17553	 25.76948	702.89001	 25.00	
  8.500	  0.000	 25.11701	 17.19323	  3.92297	 10.29503	  9.75646	  0.13281	 25.78951	702.92999	 25.00	
  8.491	-11.296	 25.12806	 17.04964	  4.07341	  8.96854	 11.20249	  0.09981	 25.78254	703.00000	 25.00	
  8.502	-22.507	 25.12238	 16.62925	  4.40133	  7.71350	 12.58143	  0.06108	 25.78302	703.03998	 25.00	
  8.494	-33.806	 25.13334	 15.91123	  4.95598	  6.60659	 13.82243	  0.00922	 25.79912	703.00000	 25.00	
  8.495	-44.961	 25.12064	 14.95193	  5.71316	  5.63671	 14.97119	 -0.03738	 25.79114	703.03998	 25.00	
  8.487	-56.277	 25.11547	 13.79027	  6.67757	  4.87324	 15.92370	 -0.07235	 25.78923	703.00000	 25.00	
  8.492	-67.425	 25.10512	 12.51242	  7.78415	  4.32308	 16.65176	 -0.10149	 25.79145	703.14001	 25.00	
  8.510	-78.780	 25.06822	 11.15346	  9.03118	  4.00861	 17.11329	 -0.11595	 25.78052	703.10999	 25.10	
  8.500	-90.000	 25.05810	  9.77868	 10.35367	  3.88884	 17.23403	 -0.15052	 25.78723	703.13000	 25.10	
  8.510	-101.220	 25.01298	  8.46656	 11.69191	  3.97549	 17.08161	 -0.16557	 25.77982	703.12000	 25.10	
  8.492	-112.575	 25.00167	  7.19230	 13.03891	  4.33388	 16.61899	 -0.17306	 25.78843	703.04999	 25.10	
  8.487	-123.723	 24.98928	  6.08347	 14.30227	  4.87402	 15.90414	 -0.17204	 25.79761	703.00000	 25.10	
  8.495	-135.039	 24.96335	  5.11063	 15.44293	  5.62783	 14.92690	 -0.16416	 25.79099	703.09998	 25.10	
  8.494	-146.194	 24.93477	  4.37641	 16.35036	  6.56217	 13.78071	 -0.15348	 25.78260	703.03003	 25.10	
  8.502	-157.493	 24.92447	  3.80537	 17.07263	  7.63980	 12.52851	 -0.13720	 25.79425	703.04999	 25.10	
  8.491	-168.704	 24.92690	  3.39573	 17.49508	  8.90236	 11.14742	 -0.14355	 25.79616	703.09003	 25.10	
  8.500	180.000	 24.91761	  3.26589	 17.63970	 10.24973	  9.72500	 -0.06639	 25.79503	703.12000	 25.20	
 10.200	180.000	 24.48447	  1.76576	 18.77477	  9.90252	  9.38291	 -0.38729	 25.79891	703.13000	 25.20	
 10.191	-170.497	 24.47445	  1.87400	 18.64614	  8.53894	 10.79030	 -0.37303	 25.78441	703.08002	 25.20	
 10.210	-161.034	 24.48365	  2.17725	 18.29680	  7.21169	 12.21597	 -0.37281	 25.79004	703.08002	 25.20	
 10.194	-151.526	 24.50603	  2.67937	 17.68050	  6.09539	 13.54418	 -0.37433	 25.78967	703.12000	 25.20	
 10.190	-142.105	 24.51505	  3.28083	 16.87261	  5.02044	 14.79413	 -0.39351	 25.79101	703.03003	 25.20	
 10.215	-132.646	 24.52887	  4.08643	 15.86547	  4.10346	 15.92460	 -0.39913	 25.79535	703.04999	 25.20	
 10.203	-123.092	 24.55094	  5.11494	 14.65842	  3.37088	 16.88078	 -0.39490	 25.79182	703.08002	 25.20	
 10.192	-113.678	 24.60178	  6.24383	 13.37016	  2.89056	 17.60858	 -0.40003	 25.80665	703.06000	 25.30	
 10.208	-104.249	 24.60409	  7.42120	 12.03166	  2.52406	 18.11192	 -0.40860	 25.78258	703.03998	 25.30	
 10.210	-94.801	 24.63319	  8.77823	 10.67507	  2.34732	 18.38351	 -0.40237	 25.78726	703.10999	 25.30	
 10.210	-85.199	 24.65837	 10.13028	  9.30390	  2.35761	 18.40777	 -0.38339	 25.79568	703.03998	 25.30	
 10.208	-75.751	 24.69256	 11.49874	  8.00686	  2.53947	 18.20548	 -0.36730	 25.79806	703.03003	 25.30	
 10.192	-66.322	 24.70657	 12.87730	  6.77724	  2.87788	 17.60739	 -0.35639	 25.78900	703.07001	 25.30	
 10.203	-56.908	 24.72774	 14.19913	  5.67840	  3.38775	 16.91538	 -0.34458	 25.79273	703.13000	 25.30	
 10.215	-47.354	 24.74092	 15.42256	  4.68697	  4.13045	 15.95873	 -0.31290	 25.79664	703.02002	 25.30	
 10.190	-37.895	 24.73638	 16.44984	  3.87682	  5.04571	 14.80517	 -0.26835	 25.79107	703.07001	 25.30	
 10.194	-28.474	 24.73791	 17.27810	  3.25041	  6.09146	 13.54769	 -0.20402	 25.78971	703.03003	 25.30	
 10.210	-18.966	 24.74154	 17.91289	  2.76431	  7.27093	 12.23545	 -0.16887	 25.79893	703.00000	 25.40	
 10.191	 -9.503	 24.74271	 18.26252	  2.50466	  8.56161	 10.79904	 -0.13459	 25.79676	703.01001	 25.40	
 10.200	  0.000	 24.74870	 18.37828	  2.39376	  9.92365	  9.38319	 -0.09200	 25.80147	702.96002	 25.40	
 10.191	  9.503	 24.75254	 18.24119	  2.47104	 11.27275	  8.06250	 -0.03700	 25.81452	702.94000	 25.40	
 10.210	 18.966	 24.73178	 17.84115	  2.70231	 12.63888	  6.82680	 -0.00103	 25.80265	702.96997	 25.40	
 10.194	 28.474	 24.72235	 17.19221	  3.13068	 13.99142	  5.66458	 -0.03320	 25.80840	702.84003	 25.40	
 10.190	 37.895	 24.69537	 16.30559	  3.74233	 15.20921	  4.62611	 -0.08657	 25.79035	702.92999	 25.40	
 10.215	 47.354	 24.66744	 15.23542	  4.48959	 16.36452	  3.65249	 -0.13636	 25.79702	703.02002	 25.40	
 10.203	 56.908	 24.63910	 13.97463	  5.43295	 17.33444	  2.91839	 -0.14153	 25.80318	703.01001	 25.40	
 10.192	 66.322	 24.61470	 12.62716	  6.56479	 18.04962	  2.37264	 -0.15065	 25.79389	703.03998	 25.50	
 10.208	 75.751	 24.60134	 11.24176	  7.78224	 18.58722	  2.02295	 -0.20492	 25.81490	702.96002	 25.50	
 10.210	 85.199	 24.56630	  9.84892	  9.09193	 18.81836	  1.77411	 -0.24104	 25.78896	702.92999	 25.50	
 10.210	 94.801	 24.53843	  8.48748	 10.48053	 18.77867	  1.73892	 -0.25003	 25.79316	702.97998	 25.50	
 10.208	104.249	 24.53674	  7.19865	 11.87558	 18.50619	  1.92156	 -0.23888	 25.80018	702.92999	 25.50	
 10.192	113.678	 24.51597	  5.98742	 13.22865	 17.98450	  2.27177	 -0.24810	 25.80914	702.96002	 25.50	
 10.203	123.092	 24.49094	  4.90726	 14.50092	 17.23515	  2.86903	 -0.29812	 25.79699	702.95001	 25.50	
 10.215	132.646	 24.47120	  3.92957	 15.72441	 16.25904	  3.61196	 -0.31240	 25.80493	702.88000	 25.50	
 10.190	142.105	 24.47281	  3.15046	 16.75802	 15.12076	  4.51358	 -0.31708	 25.81058	702.90002	 25.50	
 10.194	151.526	 24.45366	  2.54380	 17.58602	 13.88998	  5.52954	 -0.32957	 25.79746	703.01001	 25.50	
 10.210	161.034	 24.44707	  2.07385	 18.24178	 12.54194	  6.72435	 -0.35561	 25.78437	703.03998	 25.50	
 10.191	170.497	 24.46394	  1.85511	 18.60509	 11.22771	  8.00591	 -0.37131	 25.80164	702.96002	 25.60	
 11.899	171.783	 23.92007	  0.25311	 19.70461	 10.80442	  7.57502	 -0.60642	 25.79628	703.01001	 25.60	
 11.890	163.610	 23.92421	  0.47475	 19.35694	 12.13859	  6.25386	 -0.58322	 25.79564	703.03003	 25.60	
 11.889	155.445	 23.91860	  0.84653	 18.79720	 13.48113	  5.07235	 -0.56709	 25.80025	703.01001	 25.60	
 11.909	147.299	 23.91194	  1.34725	 18.06407	 14.77893	  3.98752	 -0.56903	 25.79933	702.90002	 25.60	
 11.902	139.148	 23.91013	  2.02058	 17.11355	 16.00506	  2.97849	 -0.57785	 25.78413	702.96997	 25.60	
 11.894	130.867	 23.92510	  2.84181	 15.99806	 17.14012	  2.07837	 -0.56347	 25.79153	702.89001	 25.60	
 11.897	122.732	 23.94346	  3.80670	 14.76884	 18.07208	  1.42849	 -0.53621	 25.78668	702.92999	 25.60	
 11.903	114.597	 23.96816	  4.88322	 13.47977	 18.81689	  0.91207	 -0.48772	 25.78646	702.95001	 25.60	
 11.893	106.346	 23.99999	  6.09922	 12.11872	 19.37300	  0.58589	 -0.48046	 25.79887	702.90997	 25.60	
 11.892	 98.155	 24.02670	  7.41161	 10.71283	 19.73742	  0.30425	 -0.49894	 25.80662	702.91998	 25.60	
 11.900	 90.000	 24.05369	  8.71396	  9.32157	 19.86517	  0.24009	 -0.50473	 25.80525	702.97998	 25.60	
 11.892	 81.845	 24.07417	 10.07053	  7.98460	 19.76218	  0.37003	 -0.48949	 25.80381	702.92999	 25.60	
 11.893	 73.654	 24.07659	 11.47301	  6.65633	 19.43918	  0.65352	 -0.45294	 25.78039	702.97998	 25.70	
 11.903	 65.403	 24.11649	 12.91386	  5.46901	 18.91190	  0.97768	 -0.40404	 25.79536	703.00000	 25.60	
 11.897	 57.268	 24.14201	 14.25771	  4.39190	 18.19475	  1.47937	 -0.40571	 25.81287	702.96002	 25.70	
 11.894	 49.133	 24.16087	 15.51991	  3.41595	 17.25745	  2.20529	 -0.39660	 25.80171	702.94000	 25.70	
 11.902	 40.852	 24.17846	 16.68213	  2.55329	 16.13817	  3.09639	 -0.36404	 25.80780	702.91998	 25.70	
 11.909	 32.701	 24.20737	 17.65399	  1.88848	 14.90608	  4.11190	 -0.28746	 25.80809	702.89001	 25.70	
 11.889	 24.555	 24.21208	 18.41232	  1.45152	 13.58334	  5.17283	 -0.24220	 25.78382	702.94000	 25.70	
 11.890	 16.390	 24.25320	 18.99441	  1.08137	 12.23967	  6.33929	 -0.24980	 25.81045	702.91998	 25.70	
 11.899	  8.217	 24.24910	 19.35177	  0.90068	 10.87724	  7.60798	 -0.29768	 25.80440	702.88000	 25.70	
 11.900	  0.000	 24.25848	 19.47620	  0.86620	  9.49115	  8.93208	 -0.34836	 25.81133	702.90997	 25.70	
 11.899	 -8.217	 24.27311	 19.38779	  0.96002	  8.10993	 10.36228	 -0.37582	 25.81051	702.95001	 25.70	
 11.890	-16.390	 24.25886	 19.04996	  1.20930	  6.78380	 11.80566	 -0.40487	 25.79798	702.87000	 25.70	
 11.889	-24.555	 24.26802	 18.52590	  1.58336	  5.59475	 13.14386	 -0.43168	 25.80116	702.98999	 25.70	
 11.909	-32.701	 24.25942	 17.80340	  2.09746	  4.47010	 14.47884	 -0.48893	 25.81263	702.96997	 25.70	
 11.902	-40.852	 24.24071	 16.87149	  2.80128	  3.47593	 15.70154	 -0.53951	 25.79628	702.96997	 25.70	
 11.894	-49.133	 24.24020	 15.74723	  3.66611	  2.64734	 16.81623	 -0.57459	 25.79253	702.85999	 25.80	
 11.897	-57.268	 24.25355	 14.51106	  4.65031	  1.97315	 17.77850	 -0.57640	 25.80702	702.94000	 25.80	
 11.903	-65.403	 24.22853	 13.18713	  5.72872	  1.44154	 18.53194	 -0.57506	 25.80398	702.90002	 25.80	
 11.893	-73.654	 24.20204	 11.78471	  6.92492	  1.06634	 19.07755	 -0.57079	 25.80827	702.83002	 25.80	
 11.892	-81.845	 24.17737	 10.37497	  8.21059	  0.81416	 19.45318	 -0.57620	 25.79391	702.96997	 25.80	
 11.900	-90.000	 24.17089	  9.01708	  9.56437	  0.68074	 19.52732	 -0.58258	 25.81083	702.94000	 25.80	
 11.892	-98.155	 24.13349	  7.67166	 10.94517	  0.78693	 19.39595	 -0.57393	 25.80422	703.01001	 25.80	
 11.893	-106.346	 24.10751	  6.35030	 12.27809	  1.03884	 19.07564	 -0.59062	 25.80586	702.84003	 25.80	
 11.903	-114.597	 24.05844	  5.10025	 13.65626	  1.40217	 18.49896	 -0.57691	 25.79298	702.89001	 25.80	
 11.897	-122.732	 24.04409	  4.03810	 14.96438	  1.93832	 17.74658	 -0.57732	 25.79725	703.03003	 25.80	
 11.894	-130.867	 24.03349	  3.07579	 16.19585	  2.61214	 16.83557	 -0.59263	 25.82030	702.96002	 25.80	
 11.902	-139.148	 23.98995	  2.21867	 17.28379	  3.42808	 15.70593	 -0.60461	 25.80443	702.90997	 25.80	
 11.909	-147.299	 23.98431	  1.54041	 18.19089	  4.42633	 14.46544	 -0.60004	 25.79822	702.92999	 25.80	
 11.889	-155.445	 23.97471	  0.90855	 18.90615	  5.55804	 13.18076	 -0.57787	 25.78782	702.96002	 25.80	
 11.890	-163.610	 23.96105	  0.55120	 19.41742	  6.77412	 11.80450	 -0.58376	 25.79267	702.96002	 25.80	
 11.899	-171.783	 23.94234	  0.28940	 19.74273	  8.09311	 10.32887	 -0.61875	 25.79034	702.90002	 25.80	
 11.900	180.000	 23.93850	  0.20671	 19.83417	  9.46425	  8.94258	 -0.62102	 25.79481	702.90002	 25.80	
 13.600	180.000	 23.31120	 -1.36872	 20.83266	  8.95108	  8.46189	 -0.81820	 25.80359	702.96002	 25.90	
 13.608	-172.853	 23.30773	 -1.31513	 20.76731	  7.58142	  9.83709	 -0.80428	 25.79585	702.96997	 25.90	
 13.611	-165.583	 23.30613	 -1.13312	 20.47626	  6.24096	 11.23902	 -0.76082	 25.79136	702.92999	 25.90	
 13.601	-158.353	 23.34197	 -0.77191	 20.02410	  5.08168	 12.67996	 -0.72518	 25.80051	702.97998	 25.90	
 13.609	-151.210	 23.34421	 -0.31680	 19.36120	  3.91776	 14.03139	 -0.72571	 25.79649	702.98999	 25.90	
 13.611	-143.999	 23.36666	  0.39843	 18.52810	  2.83788	 15.27570	 -0.72565	 25.79736	703.03003	 25.90	
 13.601	-136.825	 23.39412	  1.15387	 17.54755	  1.93035	 16.47738	 -0.70339	 25.79358	702.88000	 25.90	
 13.596	-129.640	 23.40877	  1.99485	 16.42170	  1.14352	 17.57318	 -0.68712	 25.79477	702.90997	 25.90	
 13.611	-122.431	 23.42987	  2.92725	 15.18678	  0.38891	 18.56282	 -0.65697	 25.80581	702.96002	 25.90	
 13.604	-115.211	 23.46366	  4.03711	 13.83922	 -0.20464	 19.34020	 -0.66100	 25.81433	702.87000	 25.90	
 13.595	-108.042	 23.47888	  5.22205	 12.47317	 -0.57724	 19.89707	 -0.66894	 25.79236	702.92999	 25.90	
 13.607	-100.793	 23.52197	  6.50926	 11.08357	 -0.82286	 20.32382	 -0.66200	 25.81029	702.92999	 25.90	
 13.601	-93.617	 23.53434	  7.87497	  9.73585	 -0.95006	 20.51660	 -0.67070	 25.79380	702.92999	 25.90	
 13.601	-86.383	 23.55288	  9.26796	  8.35907	 -0.92997	 20.52857	 -0.67705	 25.78859	702.96997	 25.90	
 13.607	-79.207	 23.59118	 10.60162	  7.02232	 -0.77339	 20.31915	 -0.68497	 25.79271	702.96002	 26.00	
 13.595	-71.958	 23.61486	 12.03555	  5.77508	 -0.48773	 19.92918	 -0.68498	 25.80070	702.91998	 25.90	
 13.604	-64.789	 23.62718	 13.41265	  4.60884	 -0.14609	 19.35619	 -0.70933	 25.80592	702.96997	 26.00	
 13.611	-57.569	 23.63406	 14.74949	  3.53267	  0.36077	 18.55918	 -0.72674	 25.78251	702.96002	 26.00	
 13.596	-50.360	 23.66008	 16.02232	  2.57138	  1.07188	 17.61979	 -0.75193	 25.79906	703.00000	 26.00	
 13.601	-43.175	 23.67030	 17.17052	  1.71656	  1.88576	 16.55589	 -0.73541	 25.81036	702.97998	 26.00	
 13.611	-36.001	 23.67295	 18.17632	  0.98373	  2.79451	 15.37855	 -0.70816	 25.80517	702.90997	 26.00	
 13.609	-28.790	 23.68288	 19.01229	  0.41379	  3.87653	 14.06966	 -0.66908	 25.81082	702.97998	 26.00	
 13.601	-21.647	 23.70089	 19.68189	 -0.02234	  5.02413	 12.71613	 -0.64971	 25.81810	702.97998	 26.00	
 13.611	-14.417	 23.68727	 20.16969	 -0.36515	  6.24508	 11.31150	 -0.63309	 25.81846	702.84998	 26.00	
 13.608	 -7.147	 23.68313	 20.45345	 -0.57964	  7.60340	  9.84807	 -0.62250	 25.81293	702.90997	 26.00	
 13.600	  0.000	 23.67817	 20.51312	 -0.65865	  8.98116	  8.44382	 -0.58139	 25.79785	703.02002	 26.00	
 13.608	  7.147	 23.66868	 20.41085	 -0.63035	 10.34198	  7.14107	 -0.53678	 25.79902	702.90002	 26.00	
 13.611	 14.417	 23.64405	 20.08767	 -0.50992	 11.73287	  5.81974	 -0.49438	 25.79330	702.88000	 26.00	
 13.601	 21.647	 23.62790	 19.55815	 -0.27603	 13.09523	  4.64138	 -0.47237	 25.79059	702.90002	 26.00	
 13.609	 28.790	 23.62903	 18.86343	  0.15688	 14.45670	  3.49551	 -0.48789	 25.80362	702.88000	 26.00	
 13.611	 36.001	 23.59888	 17.97890	  0.75383	 15.77024	  2.50180	 -0.56562	 25.80333	702.85999	 26.00	
 13.601	 43.175	 23.55961	 16.93898	  1.46068	 16.95610	  1.57677	 -0.63137	 25.79821	702.89001	 26.10	
 13.596	 50.360	 23.56627	 15.77761	  2.32894	 18.02019	  0.79251	 -0.66608	 25.80114	702.95001	 26.10	
 13.611	 57.569	 23.55382	 14.49850	  3.28554	 18.95187	  0.10575	 -0.67131	 25.81135	702.78998	 26.10	
 13.604	 64.789	 23.50677	 13.10230	  4.33840	 19.70300	 -0.42022	 -0.68953	 25.79139	702.83002	 26.10	
 13.595	 71.958	 23.47584	 11.69899	  5.49487	 20.27325	 -0.75465	 -0.71905	 25.79990	702.94000	 26.10	
 13.607	 79.207	 23.46381	 10.25786	  6.77369	 20.67216	 -1.04613	 -0.75749	 25.80768	702.90997	 26.10	
 13.601	 86.383	 23.44005	  8.88439	  8.10471	 20.85670	 -1.25435	 -0.77801	 25.80979	702.90997	 26.10	
 13.601	 93.617	 23.41384	  7.53303	  9.45465	 20.83841	 -1.28143	 -0.78539	 25.81527	702.87000	 26.10	
 13.607	100.793	 23.39263	  6.23583	 10.86795	 20.62579	 -1.16781	 -0.77492	 25.81139	702.84998	 26.10	
 13.595	108.042	 23.37300	  4.95579	 12.28155	 20.21319	 -0.84120	 -0.74129	 25.81196	702.91998	 26.10	
 13.604	115.211	 23.36559	  3.78762	 13.62861	 19.63925	 -0.44890	 -0.75099	 25.82313	703.00000	 26.10	
 13.611	122.431	 23.33080	  2.70068	 14.96985	 18.84272	  0.03408	 -0.78556	 25.80627	702.89001	 26.10	
 13.596	129.640	 23.29472	  1.74046	 16.21854	 17.95351	  0.66547	 -0.82546	 25.80116	702.94000	 26.10	
 13.601	136.825	 23.30050	  0.86859	 17.37522	 16.87734	  1.42199	 -0.84363	 25.81319	702.82001	 26.10	
 13.611	143.999	 23.28093	  0.13011	 18.38577	 15.66127	  2.33258	 -0.83289	 25.81048	702.95001	 26.10	
 13.609	151.210	 23.28580	 -0.45970	 19.24927	 14.35449	  3.39531	 -0.81937	 25.81335	702.90002	 26.10	
 13.601	158.353	 23.28275	 -0.89502	 19.91546	 13.02562	  4.52519	 -0.82181	 25.80948	702.98999	 26.10	
 13.611	165.583	 23.27643	 -1.19064	 20.42451	 11.76347	  5.74837	 -0.82055	 25.80576	702.89001	 26.10	
 13.608	172.853	 23.30581	 -1.33253	 20.74364	 10.41297	  7.10103	 -0.82600	 25.82479	702.91998	 26.10	
 15.298	173.587	 22.59242	 -2.91923	 21.64297	  9.83785	  6.55181	 -0.97107	 25.81012	702.97998	 26.10	
 15.291	167.167	 22.58167	 -2.74538	 21.36012	 11.17945	  5.24144	 -0.98512	 25.82141	702.84003	 26.10	
 15.307	160.676	 22.55727	 -2.48609	 20.90648	 12.46999	  4.00734	 -1.00790	 25.80395	702.92999	 26.10	
 15.300	154.261	 22.55373	 -2.14940	 20.29781	 13.77879	  2.81960	 -1.02221	 25.79604	702.90002	 26.10	
 15.288	147.854	 22.57426	 -1.64913	 19.53514	 15.11925	  1.80205	 -1.04788	 25.81078	702.98999	 26.10	
 15.293	141.428	 22.56399	 -1.01998	 18.57034	 16.40231	  0.79782	 -1.08407	 25.78933	702.96997	 26.20	
 15.299	134.985	 22.59445	 -0.24653	 17.51282	 17.58082	 -0.05172	 -1.08421	 25.80573	702.95001	 26.20	
 15.305	128.583	 22.60881	  0.61255	 16.34657	 18.64017	 -0.79189	 -1.06773	 25.82652	702.96997	 26.20	
 15.309	122.142	 22.60849	  1.60123	 15.05472	 19.58133	 -1.43002	 -1.03115	 25.81501	703.03003	 26.20	
 15.304	115.711	 22.63865	  2.66594	 13.68947	 20.36287	 -1.89479	 -1.00451	 25.81479	702.90997	 26.20	
 15.297	109.291	 22.66468	  3.79213	 12.31144	 20.95972	 -2.27631	 -1.00888	 25.82149	702.96997	 26.20	
 15.293	102.897	 22.70088	  5.01997	 10.97577	 21.39924	 -2.48525	 -1.02266	 25.81891	702.87000	 26.20	
 15.293	 96.458	 22.72708	  6.32587	  9.59220	 21.66948	 -2.61501	 -1.04678	 25.81101	702.95001	 26.20	
 15.300	 90.000	 22.72886	  7.64183	  8.17841	 21.77057	 -2.72061	 -1.05654	 25.80062	702.94000	 26.20	
 15.293	 83.542	 22.75277	  8.99915	  6.83236	 21.69028	 -2.62789	 -1.04969	 25.80378	702.96997	 26.20	
 15.293	 77.103	 22.77449	 10.40622	  5.54545	 21.45001	 -2.45119	 -1.01467	 25.80195	702.97998	 26.20	
 15.297	 70.709	 22.79916	 11.80880	  4.31921	 21.03558	 -2.17604	 -0.98739	 25.82042	702.92999	 26.20	
 15.304	 64.289	 22.82479	 13.22879	  3.20957	 20.43570	 -1.83542	 -0.95364	 25.81359	702.84998	 26.20	
 15.309	 57.858	 22.84895	 14.64633	  2.16095	 19.67636	 -1.30435	 -0.93672	 25.81886	702.92999	 26.20	
 15.305	 51.417	 22.87512	 15.94067	  1.19726	 18.74766	 -0.60424	 -0.92603	 25.80844	702.96997	 26.20	
 15.299	 45.015	 22.90073	 17.12864	  0.37851	 17.70904	  0.15273	 -0.90792	 25.81491	703.02002	 26.20	
 15.293	 38.572	 22.91758	 18.20090	 -0.36938	 16.54310	  0.97324	 -0.85440	 25.81140	702.97998	 26.20	
 15.288	 32.146	 22.93166	 19.15660	 -0.98196	 15.26521	  1.92362	 -0.75080	 25.80573	702.95001	 26.20	
 15.300	 25.739	 22.95955	 19.97112	 -1.45627	 13.90272	  2.96248	 -0.67468	 25.81038	703.00000	 26.20	
 15.307	 19.324	 22.96831	 20.60802	 -1.80440	 12.57194	  4.06827	 -0.66564	 25.80275	702.92999	 26.20	
 15.291	 12.833	 22.99559	 21.05776	 -1.96003	 11.18939	  5.29900	 -0.70880	 25.80231	702.88000	 26.20	
 15.298	  6.413	 22.99713	 21.34902	 -2.09086	  9.78326	  6.61218	 -0.75867	 25.79841	702.94000	 26.20	
 15.300	  0.000	 23.00950	 21.45595	 -2.13739	  8.41954	  7.90736	 -0.80523	 25.80585	702.97998	 26.20	
 15.298	 -6.413	 23.01443	 21.38324	 -2.06293	  7.05671	  9.32159	 -0.82880	 25.80410	703.00000	 26.20	
 15.291	-12.833	 23.01894	 21.13168	 -1.87769	  5.72561	 10.73267	 -0.83580	 25.81028	702.96997	 26.20	
 15.307	-19.324	 22.98730	 20.69981	 -1.64934	  4.42388	 12.14008	 -0.82073	 25.78657	703.10999	 26.30	
 15.300	-25.739	 23.00971	 20.11442	 -1.27967	  3.25483	 13.52161	 -0.82021	 25.80082	703.14001	 26.30	
 15.288	-32.146	 23.00538	 19.34302	 -0.78552	  2.13900	 14.87765	 -0.82470	 25.81649	703.02002	 26.30	
 15.293	-38.572	 23.00329	 18.43147	 -0.15853	  1.17400	 16.14656	 -0.82741	 25.79783	703.03003	 26.30	
 15.299	-45.015	 22.99016	 17.36519	  0.60239	  0.36065	 17.31303	 -0.84109	 25.80017	703.07001	 26.30	
 15.305	-51.417	 22.97569	 16.17870	  1.44547	 -0.36333	 18.41053	 -0.82024	 25.81273	703.01001	 26.30	
 15.309	-57.858	 22.95044	 14.89069	  2.40373	 -0.97273	 19.33284	 -0.80741	 25.80750	703.10999	 26.30	
 15.304	-64.289	 22.91995	 13.52143	  3.47155	 -1.43185	 20.08774	 -0.75260	 25.79576	703.03998	 26.30	
 15.297	-70.709	 22.91006	 12.13459	  4.61439	 -1.76860	 20.70454	 -0.73934	 25.79298	703.02002	 26.30	
 15.293	-77.103	 22.88598	 10.74000	  5.82680	 -2.00649	 21.10969	 -0.72854	 25.79309	703.00000	 26.30	
 15.293	-83.542	 22.87038	  9.41954	  7.13006	 -2.17352	 21.38095	 -0.68916	 25.79887	703.00000	 26.30	
 15.300	-90.000	 22.84886	  8.02201	  8.46199	 -2.21821	 21.46936	 -0.67857	 25.79757	703.01001	 26.30	
 15.293	-96.458	 22.83689	  6.64238	  9.82803	 -2.18608	 21.36968	 -0.68374	 25.79898	702.96997	 26.30	
 15.293	-102.897	 22.80718	  5.30968	 11.24025	 -2.00974	 21.10037	 -0.67923	 25.79457	702.94000	 26.30	
 15.297	-109.291	 22.77740	  4.08725	 12.61105	 -1.78684	 20.67747	 -0.65628	 25.78579	703.07001	 26.30	
 15.304	-115.711	 22.74799	  2.91584	 13.96945	 -1.48095	 20.05920	 -0.67834	 25.81254	703.02002	 26.30	
 15.309	-122.142	 22.71884	  1.83710	 15.33094	 -1.07103	 19.26313	 -0.67775	 25.80144	702.90997	 26.30	
 15.305	-128.583	 22.71436	  0.83502	 16.55495	 -0.46161	 18.29153	 -0.72476	 25.80323	702.94000	 26.30	
 15.299	-134.985	 22.70679	  0.01454	 17.71469	  0.28721	 17.20045	 -0.74905	 25.80583	702.89001	 26.40	
 15.293	-141.428	 22.67965	 -0.77625	 18.75707	  1.15882	 16.01341	 -0.77498	 25.81331	702.94000	 26.40	
 15.288	-147.854	 22.64597	 -1.46169	 19.65834	  2.18961	 14.74093	 -0.79913	 25.78989	702.83002	 26.40	
 15.300	-154.261	 22.62979	 -1.94704	 20.40611	  3.29517	 13.50268	 -0.81015	 25.79453	702.90997	 26.40	
 15.307	-160.676	 22.62273	 -2.35539	 21.00159	  4.46510	 12.08742	 -0.84362	 25.80410	702.96002	 26.40	
 15.291	-167.167	 22.62029	 -2.58992	 21.40611	  5.69333	 10.61553	 -0.88641	 25.80367	702.97998	 26.40	
 15.298	-173.587	 22.60848	 -2.83591	 21.65887	  7.03826	  9.28994	 -0.93253	 25.80512	702.97998	 26.40	
 15.300	180.000	 22.59850	 -2.95173	 21.73337	  8.38250	  7.91252	 -0.97057	 25.81264	702.95001	 26.40	
 17.000	180.000	 21.80695	 -4.32105	 22.55763	  7.78118	  7.28192	 -1.03429	 25.81211	702.90997	 26.40	
 16.990	-174.179	 21.81404	 -4.26462	 22.47801	  6.42068	  8.66788	 -0.99726	 25.80935	702.96997	 26.40	
 17.009	-168.383	 21.82078	 -4.03016	 22.24719	  5.08427	  9.97101	 -0.91185	 25.78966	702.92999	 26.40	
 17.000	-162.596	 21.84396	 -3.75113	 21.88290	  3.85995	 11.36777	 -0.83696	 25.80196	702.90002	 26.40	
 16.990	-156.759	 21.85197	 -3.38737	 21.34736	  2.63104	 12.78150	 -0.79168	 25.80534	702.90997	 26.40	
 16.995	-150.919	 21.86821	 -2.96640	 20.66403	  1.45090	 14.14670	 -0.77004	 25.79068	702.98999	 26.40	
 16.988	-145.161	 21.87867	 -2.46148	 19.84328	  0.49888	 15.42245	 -0.75589	 25.79167	702.90997	 26.40	
 17.014	-139.343	 21.88903	 -1.84195	 18.88331	 -0.39930	 16.69802	 -0.72684	 25.79700	703.02002	 26.40	
 17.007	-133.546	 21.90510	 -1.11655	 17.80065	 -1.14438	 17.87318	 -0.67764	 25.80869	702.95001	 26.40	
 17.001	-127.699	 21.89508	 -0.25097	 16.59615	 -1.80889	 18.94311	 -0.65178	 25.79343	703.03003	 26.40	
 17.006	-121.937	 21.92538	  0.66158	 15.35565	 -2.31988	 19.86252	 -0.61887	 25.79280	703.07001	 26.40	
 17.002	-116.134	 21.96474	  1.71925	 14.02919	 -2.69944	 20.67861	 -0.61583	 25.79789	703.03003	 26.40	
 17.001	-110.310	 21.99562	  2.85668	 12.66055	 -3.00917	 21.32866	 -0.60581	 25.79152	703.00000	 26.40	
 16.988	-104.517	 22.02565	  4.09311	 11.30796	 -3.28498	 21.81075	 -0.61396	 25.79928	702.97998	 26.40	
 17.008	-98.662	 22.02957	  5.37387	  9.88810	 -3.51722	 22.14490	 -0.63021	 25.79253	702.98999	 26.40	
 16.996	-92.909	 22.05719	  6.72226	  8.50383	 -3.59225	 22.31018	 -0.62655	 25.79829	702.98999	 26.40	
 16.996	-87.091	 22.07137	  8.10634	  7.16041	 -3.59443	 22.32255	 -0.65742	 25.79748	703.01001	 26.40	
 17.012	-81.253	 22.08726	  9.51424	  5.83221	 -3.50075	 22.15582	 -0.66899	 25.79467	703.03003	 26.50	
 16.988	-75.483	 22.13745	 10.84971	  4.60151	 -3.24830	 21.84839	 -0.69076	 25.80416	703.04999	 26.50	
 17.001	-69.690	 22.14166	 12.23423	  3.43038	 -2.99444	 21.36359	 -0.71360	 25.79404	702.98999	 26.50	
 17.002	-63.866	 22.17364	 13.62620	  2.32976	 -2.66034	 20.76715	 -0.73668	 25.80220	703.10999	 26.50	
 17.006	-58.063	 22.16307	 14.96823	  1.29458	 -2.25725	 19.98742	 -0.76403	 25.78520	702.97998	 26.50	
 17.001	-52.301	 22.18552	 16.24481	  0.29101	 -1.72651	 19.10068	 -0.79709	 25.79968	702.98999	 26.50	
 17.007	-46.454	 22.19366	 17.46420	 -0.59229	 -1.04991	 18.03951	 -0.82560	 25.80177	703.02002	 26.50	
 17.014	-40.657	 22.20325	 18.56992	 -1.37597	 -0.27517	 16.86460	 -0.85023	 25.80325	703.01001	 26.50	
 16.988	-34.839	 22.22491	 19.55840	 -1.97171	  0.59874	 15.59187	 -0.87232	 25.79156	702.87000	 26.50	
 16.995	-29.081	 22.24215	 20.42101	 -2.43071	  1.48354	 14.30494	 -0.89453	 25.80301	702.97998	 26.50	
 16.990	-23.241	 22.25728	 21.10216	 -2.81211	  2.58050	 12.91453	 -0.91760	 25.80413	702.96002	 26.50	
 17.000	-17.404	 22.25364	 21.64629	 -3.14681	  3.79793	 11.52039	 -0.95266	 25.81164	703.03998	 26.50	
 17.009	-11.617	 22.23799	 22.01336	 -3.39286	  5.06077	 10.12599	 -0.97962	 25.79010	702.96997	 26.50	
 16.990	 -5.821	 22.25898	 22.25127	 -3.55170	  6.40173	  8.72839	 -0.99793	 25.81605	703.03998	 26.50	
 17.000	  0.000	 22.24541	 22.32168	 -3.64523	  7.77884	  7.32476	 -0.99717	 25.81294	702.96002	 26.50	
 16.990	  5.821	 22.23667	 22.21654	 -3.61464	  9.14596	  6.00837	 -0.97062	 25.80210	702.90002	 26.50	
 17.009	 11.617	 22.21983	 21.95185	 -3.54600	 10.56413	  4.71715	 -0.92569	 25.80037	702.91998	 26.50	
 17.000	 17.404	 22.22586	 21.54148	 -3.33468	 11.95470	  3.47763	 -0.90897	 25.81358	702.94000	 26.50	
 16.990	 23.241	 22.20569	 20.95590	 -3.03775	 13.28485	  2.40564	 -0.90037	 25.80403	703.00000	 26.50	
 16.995	 29.081	 22.17957	 20.22092	 -2.65386	 14.64425	  1.27614	 -0.94315	 25.80758	702.98999	 26.50	
 16.988	 34.839	 22.15788	 19.35492	 -2.15040	 15.96591	  0.33375	 -1.01998	 25.81388	703.02002	 26.50	
 17.014	 40.657	 22.13667	 18.36811	 -1.51820	 17.19876	 -0.58088	 -1.10663	 25.81453	702.87000	 26.50	
 17.007	 46.454	 22.11113	 17.23930	 -0.76987	 18.34557	 -1.31503	 -1.16878	 25.80697	702.98999	 26.50	
 17.001	 52.301	 22.08075	 15.99308	  0.05203	 19.39442	 -2.05158	 -1.19665	 25.80679	702.97998	 26.50	
 17.006	 58.063	 22.05115	 14.69535	  0.99469	 20.29647	 -2.68170	 -1.22077	 25.79815	702.98999	 26.50	
 17.002	 63.866	 22.03412	 13.30823	  2.05475	 21.05368	 -3.21200	 -1.25515	 25.79711	702.90002	 26.50	
 17.001	 69.690	 22.00646	 11.89175	  3.17526	 21.65800	 -3.57316	 -1.30060	 25.79500	702.90002	 26.50	
 16.988	 75.483	 22.03094	 10.56434	  4.33519	 22.09629	 -3.62301	 -1.35398	 25.80204	702.96997	 26.60	
 17.012	 81.253	 21.99233	  9.15186	  5.54463	 22.40761	 -3.81750	 -1.40758	 25.79237	702.88000	 26.50	
 16.996	 87.091	 21.97076	  7.69989	  6.88718	 22.54533	 -3.95486	 -1.43841	 25.79552	702.85999	 26.50	
 16.996	 92.909	 21.95330	  6.37866	  8.26033	 22.54358	 -3.96688	 -1.45872	 25.81143	702.83002	 26.50	
 17.008	 98.662	 21.93112	  5.06506	  9.65205	 22.37661	 -3.86422	 -1.43551	 25.80311	702.77002	 26.60	
 16.988	104.517	 21.91705	  3.82766	 11.00289	 22.03845	 -3.65742	 -1.40081	 25.79373	702.79999	 26.50	
 17.001	110.310	 21.89155	  2.62628	 12.38697	 21.57640	 -3.34517	 -1.39786	 25.80867	702.89001	 26.60	
 17.002	116.134	 21.85159	  1.48619	 13.74833	 20.94822	 -3.03070	 -1.38296	 25.80566	702.84003	 26.60	
 17.006	121.937	 21.83463	  0.43422	 15.10871	 20.15771	 -2.51199	 -1.40626	 25.80428	702.84998	 26.60	
 17.001	127.699	 21.80989	 -0.47319	 16.36032	 19.23818	 -1.95695	 -1.42191	 25.79025	702.84998	 26.60	
 17.007	133.546	 21.80605	 -1.30469	 17.58112	 18.19069	 -1.29565	 -1.41341	 25.81105	702.85999	 26.60	
 17.014	139.343	 21.78895	 -2.01970	 18.67859	 17.05622	 -0.55895	 -1.34578	 25.80978	702.72998	 26.60	
 16.988	145.161	 21.78156	 -2.61471	 19.65835	 15.83751	  0.27508	 -1.22268	 25.80562	702.90002	 26.60	
 16.995	150.919	 21.76425	 -3.11894	 20.50253	 14.54146	  1.18172	 -1.17346	 25.78887	702.77002	 26.60	
 16.990	156.759	 21.76618	 -3.54554	 21.22478	 13.18061	  2.23363	 -1.12560	 25.79214	702.82001	 26.60	
 17.000	162.596	 21.77128	 -3.88852	 21.79355	 11.90273	  3.38578	 -1.10510	 25.80310	702.87000	 26.60	
 17.009	168.383	 21.77698	 -4.10062	 22.19741	 10.53525	  4.64719	 -1.08087	 25.80140	702.84003	 26.60	
 16.990	174.179	 21.78502	 -4.24740	 22.43981	  9.18769	  5.95318	 -1.05511	 25.78941	702.84998	 26.60	
 18.709	174.675	 20.89390	 -5.57389	 23.18181	  8.48218	  5.23969	 -1.09821	 25.78639	702.85999	 26.60	
 18.703	169.441	 20.87970	 -5.48087	 22.96068	  9.86992	  3.96216	 -1.14991	 25.79065	702.79999	 26.60	
 18.691	164.085	 20.86491	 -5.29569	 22.57323	 11.20189	  2.77932	 -1.19659	 25.77424	702.81000	 26.60	
 18.706	158.818	 20.87813	 -4.98756	 22.07594	 12.51757	  1.69318	 -1.24003	 25.79266	702.73999	 26.60	
 18.695	153.537	 20.88298	 -4.56365	 21.40591	 13.89234	  0.75239	 -1.28826	 25.77864	702.81000	 26.60	
 18.704	148.255	 20.88129	 -4.11635	 20.62271	 15.20820	 -0.21900	 -1.34823	 25.78720	702.84998	 26.60	
 18.698	142.952	 20.90773	 -3.59726	 19.72526	 16.46667	 -1.07131	 -1.40462	 25.78982	702.88000	 26.60	
 18.699	137.625	 20.91861	 -2.98558	 18.70195	 17.66526	 -1.83986	 -1.42643	 25.77541	702.78998	 26.60	
 18.705	132.343	 20.90437	 -2.30836	 17.56722	 18.78718	 -2.58372	 -1.47118	 25.77396	702.89001	 26.60	
 18.713	127.067	 20.93593	 -1.50251	 16.35111	 19.82312	 -3.23096	 -1.49121	 25.78037	702.78998	 26.60	
 18.700	121.794	 20.95602	 -0.61824	 15.13552	 20.63745	 -3.68705	 -1.48812	 25.75953	702.81000	 26.60	
 18.698	116.504	 20.99059	  0.34208	 13.77880	 21.42385	 -4.08134	 -1.52089	 25.75556	702.84998	 26.60	
 18.707	111.165	 21.01070	  1.41344	 12.39730	 22.10235	 -4.50233	 -1.53398	 25.76605	702.83002	 26.60	
 18.690	105.863	 21.04755	  2.56318	 11.04390	 22.63132	 -4.82495	 -1.54557	 25.78429	702.79999	 26.60	
 18.696	100.583	 21.05214	  3.76528	  9.67297	 22.97867	 -5.04590	 -1.52912	 25.76977	702.75000	 26.60	
 18.700	 95.309	 21.06935	  5.05373	  8.29634	 23.20089	 -5.12923	 -1.51919	 25.76239	702.75000	 26.60	
 18.700	 90.000	 21.10577	  6.38604	  6.93648	 23.28571	 -5.13438	 -1.55026	 25.76357	702.77002	 26.70	
 18.700	 84.691	 21.12758	  7.76609	  5.60941	 23.22631	 -5.05219	 -1.56592	 25.77152	702.64001	 26.70	
 18.696	 79.417	 21.14976	  9.21369	  4.32005	 23.03176	 -4.95172	 -1.55927	 25.77478	702.78998	 26.60	
 18.690	 74.137	 21.17282	 10.60951	  3.13586	 22.67736	 -4.78938	 -1.53114	 25.77755	702.63000	 26.70	
 18.707	 68.835	 21.17878	 11.98119	  2.02973	 22.19298	 -4.58286	 -1.49910	 25.76652	702.75000	 26.60	
 18.698	 63.496	 21.19477	 13.36482	  0.95545	 21.54818	 -4.30834	 -1.45862	 25.75842	702.71002	 26.60	
 18.700	 58.206	 21.21368	 14.70959	 -0.04746	 20.81409	 -4.03808	 -1.42076	 25.77215	702.69000	 26.60	
 18.713	 52.933	 21.25719	 16.05899	 -0.96997	 19.91599	 -3.19262	 -1.45275	 25.77466	702.54999	 26.70	
 18.705	 47.657	 21.26656	 17.28794	 -1.75853	 18.89500	 -2.61927	 -1.41823	 25.77226	702.54999	 26.70	
 18.699	 42.375	 21.28287	 18.42956	 -2.51849	 17.77784	 -1.99430	 -1.38512	 25.76741	702.56000	 26.70	
 18.698	 37.048	 21.32263	 19.47491	 -3.15496	 16.59401	 -1.25254	 -1.35240	 25.78174	702.53003	 26.70	
 18.704	 31.745	 21.31094	 20.36436	 -3.74626	 15.32908	 -0.53821	 -1.25018	 25.77820	702.59003	 26.70	
 18.695	 26.463	 21.33323	 21.15323	 -4.18975	 13.98555	  0.49319	 -1.20153	 25.77441	702.66998	 26.70	
 18.706	 21.182	 21.34767	 21.83936	 -4.56903	 12.64504	  1.60155	 -1.18548	 25.77630	702.67999	 26.70	
 18.691	 15.915	 21.35949	 22.36582	 -4.80984	 11.28354	  2.76549	 -1.16999	 25.77651	702.71002	 26.70	
 18.703	 10.559	 21.36019	 22.76728	 -5.01594	  9.87074	  4.01420	 -1.16836	 25.77542	702.58002	 26.70	
 18.709	  5.325	 21.35975	 22.99826	 -5.09647	  8.46874	  5.29377	 -1.15160	 25.77004	702.69000	 26.70	
 18.700	  0.000	 21.37015	 23.08198	 -5.09232	  7.09233	  6.67200	 -1.11858	 25.76260	702.69000	 26.70	
 18.709	 -5.325	 21.36456	 23.02715	 -5.00993	  5.70689	  8.01018	 -1.09062	 25.76411	702.59998	 26.70	
 18.703	-10.559	 21.37327	 22.81240	 -4.84814	  4.35621	  9.40125	 -1.04628	 25.76652	702.63000	 26.70	
 18.691	-15.915	 21.39366	 22.45145	 -4.63050	  3.11498	 10.78764	 -1.01446	 25.76197	702.69000	 26.70	
 18.706	-21.182	 21.39764	 21.98717	 -4.34661	  1.95613	 12.23140	 -0.96762	 25.78170	702.64001	 26.70	
 18.695	-26.463	 21.37540	 21.34743	 -4.00108	  0.96400	 13.62759	 -0.91712	 25.76248	702.63000	 26.70	
 18.704	-31.745	 21.36444	 20.57461	 -3.57427	  0.02489	 14.96321	 -0.88124	 25.77331	702.60999	 26.70	
 18.698	-37.048	 21.35665	 19.66272	 -3.03221	 -0.89251	 16.24850	 -0.83527	 25.76754	702.78998	 26.70	
 18.699	-42.375	 21.34391	 18.62357	 -2.39136	 -1.74213	 17.49343	 -0.79340	 25.76956	702.64001	 26.70	
 18.705	-47.657	 21.32981	 17.46602	 -1.63888	 -2.45529	 18.64566	 -0.77241	 25.76457	702.62000	 26.70	
 18.713	-52.933	 21.33970	 16.27045	 -0.81708	 -3.04491	 19.65238	 -0.73219	 25.77879	702.66998	 26.70	
 18.700	-58.206	 21.32217	 14.99585	  0.09440	 -3.52696	 20.52157	 -0.71555	 25.77036	702.66998	 26.70	
 18.698	-63.496	 21.29957	 13.70689	  1.15776	 -3.93578	 21.30221	 -0.67435	 25.76134	702.58002	 26.70	
 18.707	-68.835	 21.26876	 12.30502	  2.23085	 -4.28566	 21.95134	 -0.62240	 25.75970	702.65002	 26.70	
 18.690	-74.137	 21.25327	 10.88726	  3.36147	 -4.53963	 22.43304	 -0.59593	 25.75450	702.66998	 26.70	
 18.696	-79.417	 21.23007	  9.47210	  4.58202	 -4.79549	 22.79540	 -0.57380	 25.77436	702.75000	 26.70	
 18.700	-84.691	 21.18415	  8.12240	  5.83767	 -4.92770	 22.97895	 -0.56263	 25.74595	702.77002	 26.70	
 18.700	-90.000	 21.17965	  6.75004	  7.14700	 -4.96462	 23.06413	 -0.55162	 25.76391	702.71997	 26.70	
 18.700	-95.309	 21.15145	  5.39711	  8.50748	 -4.92908	 22.97112	 -0.53432	 25.75124	702.72998	 26.70	
 18.696	-100.583	 21.14960	  4.10374	  9.93800	 -4.79180	 22.75748	 -0.53722	 25.76327	702.71997	 26.70	
 18.690	-105.863	 21.12465	  2.90730	 11.31180	 -4.52863	 22.38444	 -0.53736	 25.76144	702.67999	 26.70	
 18.707	-111.165	 21.11545	  1.71246	 12.68479	 -4.23214	 21.86520	 -0.52290	 25.76998	702.71002	 26.70	
 18.698	-116.504	 21.06918	  0.56739	 14.03559	 -3.91388	 21.17547	 -0.54054	 25.76809	702.71002	 26.70	
 18.700	-121.794	 21.04235	 -0.38013	 15.32827	 -3.56538	 20.37045	 -0.54780	 25.75808	702.78998	 26.70	
 18.713	-127.067	 21.02033	 -1.25799	 16.59281	 -3.12024	 19.46628	 -0.56897	 25.76328	702.72998	 26.70	
 18.705	-132.343	 20.99814	 -2.06589	 17.78756	 -2.51703	 18.43596	 -0.59786	 25.76236	702.65997	 26.80	
 18.699	-137.625	 20.97845	 -2.80290	 18.88680	 -1.81641	 17.30856	 -0.64175	 25.76042	702.75000	 26.70	
 18.698	-142.952	 20.97676	 -3.44704	 19.88471	 -0.99401	 16.06777	 -0.67558	 25.75902	702.60999	 26.80	
 18.704	-148.255	 20.96589	 -3.94419	 20.76739	 -0.11230	 14.76845	 -0.70950	 25.74791	702.73999	 26.70	
 18.695	-153.537	 20.97411	 -4.39463	 21.52783	  0.85453	 13.44808	 -0.76208	 25.75999	702.65997	 26.70	
 18.706	-158.818	 20.94151	 -4.80226	 22.14576	  1.93561	 12.03709	 -0.81585	 25.74639	702.64001	 26.70	
 18.691	-164.085	 20.93219	 -5.12116	 22.63549	  3.21730	 10.64066	 -0.88097	 25.75208	702.71002	 26.70	
 18.703	-169.441	 20.91258	 -5.36420	 22.98792	  4.45806	  9.23430	 -0.91678	 25.75641	702.66998	 26.80	
 18.709	-174.675	 20.88520	 -5.57957	 23.18245	  5.76052	  7.93892	 -0.96192	 25.75463	702.59998	 26.80	
 18.700	180.000	 20.88465	 -5.62084	 23.24605	  7.12077	  6.57954	 -1.01098	 25.75852	702.69000	 26.80	
 20.400	180.000	 19.93620	 -6.79018	 23.86706	  6.42403	  5.81426	 -1.00314	 25.74208	702.67999	 26.80	
 20.401	-175.153	 19.95438	 -6.73856	 23.82402	  5.13703	  7.13322	 -0.94464	 25.74632	702.58002	 26.80	
 20.407	-170.264	 19.96584	 -6.61125	 23.63775	  3.71663	  8.47382	 -0.90313	 25.74777	702.64001	 26.80	
 20.410	-165.423	 19.98578	 -6.43270	 23.33723	  2.51841	  9.84198	 -0.85349	 25.75029	702.66998	 26.80	
 20.392	-160.496	 20.01127	 -6.16857	 22.89671	  1.34421	 11.28135	 -0.79691	 25.76084	702.72998	 26.80	
 20.401	-155.705	 19.99767	 -5.83114	 22.31803	  0.28488	 12.65139	 -0.74970	 25.74797	702.63000	 26.80	
 20.405	-150.835	 20.00796	 -5.42476	 21.61930	 -0.65892	 14.00176	 -0.70363	 25.76003	702.69000	 26.80	
 20.397	-145.903	 20.03515	 -4.95838	 20.80111	 -1.58619	 15.37478	 -0.65361	 25.76350	702.65997	 26.80	
 20.392	-141.062	 20.03930	 -4.40456	 19.85953	 -2.41980	 16.63336	 -0.60670	 25.76083	702.66998	 26.80	
 20.396	-136.227	 20.06616	 -3.76958	 18.84729	 -3.14001	 17.82134	 -0.59863	 25.76119	702.59003	 26.80	
 20.408	-131.372	 20.06650	 -3.04884	 17.72578	 -3.76464	 18.90244	 -0.56408	 25.73633	702.71002	 26.80	
 20.410	-126.511	 20.08656	 -2.25627	 16.53050	 -4.24920	 19.92693	 -0.54682	 25.74303	702.67999	 26.80	
 20.400	-121.604	 20.10823	 -1.44933	 15.26499	 -4.68658	 20.83252	 -0.52288	 25.73835	702.65002	 26.80	
 20.403	-116.741	 20.12139	 -0.53995	 13.96573	 -5.11008	 21.63994	 -0.52604	 25.75747	702.62000	 26.80	
 20.413	-111.900	 20.14533	  0.47430	 12.63081	 -5.46446	 22.32395	 -0.52135	 25.75037	702.57001	 26.80	
 20.398	-107.004	 20.17802	  1.59378	 11.24047	 -5.74000	 22.85516	 -0.52223	 25.74284	702.52002	 26.80	
 20.394	-102.132	 20.21074	  2.86084	  9.88232	 -5.99027	 23.27714	 -0.51749	 25.75528	702.58002	 26.80	
 20.403	-97.332	 20.21765	  4.06368	  8.50144	 -6.21515	 23.55759	 -0.52955	 25.74753	702.62000	 26.80	
 20.392	-92.440	 20.23638	  5.34328	  7.14615	 -6.33585	 23.68332	 -0.53365	 25.75676	702.62000	 26.80	
 20.392	-87.560	 20.25483	  6.66274	  5.86960	 -6.30923	 23.69811	 -0.52470	 25.75706	702.56000	 26.80	
 20.403	-82.668	 20.24962	  8.02968	  4.55854	 -6.24670	 23.56400	 -0.51979	 25.73952	702.58002	 26.80	
 20.394	-77.868	 20.30165	  9.47179	  3.31453	 -6.04247	 23.34233	 -0.56479	 25.75418	702.65002	 26.80	
 20.398	-72.996	 20.30615	 10.84870	  2.08113	 -5.84195	 22.96012	 -0.57721	 25.73011	702.56000	 26.80	
 20.413	-68.100	 20.31015	 12.24049	  0.95602	 -5.61599	 22.46199	 -0.61264	 25.74610	702.52002	 26.80	
 20.403	-63.259	 20.32559	 13.60535	 -0.06395	 -5.28885	 21.81044	 -0.63696	 25.73781	702.57001	 26.80	
 20.400	-58.396	 20.35219	 14.94577	 -0.99548	 -4.86804	 21.05939	 -0.64376	 25.73642	702.52002	 26.80	
 20.410	-53.489	 20.37003	 16.23936	 -1.87673	 -4.39177	 20.16180	 -0.69218	 25.73382	702.59003	 26.80	
 20.408	-48.628	 20.37464	 17.47239	 -2.69807	 -3.86540	 19.14268	 -0.72391	 25.74420	702.70001	 26.80	
 20.396	-43.773	 20.38362	 18.60921	 -3.40515	 -3.20874	 18.03161	 -0.75617	 25.73252	702.58002	 26.80	
 20.392	-38.938	 20.40051	 19.61245	 -4.01490	 -2.43351	 16.86635	 -0.78382	 25.74277	702.53003	 26.80	
 20.397	-34.097	 20.41507	 20.56215	 -4.55995	 -1.56303	 15.60036	 -0.83206	 25.74006	702.54999	 26.80	
 20.405	-29.165	 20.42326	 21.42792	 -5.05155	 -0.59813	 14.25941	 -0.91482	 25.73966	702.59998	 26.80	
 20.401	-24.295	 20.42082	 22.15008	 -5.47322	  0.37106	 12.90272	 -0.94988	 25.74143	702.63000	 26.80	
 20.392	-19.504	 20.44876	 22.73126	 -5.76925	  1.40085	 11.52235	 -0.98455	 25.74030	702.53003	 26.80	
 20.410	-14.577	 20.45901	 23.18593	 -5.97202	  2.47786	 10.08451	 -1.04416	 25.74201	702.48999	 26.80	
 20.407	 -9.736	 20.46599	 23.50064	 -6.13340	  3.65072	  8.72259	 -1.09841	 25.74430	702.46997	 26.80	
 20.401	 -4.847	 20.45617	 23.68103	 -6.28343	  4.99416	  7.34588	 -1.15134	 25.74259	702.54999	 26.80	
 20.400	  0.000	 20.43667	 23.73209	 -6.39285	  6.36313	  6.02120	 -1.18384	 25.73942	702.50000	 26.80	
 20.401	  4.847	 20.43735	 23.65239	 -6.38301	  7.73534	  4.66043	 -1.23244	 25.73303	702.40002	 26.90	
 20.407	  9.736	 20.43057	 23.43913	 -6.28338	  9.13908	  3.37838	 -1.29273	 25.74560	702.56000	 26.80	
 20.410	 14.577	 20.42474	 23.09019	 -6.11818	 10.53028	  2.20180	 -1.32775	 25.74762	702.56000	 26.90	
 20.392	 19.504	 20.41604	 22.58116	 -5.87665	 11.89680	  1.04794	 -1.38106	 25.72054	702.51001	 26.80	
 20.401	 24.295	 20.40243	 21.99098	 -5.58117	 13.22634	 -0.06760	 -1.42307	 25.74189	702.56000	 26.90	
 20.405	 29.165	 20.38458	 21.27591	 -5.17450	 14.56765	 -0.99815	 -1.47695	 25.74366	702.56000	 26.90	
 20.397	 34.097	 20.37750	 20.41340	 -4.70013	 15.85639	 -1.76157	 -1.52390	 25.72085	702.59998	 26.90	
 20.392	 38.938	 20.35131	 19.43814	 -4.15965	 17.09834	 -2.54089	 -1.58560	 25.72203	702.57001	 26.90	
 20.396	 43.773	 20.34035	 18.37935	 -3.54994	 18.29460	 -3.25075	 -1.62128	 25.73797	702.70001	 26.90	
 20.408	 48.628	 20.31649	 17.23913	 -2.85746	 19.35244	 -3.78663	 -1.66484	 25.73364	702.63000	 26.90	
 20.410	 53.489	 20.31778	 16.02731	 -2.06626	 20.31067	 -4.22738	 -1.70588	 25.72408	702.65997	 26.90	
 20.400	 58.396	 20.29949	 14.71668	 -1.17080	 21.21709	 -4.78370	 -1.72742	 25.73572	702.63000	 26.90	
 20.403	 63.259	 20.24530	 13.32037	 -0.21485	 21.99118	 -5.38253	 -1.73535	 25.72269	702.54999	 26.90	
 20.413	 68.100	 20.23792	 11.97837	  0.80235	 22.63748	 -5.59627	 -1.77031	 25.73366	702.53003	 26.90	
 20.398	 72.996	 20.23118	 10.60287	  1.92596	 23.13432	 -5.78341	 -1.78985	 25.72837	702.52002	 26.90	
 20.394	 77.868	 20.20717	  9.21368	  3.09430	 23.51128	 -5.98738	 -1.80035	 25.73641	702.53003	 26.90	
 20.403	 82.668	 20.17796	  7.83258	  4.29747	 23.76337	 -6.17442	 -1.81575	 25.73650	702.50000	 26.90	
 20.392	 87.560	 20.14528	  6.44058	  5.58251	 23.86604	 -6.28800	 -1.81581	 25.72272	702.56000	 26.90	
 20.392	 92.440	 20.13105	  5.12025	  6.88712	 23.86284	 -6.33459	 -1.80898	 25.73308	702.47998	 26.90	
 20.403	 97.332	 20.09526	  3.76277	  8.24252	 23.73149	 -6.30028	 -1.80482	 25.73565	702.56000	 26.90	
 20.394	102.132	 20.08430	  2.54192	  9.58960	 23.46485	 -6.10778	 -1.81389	 25.74127	702.65002	 26.90	
 20.398	107.004	 20.05830	  1.37191	 10.96382	 23.06770	 -5.95537	 -1.79191	 25.73966	702.59003	 26.90	
 20.413	111.900	 20.02651	  0.24868	 12.35200	 22.53012	 -5.70182	 -1.77160	 25.73190	702.62000	 26.90	
 20.403	116.741	 20.00463	 -0.76012	 13.70395	 21.85740	 -5.28784	 -1.73527	 25.72551	702.59003	 26.90	
 20.400	121.604	 19.98775	 -1.67102	 15.01822	 21.08067	 -4.88049	 -1.70241	 25.73072	702.63000	 26.90	
 20.410	126.511	 19.97691	 -2.54369	 16.30491	 20.17628	 -4.38760	 -1.67183	 25.72693	702.59998	 26.90	
 20.408	131.372	 19.94405	 -3.31871	 17.51975	 19.19072	 -3.81484	 -1.62311	 25.72072	702.59003	 26.90	
 20.396	136.227	 19.96190	 -3.97325	 18.65815	 18.12288	 -3.10870	 -1.59285	 25.73788	702.62000	 26.90	
 20.392	141.062	 19.94278	 -4.55418	 19.67691	 16.94506	 -2.39556	 -1.54317	 25.71781	702.60999	 26.90	
 20.397	145.903	 19.94568	 -5.07518	 20.61943	 15.72959	 -1.65665	 -1.48459	 25.74029	702.66998	 26.90	
 20.405	150.835	 19.89730	 -5.57058	 21.43546	 14.40723	 -0.76818	 -1.42644	 25.72359	702.51001	 26.90	
 20.401	155.705	 19.89843	 -5.93118	 22.16531	 13.07861	  0.20845	 -1.35912	 25.72677	702.67999	 26.90	
 20.392	160.496	 19.91147	 -6.26936	 22.76731	 11.74197	  1.22218	 -1.29527	 25.73089	702.64001	 27.00	
 20.410	165.423	 19.87821	 -6.57830	 23.24217	 10.39160	  2.05281	 -1.20417	 25.72560	702.59998	 27.00	
 20.407	170.264	 19.90262	 -6.74569	 23.58090	  9.08709	  3.24300	 -1.14365	 25.73939	702.54999	 27.00	
 20.401	175.153	 19.91835	 -6.79943	 23.77236	  7.72550	  4.54526	 -1.05454	 25.71963	702.65002	 27.00	
  0.141	 45.000	 25.68522	 10.63071	 11.07157	 11.21393	 10.52999	  0.65412	 25.73441	702.53003	 27.00	
  4.001	128.691	 25.56737	  8.38849	 12.97488	 13.45953	  7.89840	  0.51745	 25.73918	702.65002	 27.00	
  4.002	 76.995	 25.60635	 11.03320	 10.22902	 14.18486	  7.28453	  0.61130	 25.73114	702.63000	 27.00	
  4.002	 25.892	 25.64035	 13.38817	  8.14321	 12.34438	  9.01867	  0.62729	 25.72677	702.60999	 27.00	
  4.002	-25.892	 25.64468	 13.43153	  8.19208	  9.56159	 11.94099	  0.58015	 25.72728	702.59998	 27.00	
  4.002	-76.995	 25.60534	 11.12403	 10.30850	  7.88926	 13.75285	  0.48874	 25.72736	702.63000	 27.00	
  4.001	-128.691	 25.57092	  8.44354	 13.04981	  8.45958	 13.02341	  0.43073	 25.72730	702.65997	 27.00	
  4.000	180.000	 25.54121	  7.26816	 14.28814	 10.90133	 10.43372	  0.44728	 25.71971	702.56000	 27.00	
  8.000	180.000	 24.96121	  3.72620	 17.23372	 10.31227	  9.79511	 -0.05546	 25.73578	702.53998	 27.00	
  7.991	-152.370	 24.98285	  4.44903	 16.43462	  7.38794	 12.97691	 -0.08307	 25.73087	702.53003	 27.00	
  7.997	-124.550	 25.02457	  6.28131	 14.20644	  5.30086	 15.53788	 -0.09845	 25.72853	702.57001	 27.00	
  8.006	-96.837	 25.07401	  9.10036	 11.18121	  4.35754	 16.79416	 -0.09034	 25.72301	702.50000	 27.00	
  7.988	-69.228	 25.13783	 12.20842	  8.18000	  4.70022	 16.37236	 -0.03773	 25.73199	702.52002	 27.00	
  7.997	-41.563	 25.15859	 14.98488	  5.81962	  6.24872	 14.41105	  0.04729	 25.73157	702.56000	 27.00	
  8.008	-13.821	 25.16408	 16.60411	  4.55609	  8.82330	 11.52183	  0.15171	 25.72770	702.67999	 27.00	
  8.008	 13.821	 25.17246	 16.56990	  4.49831	 11.91085	  8.30240	  0.23657	 25.74561	702.63000	 27.00	
  7.997	 41.563	 25.11967	 14.88395	  5.70152	 14.82872	  5.73004	  0.18640	 25.72823	702.59003	 27.00	
  7.988	 69.228	 25.07081	 12.01002	  8.04080	 16.83128	  4.21016	  0.15815	 25.71928	702.60999	 27.00	
  8.006	 96.837	 25.01637	  8.91605	 11.07716	 17.18521	  3.80729	  0.08646	 25.70922	702.59998	 27.00	
  7.997	124.550	 24.97219	  6.21218	 14.06697	 15.90782	  4.81038	  0.06090	 25.73020	702.59998	 27.00	
  7.991	152.370	 24.95688	  4.40758	 16.34912	 13.35060	  6.88443	 -0.01880	 25.73079	702.58002	 27.00	
 12.009	161.059	 23.82932	  0.46227	 19.22339	 12.49679	  5.79320	 -0.59660	 25.73929	702.62000	 27.00	
 12.013	142.081	 23.83386	  1.67421	 17.48062	 15.54777	  3.27196	 -0.58777	 25.72881	702.59998	 27.00	
 12.006	123.113	 23.85756	  3.68255	 14.81269	 18.02913	  1.36429	 -0.54229	 25.73051	702.69000	 27.00	
 12.007	104.200	 23.90521	  6.38156	 11.71512	 19.47768	  0.38267	 -0.50325	 25.72474	702.53998	 27.00	
 11.989	 85.301	 23.95875	  9.44449	  8.48359	 19.81728	  0.19977	 -0.50395	 25.72401	702.56000	 27.00	
 12.013	 66.294	 23.99514	 12.73368	  5.50653	 18.96647	  0.84951	 -0.42363	 25.71180	702.53003	 27.00	
 12.012	 47.388	 24.05900	 15.76987	  3.12343	 17.01170	  2.28615	 -0.39479	 25.72934	702.54999	 27.00	
 11.990	 28.440	 24.10459	 18.06934	  1.53312	 14.18290	  4.61705	 -0.25944	 25.72988	702.51001	 27.00	
 11.991	  9.464	 24.15645	 19.31032	  0.84060	 11.01811	  7.36304	 -0.29254	 25.72361	702.59003	 27.00	
 11.991	 -9.464	 24.15817	 19.34906	  0.88692	  7.83207	 10.52836	 -0.40144	 25.72022	702.58002	 27.00	
 11.990	-28.440	 24.15510	 18.19740	  1.71956	  4.94854	 13.76468	 -0.46420	 25.73335	702.64001	 27.10	
 12.012	-47.388	 24.12148	 15.97549	  3.37463	  2.69301	 16.60180	 -0.57052	 25.70867	702.59998	 27.10	
 12.013	-66.294	 24.11361	 13.00639	  5.77226	  1.28576	 18.60818	 -0.57748	 25.73423	702.59998	 27.00	
 11.989	-85.301	 24.06308	  9.73448	  8.72207	  0.63683	 19.53280	 -0.57987	 25.71599	702.59998	 27.10	
 12.007	-104.200	 24.00216	  6.62047	 11.85584	  0.84217	 19.19238	 -0.58132	 25.72684	702.65997	 27.10	
 12.006	-123.113	 23.94216	  3.94402	 14.99520	  1.87227	 17.71993	 -0.57637	 25.73342	702.54999	 27.10	
 12.013	-142.081	 23.88066	  1.88357	 17.60282	  3.69258	 15.25210	 -0.60123	 25.72363	702.59003	 27.10	
 12.009	-161.059	 23.85129	  0.52270	 19.29233	  6.29863	 12.21945	 -0.58668	 25.72621	702.59998	 27.10	
 16.000	180.000	 22.20629	 -3.49709	 22.00551	  8.10021	  7.62655	 -0.98076	 25.70889	702.59998	 27.10	
 15.990	-165.604	 22.24469	 -3.10567	 21.58217	  5.01827	 10.79099	 -0.86541	 25.72033	702.60999	 27.10	
 16.002	-151.165	 22.25209	 -2.28835	 20.28187	  2.25549	 14.01416	 -0.77236	 25.71855	702.60999	 27.10	
 16.002	-136.836	 22.29694	 -0.82038	 18.14712	 -0.00030	 16.93925	 -0.71967	 25.71207	702.59003	 27.10	
 15.995	-122.439	 22.34096	  1.27304	 15.37272	 -1.55400	 19.40700	 -0.64156	 25.71915	702.67999	 27.10	
 15.993	-107.966	 22.40714	  3.92497	 12.23266	 -2.36719	 21.03571	 -0.62721	 25.71743	702.59998	 27.10	
 16.005	-93.629	 22.45959	  6.93799	  8.97538	 -2.78032	 21.74029	 -0.64245	 25.72067	702.48999	 27.10	
 15.992	-79.234	 22.50775	 10.13181	  5.86333	 -2.65289	 21.52164	 -0.67290	 25.71794	702.53003	 27.10	
 16.009	-64.774	 22.55573	 13.38593	  3.11398	 -2.00810	 20.39115	 -0.72840	 25.72432	702.53003	 27.10	
 15.997	-50.364	 22.57797	 16.43667	  0.75979	 -0.79148	 18.39657	 -0.82091	 25.70019	702.65997	 27.10	
 15.997	-36.045	 22.61834	 18.99706	 -0.99953	  1.02201	 15.68145	 -0.86461	 25.71398	702.57001	 27.10	
 16.000	-21.597	 22.63041	 20.77634	 -2.08910	  3.53784	 12.56894	 -0.85521	 25.72117	702.56000	 27.10	
 16.003	 -7.169	 22.64211	 21.67275	 -2.64543	  6.53179	  9.28248	 -0.88819	 25.72309	702.54999	 27.10	
 16.003	  7.169	 22.63342	 21.63392	 -2.71079	  9.71946	  6.13769	 -0.86749	 25.72503	702.63000	 27.10	
 16.000	 21.597	 22.59810	 20.65302	 -2.27949	 12.93784	  3.25343	 -0.81653	 25.72620	702.59998	 27.10	
 15.997	 36.045	 22.54583	 18.77648	 -1.19705	 16.08035	  0.83738	 -0.91224	 25.72985	702.56000	 27.10	
 15.997	 50.364	 22.51609	 16.23449	  0.52884	 18.73539	 -1.03326	 -1.00951	 25.73745	702.59003	 27.10	
 16.009	 64.774	 22.44317	 13.06859	  2.85168	 20.72536	 -2.46358	 -1.05517	 25.72791	702.60999	 27.10	
 15.992	 79.234	 22.40742	  9.79002	  5.60537	 21.80003	 -3.03452	 -1.11421	 25.72844	702.50000	 27.10	
 16.005	 93.629	 22.35036	  6.60520	  8.73373	 22.00458	 -3.20972	 -1.15179	 25.71820	702.47998	 27.10	
 15.993	107.966	 22.26838	  3.64864	 11.93709	 21.29766	 -2.91931	 -1.09621	 25.70560	702.46997	 27.10	
 15.995	122.439	 22.22571	  1.11385	 15.11110	 19.68869	 -1.87353	 -1.11628	 25.71191	702.53998	 27.10	
 16.002	136.836	 22.19817	 -1.01624	 17.93681	 17.32130	 -0.33425	 -1.16388	 25.72206	702.53003	 27.10	
 16.002	151.165	 22.18653	 -2.46113	 20.14601	 14.41731	  1.83322	 -1.10833	 25.72046	702.47998	 27.10	
 15.990	165.604	 22.19292	 -3.19826	 21.51424	 11.32432	  4.56059	 -1.03615	 25.71981	702.56000	 27.10	
 20.003	168.362	 20.10760	 -6.40709	 23.30322	  9.75380	  2.98474	 -1.17871	 25.71432	702.51001	 27.10	
 20.008	156.764	 20.11792	 -5.73430	 22.19196	 12.85882	  0.64136	 -1.34681	 25.71472	702.60999	 27.10	
 20.000	145.147	 20.15339	 -4.70452	 20.34341	 15.89111	 -1.52254	 -1.48814	 25.70720	702.46997	 27.10	
 19.995	133.545	 20.15802	 -3.34480	 17.97763	 18.65198	 -3.23010	 -1.60458	 25.70824	702.40997	 27.10	
 20.009	121.926	 20.20797	 -1.47645	 15.10670	 20.92812	 -4.57638	 -1.66994	 25.71887	702.53003	 27.10	
 20.005	110.327	 20.26008	  0.82364	 11.97792	 22.58273	 -5.48827	 -1.74213	 25.72847	702.56000	 27.10	
 19.989	 98.733	 20.31049	  3.58254	  8.75680	 23.50307	 -5.92475	 -1.76700	 25.70908	702.58002	 27.10	
 19.999	 87.075	 20.36329	  6.68380	  5.62593	 23.71489	 -5.99855	 -1.77359	 25.72056	702.53003	 27.10	
 19.992	 75.457	 20.42155	  9.96377	  2.71447	 23.20405	 -5.67764	 -1.74601	 25.72215	702.58002	 27.10	
 20.009	 63.844	 20.46271	 13.17311	  0.17195	 21.95701	 -5.16563	 -1.69028	 25.72885	702.63000	 27.10	
 19.989	 52.269	 20.53214	 16.29560	 -1.97668	 19.97865	 -3.84945	 -1.64395	 25.71103	702.64001	 27.20	
 19.999	 40.602	 20.55977	 19.00223	 -3.65472	 17.47431	 -2.53959	 -1.56112	 25.70927	702.70001	 27.10	
 20.004	 29.051	 20.57593	 21.13140	 -4.90610	 14.54841	 -0.82024	 -1.42172	 25.70950	702.66998	 27.20	
 20.005	 17.433	 20.62615	 22.65830	 -5.69689	 11.40022	  1.72813	 -1.33855	 25.71691	702.66998	 27.20	
 20.006	  5.780	 20.62521	 23.43980	 -6.06446	  8.13796	  4.58654	 -1.24021	 25.71031	702.64001	 27.10	
 20.006	 -5.780	 20.64811	 23.48767	 -5.97619	  4.94139	  7.71677	 -1.12826	 25.72145	702.73999	 27.20	
 20.005	-17.433	 20.66141	 22.78158	 -5.54330	  2.04332	 10.97263	 -1.03751	 25.72704	702.62000	 27.20	
 20.004	-29.051	 20.62251	 21.31979	 -4.77862	 -0.31159	 14.22391	 -0.92753	 25.72286	702.63000	 27.20	
 19.999	-40.602	 20.59126	 19.15461	 -3.53304	 -2.42841	 17.21469	 -0.79922	 25.70799	702.65997	 27.20	
 19.989	-52.269	 20.58714	 16.51964	 -1.78729	 -3.92935	 19.80835	 -0.71839	 25.71178	702.58002	 27.20	
 20.009	-63.844	 20.52798	 13.47815	  0.29988	 -4.99332	 21.74223	 -0.64251	 25.70218	702.70001	 27.20	
 19.992	-75.457	 20.50583	 10.25675	  2.94655	 -5.59676	 22.99791	 -0.58363	 25.71465	702.54999	 27.20	
 19.999	-87.075	 20.43471	  6.95320	  5.88508	 -5.97249	 23.49412	 -0.53204	 25.70175	702.62000	 27.20	
 19.989	-98.733	 20.41654	  3.91514	  9.02697	 -5.83413	 23.30967	 -0.53631	 25.71958	702.60999	 27.20	
 20.005	-110.327	 20.35768	  1.05201	 12.22184	 -5.24552	 22.35478	 -0.53266	 25.72115	702.59998	 27.20	
 20.009	-121.926	 20.29550	 -1.25990	 15.33553	 -4.39778	 20.65853	 -0.55427	 25.70957	702.54999	 27.20	
 19.995	-133.545	 20.26439	 -3.09959	 18.15748	 -3.24565	 18.36043	 -0.59570	 25.72198	702.57001	 27.20	
 20.000	-145.147	 20.21282	 -4.59071	 20.53354	 -1.47690	 15.55383	 -0.66088	 25.71086	702.54999	 27.20	
 20.008	-156.764	 20.19351	 -5.62131	 22.30094	  0.71202	 12.39723	 -0.78590	 25.70759	702.56000	 27.20	
 20.003	-168.362	 20.16760	 -6.25200	 23.35100	  3.43704	  9.12769	 -0.90664	 25.70003	702.64001	 27.20	
 20.000	180.000	 20.14754	 -6.48987	 23.68876	  6.59228	  5.99011	 -1.01165	 25.71502	702.60999	 27.20	
