FileType=PCF
NHL=14
Date=03/15/19	12:43:45
Facility=APL
Serial=16071-3
Customer=NASA
NP=6
Mach=0.150000
Calibration=1:1
CalPts=490
TstPts=95
PortNumbering=AP Standard
Units=Torr C m/s kg/m^3 deg mm 
Theta[deg]	Phi[deg]	P1[Torr]	P2[Torr]	P3[Torr]	P4[Torr]	P5[Torr]	P6[Torr]	Pt[Torr]	Ps[Abs,Torr]	Ts[C]	
  0.000	  0.000	 10.90765	  4.47862	  4.71419	  4.66135	  4.61888	  0.26888	 10.93706	702.76001	 23.70	
  1.691	128.401	 10.90485	  4.11121	  5.06508	  5.09992	  4.17441	  0.25832	 10.93707	702.82001	 23.70	
  1.692	 77.194	 10.91095	  4.59367	  4.58222	  5.21513	  4.06901	  0.27580	 10.93949	702.69000	 23.70	
  1.699	 26.182	 10.90426	  4.99284	  4.19524	  4.90653	  4.36222	  0.28107	 10.92991	702.67999	 23.70	
  1.699	-26.182	 10.90482	  4.98997	  4.19471	  4.39426	  4.86491	  0.26888	 10.93088	702.71997	 23.70	
  1.692	-77.194	 10.90178	  4.59627	  4.57918	  4.08836	  5.17358	  0.25164	 10.93265	702.75000	 23.70	
  1.691	-128.401	 10.89737	  4.11573	  5.06391	  4.19829	  5.05568	  0.24365	 10.93257	702.69000	 23.70	
  1.700	180.000	 10.89872	  3.89460	  5.28864	  4.65389	  4.59891	  0.24484	 10.93437	702.71997	 23.70	
  3.400	180.000	 10.87341	  3.30976	  5.85474	  4.61259	  4.55354	  0.20248	 10.93289	702.65002	 23.70	
  3.388	-152.325	 10.87607	  3.43363	  5.70659	  4.09196	  5.08258	  0.19170	 10.93359	702.56000	 23.70	
  3.397	-124.529	 10.87945	  3.77207	  5.32976	  3.69658	  5.49188	  0.17732	 10.93402	702.69000	 23.70	
  3.399	-96.763	 10.88095	  4.27684	  4.79781	  3.49965	  5.71316	  0.19699	 10.93284	702.77002	 23.70	
  3.394	-69.283	 10.88537	  4.84191	  4.25307	  3.57602	  5.64358	  0.21710	 10.92865	702.71997	 23.70	
  3.400	-41.398	 10.89822	  5.28957	  3.84430	  3.86884	  5.32909	  0.22129	 10.93445	702.71997	 23.70	
  3.401	-14.021	 10.89724	  5.58504	  3.59567	  4.34804	  4.80347	  0.26005	 10.93642	702.78003	 23.70	
  3.401	 14.021	 10.90032	  5.58912	  3.58785	  4.89504	  4.28666	  0.27200	 10.93513	702.79999	 23.70	
  3.400	 41.398	 10.89660	  5.29904	  3.83941	  5.38590	  3.84618	  0.26585	 10.93393	702.90002	 23.70	
  3.394	 69.283	 10.89351	  4.82100	  4.28151	  5.72651	  3.54753	  0.26803	 10.93593	702.76001	 23.70	
  3.399	 96.763	 10.88558	  4.27354	  4.80015	  5.79918	  3.47571	  0.25377	 10.93300	702.77002	 23.70	
  3.397	124.529	 10.87946	  3.78350	  5.31740	  5.58333	  3.65822	  0.23333	 10.93864	702.76001	 23.70	
  3.388	152.325	 10.87678	  3.44566	  5.70169	  5.14830	  4.05056	  0.21579	 10.93336	702.81000	 23.70	
  5.099	161.165	 10.81638	  2.78452	  6.29826	  5.09856	  3.93833	  0.14838	 10.93604	702.72998	 23.70	
  5.109	142.013	 10.81627	  3.03034	  5.99601	  5.63471	  3.45313	  0.14309	 10.94074	702.71997	 23.70	
  5.095	123.033	 10.82248	  3.42016	  5.55345	  6.06004	  3.10084	  0.18534	 10.93851	702.63000	 23.70	
  5.105	104.191	 10.83381	  3.91921	  5.02160	  6.31319	  2.89964	  0.20084	 10.93855	702.71997	 23.70	
  5.093	 85.207	 10.84042	  4.47175	  4.46340	  6.35439	  2.87019	  0.19496	 10.93674	702.73999	 23.70	
  5.104	 66.290	 10.85038	  5.03405	  3.93032	  6.21454	  2.99292	  0.20876	 10.94140	702.84998	 23.70	
  5.094	 47.331	 10.85828	  5.55102	  3.46947	  5.86565	  3.26895	  0.21898	 10.94231	702.82001	 23.70	
  5.089	 28.397	 10.86066	  5.95389	  3.14711	  5.39012	  3.69596	  0.23333	 10.94348	702.71997	 23.70	
  5.096	  9.576	 10.85594	  6.14571	  2.98218	  4.83243	  4.18757	  0.21232	 10.93730	702.83002	 23.70	
  5.096	 -9.576	 10.86152	  6.15864	  2.97936	  4.26589	  4.74543	  0.20964	 10.94119	702.79999	 23.70	
  5.089	-28.397	 10.85949	  5.94499	  3.13994	  3.73012	  5.30679	  0.17940	 10.94049	702.71997	 23.70	
  5.094	-47.331	 10.85382	  5.55775	  3.46053	  3.29749	  5.79574	  0.16183	 10.93826	702.77002	 23.70	
  5.104	-66.290	 10.84663	  5.06216	  3.89906	  3.02993	  6.13232	  0.14171	 10.94088	702.78998	 23.70	
  5.093	-85.207	 10.84205	  4.48015	  4.43885	  2.90311	  6.27624	  0.12521	 10.93713	702.88000	 23.70	
  5.105	-104.191	 10.83803	  3.92766	  5.01294	  2.93449	  6.22873	  0.11783	 10.94352	702.84003	 23.70	
  5.095	-123.033	 10.82787	  3.41613	  5.56428	  3.14107	  5.97482	  0.10906	 10.94055	702.76001	 23.70	
  5.109	-142.013	 10.81819	  3.02469	  6.01633	  3.49467	  5.56912	  0.12493	 10.93952	702.81000	 23.70	
  5.099	-161.165	 10.82033	  2.78945	  6.29921	  3.98276	  5.03646	  0.11200	 10.93857	702.76001	 23.70	
  5.100	180.000	 10.81852	  2.71022	  6.39711	  4.53773	  4.46911	  0.11750	 10.93629	702.79999	 23.70	
  6.800	180.000	 10.71355	  2.05089	  6.94307	  4.41432	  4.36415	  0.03088	 10.93797	702.81000	 23.70	
  6.796	-166.229	 10.71576	  2.11690	  6.87214	  3.86160	  4.93114	  0.02914	 10.93898	702.90002	 23.70	
  6.808	-152.311	 10.72193	  2.29350	  6.66134	  3.35536	  5.48472	  0.02645	 10.94420	702.83002	 23.70	
  6.795	-138.383	 10.71828	  2.58524	  6.30831	  2.94052	  5.96903	  0.02668	 10.93674	702.75000	 23.80	
  6.792	-124.591	 10.72389	  2.96839	  5.85989	  2.61073	  6.37191	  0.02290	 10.93361	702.81000	 23.70	
  6.787	-110.754	 10.73569	  3.44266	  5.33894	  2.39068	  6.66138	  0.02209	 10.94169	702.78998	 23.70	
  6.800	-96.985	 10.74507	  3.96783	  4.78322	  2.27373	  6.81563	  0.02707	 10.94152	702.83002	 23.70	
  6.800	-83.015	 10.75364	  4.53171	  4.21675	  2.27142	  6.82554	  0.03252	 10.94284	702.85999	 23.80	
  6.787	-69.246	 10.76494	  5.09681	  3.69157	  2.38893	  6.67291	  0.05053	 10.94734	702.81000	 23.80	
  6.792	-55.409	 10.75993	  5.62049	  3.22381	  2.60709	  6.37682	  0.06434	 10.93602	702.75000	 23.80	
  6.795	-41.617	 10.77155	  6.08176	  2.83780	  2.94016	  5.98156	  0.08383	 10.94489	702.82001	 23.80	
  6.808	-27.689	 10.77641	  6.44152	  2.55336	  3.36153	  5.49078	  0.10231	 10.94142	702.91998	 23.80	
  6.796	-13.771	 10.78135	  6.66092	  2.38731	  3.87791	  4.93719	  0.12335	 10.94457	702.87000	 23.80	
  6.800	  0.000	 10.78197	  6.73293	  2.31964	  4.42549	  4.37289	  0.13858	 10.94324	702.89001	 23.80	
  6.796	 13.771	 10.77916	  6.65345	  2.37485	  4.98691	  3.83838	  0.15733	 10.94337	702.82001	 23.80	
  6.808	 27.689	 10.77371	  6.42695	  2.54061	  5.54776	  3.32745	  0.15861	 10.93839	702.90002	 23.80	
  6.795	 41.617	 10.78075	  6.07299	  2.82426	  6.05506	  2.89950	  0.14910	 10.95060	702.78998	 23.80	
  6.792	 55.409	 10.77314	  5.60694	  3.20586	  6.45645	  2.57402	  0.14977	 10.94547	702.90997	 23.80	
  6.787	 69.246	 10.76158	  5.06870	  3.67652	  6.73184	  2.36230	  0.14491	 10.94087	702.94000	 23.80	
  6.800	 83.015	 10.75372	  4.50466	  4.19729	  6.88235	  2.22772	  0.12254	 10.94326	702.83002	 23.80	
  6.800	 96.985	 10.74635	  3.93404	  4.76039	  6.88181	  2.22027	  0.11055	 10.93999	702.98999	 23.80	
  6.787	110.754	 10.73618	  3.40645	  5.32038	  6.72389	  2.33834	  0.10444	 10.94100	702.96002	 23.80	
  6.792	124.591	 10.73044	  2.94337	  5.83768	  6.45162	  2.55108	  0.08195	 10.94478	702.96002	 23.80	
  6.795	138.383	 10.72544	  2.56185	  6.28675	  6.04113	  2.88469	  0.06847	 10.94546	702.95001	 23.80	
  6.808	152.311	 10.72119	  2.27334	  6.64410	  5.53795	  3.31899	  0.06148	 10.94310	702.90002	 23.80	
  6.796	166.229	 10.72035	  2.10654	  6.86700	  4.97620	  3.83141	  0.04519	 10.94511	702.90997	 23.80	
  8.491	168.704	 10.56892	  1.42080	  7.39720	  4.85040	  3.67181	 -0.05414	 10.94071	703.07001	 23.80	
  8.502	157.493	 10.56929	  1.55608	  7.21304	  5.43286	  3.14378	 -0.03480	 10.94383	703.01001	 23.80	
  8.494	146.194	 10.57685	  1.79117	  6.90516	  5.98308	  2.66969	 -0.03030	 10.94468	702.76001	 23.80	
  8.495	135.039	 10.58293	  2.10867	  6.50325	  6.45734	  2.27846	 -0.02753	 10.94510	702.94000	 23.80	
  8.487	123.723	 10.59117	  2.50984	  6.01818	  6.86242	  1.95425	 -0.01039	 10.94604	702.94000	 23.80	
  8.492	112.575	 10.59890	  2.97010	  5.49095	  7.16858	  1.72023	  0.01131	 10.94589	702.88000	 23.80	
  8.510	101.220	 10.60543	  3.50610	  4.90890	  7.36924	  1.56728	  0.01298	 10.94522	702.91998	 23.80	
  8.500	 90.000	 10.61932	  4.07192	  4.33521	  7.43458	  1.52903	  0.01652	 10.94574	702.96997	 23.80	
  8.510	 78.780	 10.62549	  4.65432	  3.77342	  7.37935	  1.57644	  0.03415	 10.94741	702.92999	 23.80	
  8.492	 67.425	 10.63306	  5.25121	  3.23964	  7.18040	  1.73865	  0.06345	 10.94356	702.95001	 23.80	
  8.487	 56.277	 10.64186	  5.79716	  2.77497	  6.88117	  1.96389	  0.06543	 10.94616	703.02002	 23.80	
  8.495	 44.961	 10.64314	  6.28462	  2.37686	  6.47612	  2.28868	  0.06353	 10.93804	703.08002	 23.80	
  8.494	 33.806	 10.65015	  6.69445	  2.06094	  6.00182	  2.68116	  0.07495	 10.94584	703.03003	 23.80	
  8.502	 22.507	 10.65589	  7.01291	  1.82972	  5.45678	  3.15802	  0.08858	 10.94685	702.91998	 23.80	
  8.491	 11.296	 10.65281	  7.20197	  1.69786	  4.87444	  3.68683	  0.08052	 10.94235	702.91998	 23.80	
  8.500	  0.000	 10.65701	  7.27420	  1.65776	  4.29785	  4.24378	  0.05662	 10.94882	703.00000	 23.80	
  8.491	-11.296	 10.64811	  7.20694	  1.71524	  3.72197	  4.82482	  0.03890	 10.93536	702.95001	 23.80	
  8.502	-22.507	 10.65118	  7.02657	  1.85685	  3.19176	  5.40374	  0.02479	 10.94550	703.03003	 23.80	
  8.494	-33.806	 10.65526	  6.71757	  2.09864	  2.73073	  5.94019	  0.00489	 10.94852	703.03003	 23.80	
  8.495	-44.961	 10.64800	  6.31267	  2.41334	  2.33141	  6.41840	 -0.02664	 10.94925	702.92999	 23.80	
  8.487	-56.277	 10.64289	  5.82407	  2.81751	  2.00852	  6.82134	 -0.04200	 10.94729	702.95001	 23.80	
  8.492	-67.425	 10.63765	  5.28852	  3.27980	  1.78150	  7.11947	 -0.04912	 10.95050	703.00000	 23.80	
  8.510	-78.780	 10.62796	  4.70134	  3.80622	  1.62897	  7.32294	 -0.06203	 10.94763	702.97998	 23.80	
  8.500	-90.000	 10.61784	  4.12114	  4.36567	  1.58878	  7.37372	 -0.07551	 10.94802	702.88000	 23.80	
  8.510	-101.220	 10.60753	  3.55315	  4.94223	  1.63041	  7.31071	 -0.07899	 10.94818	702.85999	 23.80	
  8.492	-112.575	 10.60253	  3.01669	  5.52565	  1.77448	  7.11504	 -0.07979	 10.94846	702.98999	 23.80	
  8.487	-123.723	 10.59841	  2.55040	  6.05632	  2.00307	  6.81203	 -0.07670	 10.94915	702.90002	 23.80	
  8.495	-135.039	 10.58738	  2.14631	  6.53307	  2.31582	  6.40827	 -0.07718	 10.94903	702.90002	 23.80	
  8.494	-146.194	 10.58394	  1.82549	  6.93011	  2.70723	  5.93115	 -0.07074	 10.95124	702.96002	 23.90	
  8.502	-157.493	 10.57956	  1.57748	  7.23032	  3.16812	  5.39609	 -0.06614	 10.94775	702.92999	 23.80	
  8.491	-168.704	 10.57275	  1.43306	  7.40746	  3.70320	  4.81796	 -0.06366	 10.94573	703.01001	 23.90	
  8.500	180.000	 10.57229	  1.37771	  7.47042	  4.27518	  4.23249	 -0.06648	 10.94182	702.95001	 23.80	
 10.200	180.000	 10.39207	  0.72496	  7.95918	  4.11541	  4.07394	 -0.16444	 10.94811	702.96997	 23.90	
 10.191	-170.497	 10.38946	  0.77297	  7.90475	  3.53854	  4.66119	 -0.16379	 10.94582	702.96997	 23.80	
 10.210	-161.034	 10.39065	  0.88428	  7.75377	  2.98389	  5.25336	 -0.15887	 10.94750	703.07001	 23.90	
 10.194	-151.526	 10.39391	  1.08649	  7.49046	  2.49884	  5.81226	 -0.16392	 10.94540	703.07001	 23.90	
 10.190	-142.105	 10.40270	  1.35763	  7.14864	  2.06161	  6.34240	 -0.17187	 10.95014	702.92999	 23.90	
 10.215	-132.646	 10.39937	  1.69733	  6.71458	  1.67672	  6.81955	 -0.17579	 10.94854	703.08002	 23.90	
 10.203	-123.092	 10.40636	  2.11623	  6.20726	  1.37231	  7.22729	 -0.17288	 10.94790	702.87000	 23.90	
 10.192	-113.678	 10.41936	  2.58639	  5.66992	  1.15655	  7.52967	 -0.16896	 10.94601	702.98999	 23.90	
 10.208	-104.249	 10.42826	  3.10944	  5.09362	  1.00740	  7.74411	 -0.17304	 10.94780	703.06000	 23.90	
 10.210	-94.801	 10.43765	  3.67219	  4.50127	  0.93109	  7.84989	 -0.17436	 10.94598	703.06000	 23.90	
 10.210	-85.199	 10.44873	  4.26689	  3.91800	  0.93304	  7.85849	 -0.16663	 10.94875	703.09003	 23.90	
 10.208	-75.751	 10.46012	  4.86094	  3.36440	  1.00554	  7.74851	 -0.15728	 10.95119	702.94000	 23.90	
 10.192	-66.322	 10.46672	  5.44441	  2.84449	  1.16328	  7.53745	 -0.15329	 10.94933	703.01001	 23.90	
 10.203	-56.908	 10.47097	  5.99228	  2.37329	  1.37781	  7.23606	 -0.15103	 10.95212	703.03998	 23.90	
 10.215	-47.354	 10.47449	  6.49923	  1.96849	  1.68918	  6.83581	 -0.13881	 10.94696	702.97998	 23.90	
 10.190	-37.895	 10.48630	  6.93844	  1.63238	  2.07894	  6.35266	 -0.11747	 10.95140	703.02002	 23.90	
 10.194	-28.474	 10.48854	  7.30132	  1.36233	  2.51169	  5.82706	 -0.08486	 10.94989	703.09003	 23.90	
 10.210	-18.966	 10.48271	  7.56490	  1.15786	  2.99948	  5.26137	 -0.07281	 10.94488	703.02002	 23.90	
 10.191	 -9.503	 10.49304	  7.72514	  1.04745	  3.55222	  4.67294	 -0.05784	 10.95005	703.03003	 23.90	
 10.200	  0.000	 10.49041	  7.77569	  0.99980	  4.13272	  4.08132	 -0.03707	 10.94883	703.02002	 23.90	
 10.191	  9.503	 10.49151	  7.71604	  1.03531	  4.71974	  3.51962	 -0.01421	 10.94645	703.12000	 23.90	
 10.210	 18.966	 10.49055	  7.55398	  1.13750	  5.31631	  2.97879	  0.00197	 10.95220	703.02002	 23.90	
 10.194	 28.474	 10.48613	  7.27595	  1.32751	  5.89027	  2.48189	 -0.00727	 10.94615	703.09998	 23.90	
 10.190	 37.895	 10.48785	  6.91873	  1.58984	  6.41336	  2.05140	 -0.02244	 10.95152	703.09003	 23.90	
 10.215	 47.354	 10.47709	  6.46992	  1.92564	  6.89249	  1.66411	 -0.03351	 10.94824	702.98999	 23.90	
 10.203	 56.908	 10.47053	  5.95327	  2.33921	  7.29453	  1.35465	 -0.03677	 10.94717	703.01001	 23.90	
 10.192	 66.322	 10.46072	  5.39288	  2.80839	  7.60033	  1.12639	 -0.03698	 10.94686	703.03003	 23.90	
 10.208	 75.751	 10.45386	  4.80872	  3.32098	  7.82023	  0.97129	 -0.06452	 10.95170	703.01001	 23.90	
 10.210	 85.199	 10.44707	  4.21468	  3.87753	  7.92176	  0.89019	 -0.08347	 10.95000	702.94000	 23.90	
 10.210	 94.801	 10.43683	  3.61951	  4.46401	  7.91782	  0.88444	 -0.09245	 10.94980	702.98999	 23.90	
 10.208	104.249	 10.42395	  3.05341	  5.05061	  7.80024	  0.96023	 -0.09008	 10.94383	702.96002	 23.90	
 10.192	113.678	 10.41288	  2.53624	  5.62637	  7.57784	  1.12126	 -0.09026	 10.94524	703.08002	 23.90	
 10.203	123.092	 10.39909	  2.07531	  6.16768	  7.26451	  1.35414	 -0.11209	 10.94237	702.97998	 23.90	
 10.215	132.646	 10.39845	  1.66513	  6.68055	  6.87114	  1.66111	 -0.12854	 10.94870	703.08002	 23.90	
 10.190	142.105	 10.39200	  1.33072	  7.11659	  6.38707	  2.04253	 -0.13311	 10.94702	703.09998	 23.90	
 10.194	151.526	 10.38772	  1.06292	  7.47432	  5.87239	  2.46696	 -0.12957	 10.94991	702.94000	 23.90	
 10.210	161.034	 10.38509	  0.86825	  7.73713	  5.30210	  2.96344	 -0.13703	 10.94741	703.03998	 23.90	
 10.191	170.497	 10.38837	  0.76371	  7.89698	  4.70578	  3.50701	 -0.15579	 10.95113	702.92999	 23.90	
 11.899	171.783	 10.16123	  0.11492	  8.35996	  4.52673	  3.30738	 -0.25175	 10.94827	703.01001	 23.90	
 11.890	163.610	 10.16260	  0.21492	  8.21308	  5.12911	  2.76688	 -0.24221	 10.94700	702.88000	 23.90	
 11.889	155.445	 10.16094	  0.37488	  7.97883	  5.71129	  2.26633	 -0.23320	 10.94412	702.84003	 23.90	
 11.909	147.299	 10.16056	  0.58366	  7.66581	  6.25837	  1.81162	 -0.23429	 10.94494	702.94000	 23.90	
 11.902	139.148	 10.17267	  0.87130	  7.27872	  6.77688	  1.41096	 -0.23723	 10.95058	702.97998	 23.90	
 11.894	130.867	 10.17378	  1.22670	  6.80610	  7.24517	  1.05395	 -0.23471	 10.94955	702.90002	 23.90	
 11.897	122.732	 10.17952	  1.63065	  6.29153	  7.63502	  0.76900	 -0.21710	 10.94364	702.90997	 23.90	
 11.903	114.597	 10.19604	  2.08541	  5.74642	  7.95267	  0.54296	 -0.19790	 10.94905	702.95001	 23.90	
 11.893	106.346	 10.20676	  2.59903	  5.16359	  8.17886	  0.38904	 -0.19392	 10.94607	702.95001	 23.90	
 11.892	 98.155	 10.21799	  3.15570	  4.56800	  8.32568	  0.29470	 -0.20196	 10.94874	702.87000	 23.90	
 11.900	 90.000	 10.22677	  3.72739	  3.98039	  8.38318	  0.25719	 -0.20095	 10.94823	702.96997	 23.90	
 11.892	 81.845	 10.23377	  4.31786	  3.41564	  8.33450	  0.29933	 -0.19256	 10.94736	703.02002	 24.00	
 11.893	 73.654	 10.24624	  4.92713	  2.86261	  8.20035	  0.40040	 -0.16682	 10.94748	702.96002	 23.90	
 11.903	 65.403	 10.24833	  5.52042	  2.34938	  7.97151	  0.54150	 -0.14604	 10.94493	703.02002	 24.00	
 11.897	 57.268	 10.26189	  6.07648	  1.90005	  7.66526	  0.76097	 -0.14720	 10.95126	703.03003	 24.00	
 11.894	 49.133	 10.26759	  6.60598	  1.48385	  7.27174	  1.05128	 -0.14011	 10.95284	702.98999	 24.00	
 11.902	 40.852	 10.27381	  7.08656	  1.12473	  6.79927	  1.41260	 -0.12709	 10.94870	702.96997	 24.00	
 11.909	 32.701	 10.27994	  7.48677	  0.84290	  6.28167	  1.82533	 -0.10988	 10.95248	703.00000	 24.00	
 11.889	 24.555	 10.28394	  7.80837	  0.62799	  5.73330	  2.27677	 -0.09496	 10.95279	703.03998	 24.00	
 11.890	 16.390	 10.28693	  8.04518	  0.47688	  5.14436	  2.78697	 -0.09273	 10.94915	703.04999	 24.00	
 11.899	  8.217	 10.28884	  8.19847	  0.38344	  4.54102	  3.33243	 -0.11666	 10.95235	703.03998	 24.00	
 11.900	  0.000	 10.28148	  8.24467	  0.36089	  3.95362	  3.88885	 -0.13791	 10.94421	702.95001	 24.00	
 11.899	 -8.217	 10.28664	  8.20412	  0.40200	  3.36901	  4.48666	 -0.15873	 10.95066	703.00000	 24.00	
 11.890	-16.390	 10.27986	  8.05723	  0.50188	  2.80938	  5.08474	 -0.17287	 10.94482	703.00000	 24.00	
 11.889	-24.555	 10.28335	  7.82887	  0.66293	  2.31074	  5.66126	 -0.18273	 10.95288	703.01001	 24.00	
 11.909	-32.701	 10.27132	  7.51301	  0.87630	  1.83780	  6.21850	 -0.20155	 10.95081	703.03998	 24.00	
 11.902	-40.852	 10.27268	  7.12225	  1.16995	  1.42668	  6.74316	 -0.22543	 10.95519	703.03998	 24.00	
 11.894	-49.133	 10.26463	  6.64866	  1.52970	  1.07269	  7.20604	 -0.23868	 10.94968	703.07001	 24.00	
 11.897	-57.268	 10.26232	  6.13094	  1.94053	  0.79070	  7.59745	 -0.24359	 10.94832	703.07001	 24.00	
 11.903	-65.403	 10.25543	  5.57928	  2.39359	  0.56097	  7.91501	 -0.23912	 10.94696	703.17999	 24.00	
 11.893	-73.654	 10.24608	  4.98681	  2.90269	  0.39911	  8.14724	 -0.23894	 10.94994	702.98999	 24.00	
 11.892	-81.845	 10.23424	  4.37511	  3.45902	  0.30772	  8.27824	 -0.24309	 10.94185	703.13000	 24.00	
 11.900	-90.000	 10.23327	  3.78991	  4.02926	  0.27171	  8.34033	 -0.24835	 10.95533	702.96002	 24.00	
 11.892	-98.155	 10.21841	  3.21203	  4.60732	  0.30387	  8.28644	 -0.24754	 10.94766	703.07001	 24.00	
 11.893	-106.346	 10.21157	  2.65277	  5.20641	  0.39551	  8.14491	 -0.24526	 10.95409	703.06000	 24.00	
 11.903	-114.597	 10.20291	  2.13492	  5.79385	  0.55732	  7.90921	 -0.24423	 10.95542	703.03003	 24.00	
 11.897	-122.732	 10.18925	  1.67335	  6.34242	  0.78277	  7.58612	 -0.24204	 10.94688	703.12000	 24.00	
 11.894	-130.867	 10.18237	  1.26110	  6.84997	  1.06089	  7.19381	 -0.24855	 10.95075	703.13000	 24.00	
 11.902	-139.148	 10.17444	  0.89974	  7.31092	  1.41179	  6.71942	 -0.25488	 10.94813	703.08002	 24.00	
 11.909	-147.299	 10.17663	  0.61392	  7.70349	  1.82448	  6.19880	 -0.25509	 10.95049	703.12000	 24.00	
 11.889	-155.445	 10.18055	  0.39649	  8.01123	  2.29555	  5.64255	 -0.24287	 10.95408	703.06000	 24.00	
 11.890	-163.610	 10.17468	  0.23375	  8.23109	  2.79956	  5.06555	 -0.24531	 10.95212	703.09998	 24.00	
 11.899	-171.783	 10.16908	  0.12533	  8.37251	  3.35095	  4.46439	 -0.25884	 10.95390	703.07001	 24.00	
 11.900	180.000	 10.16629	  0.08801	  8.41467	  3.93778	  3.87168	 -0.25993	 10.95183	703.08002	 24.00	
 13.600	180.000	  9.89407	 -0.54133	  8.83339	  3.72010	  3.63904	 -0.34511	 10.94436	703.12000	 24.00	
 13.608	-172.853	  9.89457	 -0.51425	  8.80013	  3.14883	  4.22387	 -0.34155	 10.94645	703.15002	 24.00	
 13.611	-165.583	  9.90063	 -0.42897	  8.68432	  2.58188	  4.83372	 -0.32210	 10.95302	703.12000	 24.00	
 13.601	-158.353	  9.90701	 -0.28264	  8.47812	  2.07021	  5.42053	 -0.30568	 10.95177	703.07001	 24.00	
 13.609	-151.210	  9.90738	 -0.09221	  8.19445	  1.58673	  5.99603	 -0.30434	 10.94854	703.14001	 24.00	
 13.611	-143.999	  9.91272	  0.14839	  7.84198	  1.14574	  6.55603	 -0.30507	 10.94625	703.20001	 24.00	
 13.601	-136.825	  9.91120	  0.45322	  7.42393	  0.77854	  7.05193	 -0.29678	 10.94342	703.13000	 24.00	
 13.596	-129.640	  9.92750	  0.80916	  6.96275	  0.45474	  7.51702	 -0.29039	 10.95415	703.03998	 24.00	
 13.611	-122.431	  9.92680	  1.21320	  6.43429	  0.17348	  7.92137	 -0.28298	 10.94898	703.15997	 24.00	
 13.604	-115.211	  9.93933	  1.67671	  5.87374	 -0.04423	  8.25764	 -0.27765	 10.95385	703.08002	 24.00	
 13.595	-108.042	  9.94443	  2.17277	  5.29335	 -0.20643	  8.50275	 -0.27683	 10.94519	703.04999	 24.00	
 13.607	-100.793	  9.95707	  2.71743	  4.69574	 -0.31404	  8.67991	 -0.28130	 10.95140	703.03003	 24.00	
 13.601	-93.617	  9.96089	  3.28461	  4.09946	 -0.37044	  8.75755	 -0.28955	 10.94798	703.03003	 24.00	
 13.601	-86.383	  9.97375	  3.87482	  3.51716	 -0.36921	  8.76416	 -0.28464	 10.95203	702.96997	 24.00	
 13.607	-79.207	  9.97922	  4.47201	  2.95501	 -0.31551	  8.67549	 -0.28610	 10.94686	703.03003	 24.00	
 13.595	-71.958	  9.99139	  5.07869	  2.41951	 -0.20297	  8.50855	 -0.28607	 10.94943	703.04999	 24.00	
 13.604	-64.789	 10.00126	  5.66633	  1.92610	 -0.04502	  8.26748	 -0.29853	 10.95007	703.14001	 24.00	
 13.611	-57.569	 10.00576	  6.23480	  1.47317	  0.17497	  7.94017	 -0.30855	 10.94732	703.08002	 24.00	
 13.596	-50.360	 10.01499	  6.77232	  1.07240	  0.45730	  7.54666	 -0.31358	 10.95257	703.13000	 24.00	
 13.601	-43.175	 10.01929	  7.25242	  0.71213	  0.78201	  7.09869	 -0.31223	 10.95049	703.03998	 24.00	
 13.611	-36.001	 10.01934	  7.67599	  0.40878	  1.15141	  6.59674	 -0.29960	 10.95133	703.04999	 24.00	
 13.609	-28.790	 10.02752	  8.03435	  0.16581	  1.59357	  6.04469	 -0.26169	 10.95119	703.06000	 24.00	
 13.601	-21.647	 10.03257	  8.31653	 -0.02107	  2.07388	  5.46899	 -0.25091	 10.95331	703.03998	 24.00	
 13.611	-14.417	 10.03500	  8.53083	 -0.16419	  2.58825	  4.87737	 -0.25304	 10.95274	702.96002	 24.00	
 13.608	 -7.147	 10.03411	  8.65851	 -0.25034	  3.15307	  4.26710	 -0.24229	 10.95096	703.03003	 24.00	
 13.600	  0.000	 10.03337	  8.68765	 -0.27333	  3.73208	  3.67713	 -0.23482	 10.94535	702.96997	 24.00	
 13.608	  7.147	 10.03898	  8.65114	 -0.26149	  4.31596	  3.12035	 -0.21772	 10.95267	702.98999	 24.00	
 13.611	 14.417	 10.03299	  8.51427	 -0.18860	  4.92826	  2.56199	 -0.20478	 10.94850	702.98999	 24.00	
 13.601	 21.647	 10.03068	  8.29084	 -0.05580	  5.52794	  2.04727	 -0.20137	 10.94584	702.92999	 24.00	
 13.609	 28.790	 10.03863	  8.00884	  0.12759	  6.10002	  1.58971	 -0.21617	 10.95618	702.96002	 24.00	
 13.611	 36.001	 10.02565	  7.63719	  0.36646	  6.64622	  1.15271	 -0.23718	 10.94905	702.90997	 24.00	
 13.601	 43.175	 10.01783	  7.20522	  0.66700	  7.15379	  0.77272	 -0.26386	 10.95010	703.02002	 24.00	
 13.596	 50.360	 10.02157	  6.72082	  1.02301	  7.60733	  0.44981	 -0.27417	 10.95675	702.90997	 24.10	
 13.611	 57.569	 10.00939	  6.18487	  1.43232	  7.99478	  0.18000	 -0.26720	 10.95266	702.91998	 24.00	
 13.604	 64.789	 10.00668	  5.61288	  1.89060	  8.31955	 -0.03816	 -0.27285	 10.95377	702.97998	 24.00	
 13.595	 71.958	  9.99799	  5.02385	  2.37987	  8.56338	 -0.19576	 -0.29349	 10.95662	703.04999	 24.10	
 13.607	 79.207	  9.98604	  4.41404	  2.91325	  8.73151	 -0.30314	 -0.31296	 10.95027	702.84998	 24.10	
 13.601	 86.383	  9.96997	  3.80926	  3.47053	  8.79891	 -0.36044	 -0.32761	 10.94413	702.96997	 24.10	
 13.601	 93.617	  9.96631	  3.22187	  4.05294	  8.80186	 -0.36275	 -0.32823	 10.94970	702.91998	 24.10	
 13.607	100.793	  9.95338	  2.65263	  4.64172	  8.71283	 -0.31570	 -0.32315	 10.95248	703.02002	 24.10	
 13.595	108.042	  9.94571	  2.11955	  5.23810	  8.53721	 -0.19835	 -0.31042	 10.95072	703.16998	 24.10	
 13.604	115.211	  9.94190	  1.62623	  5.82255	  8.30079	 -0.03518	 -0.30782	 10.95894	703.03003	 24.10	
 13.611	122.431	  9.92165	  1.16970	  6.38380	  7.96667	  0.18414	 -0.32104	 10.94788	703.01001	 24.10	
 13.596	129.640	  9.91663	  0.76687	  6.90786	  7.57563	  0.45225	 -0.33238	 10.95032	703.03998	 24.10	
 13.601	136.825	  9.90481	  0.42348	  7.38088	  7.12764	  0.76801	 -0.33728	 10.94617	703.03998	 24.10	
 13.611	143.999	  9.90122	  0.12344	  7.80730	  6.62083	  1.14740	 -0.33149	 10.95052	703.08002	 24.10	
 13.609	151.210	  9.90004	 -0.12205	  8.17147	  6.07153	  1.57393	 -0.31593	 10.95105	703.07001	 24.10	
 13.601	158.353	  9.89337	 -0.30770	  8.45315	  5.50482	  2.02364	 -0.31180	 10.94857	702.98999	 24.10	
 13.611	165.583	  9.89440	 -0.44325	  8.66810	  4.91080	  2.52810	 -0.32409	 10.95113	703.07001	 24.10	
 13.608	172.853	  9.89348	 -0.51701	  8.79501	  4.30286	  3.08179	 -0.32965	 10.94683	702.98999	 24.10	
 15.298	173.587	  9.59911	 -1.11748	  9.18270	  4.06097	  2.84263	 -0.40078	 10.95270	703.06000	 24.10	
 15.291	167.167	  9.59523	 -1.05486	  9.06785	  4.66158	  2.29710	 -0.40025	 10.95410	703.03003	 24.10	
 15.307	160.676	  9.58695	 -0.94420	  8.87614	  5.26147	  1.77995	 -0.39959	 10.94783	702.90997	 24.10	
 15.300	154.261	  9.59867	 -0.79079	  8.62552	  5.83731	  1.32023	 -0.40504	 10.95369	703.00000	 24.10	
 15.288	147.854	  9.60172	 -0.57875	  8.29351	  6.40100	  0.89563	 -0.42005	 10.95262	703.03003	 24.10	
 15.293	141.428	  9.60520	 -0.32188	  7.89642	  6.93755	  0.50753	 -0.43600	 10.94845	702.95001	 24.10	
 15.299	134.985	  9.61250	 -0.02366	  7.45400	  7.42645	  0.16657	 -0.44081	 10.94679	703.06000	 24.10	
 15.305	128.583	  9.61723	  0.32248	  6.96572	  7.87162	 -0.13312	 -0.43867	 10.95008	702.96002	 24.10	
 15.309	122.142	  9.62211	  0.70899	  6.43262	  8.26699	 -0.39451	 -0.42865	 10.94737	702.97998	 24.10	
 15.304	115.711	  9.63319	  1.15467	  5.86595	  8.59801	 -0.59993	 -0.42370	 10.94344	703.04999	 24.10	
 15.297	109.291	  9.65059	  1.63498	  5.28819	  8.86128	 -0.76556	 -0.42750	 10.95821	702.96997	 24.10	
 15.293	102.897	  9.65194	  2.15015	  4.70017	  9.04104	 -0.88130	 -0.43959	 10.94991	703.01001	 24.10	
 15.293	 96.458	  9.67011	  2.70644	  4.10779	  9.15892	 -0.94693	 -0.45232	 10.95192	703.03003	 24.10	
 15.300	 90.000	  9.68132	  3.28524	  3.51969	  9.20724	 -0.96920	 -0.45603	 10.95737	703.02002	 24.10	
 15.293	 83.542	  9.68770	  3.87855	  2.95291	  9.17112	 -0.93997	 -0.44691	 10.95116	703.08002	 24.10	
 15.293	 77.103	  9.69503	  4.48504	  2.40239	  9.06402	 -0.87386	 -0.43391	 10.94901	703.08002	 24.10	
 15.297	 70.709	  9.70287	  5.08272	  1.88928	  8.88305	 -0.76928	 -0.41365	 10.95162	703.03003	 24.10	
 15.304	 64.289	  9.70936	  5.66844	  1.41299	  8.62934	 -0.61658	 -0.39617	 10.94954	703.06000	 24.10	
 15.309	 57.858	  9.71908	  6.24858	  0.96385	  8.30380	 -0.40782	 -0.38683	 10.94996	703.09998	 24.10	
 15.305	 51.417	  9.72666	  6.79653	  0.55883	  7.91343	 -0.14647	 -0.38350	 10.95259	703.14001	 24.10	
 15.299	 45.015	  9.73646	  7.29454	  0.21184	  7.47178	  0.15580	 -0.36686	 10.95371	703.13000	 24.10	
 15.293	 38.572	  9.73822	  7.73700	 -0.08905	  6.97890	  0.50677	 -0.34548	 10.95196	703.15002	 24.10	
 15.288	 32.146	  9.73926	  8.13007	 -0.34664	  6.43885	  0.90006	 -0.32126	 10.94706	703.17999	 24.10	
 15.300	 25.739	  9.74910	  8.47366	 -0.55610	  5.87624	  1.33582	 -0.30560	 10.95369	703.22998	 24.10	
 15.307	 19.324	  9.74963	  8.73971	 -0.71113	  5.29431	  1.80674	 -0.30122	 10.95597	703.09998	 24.10	
 15.291	 12.833	  9.75243	  8.92939	 -0.81383	  4.68917	  2.33213	 -0.31049	 10.95177	703.22998	 24.10	
 15.298	  6.413	  9.75001	  9.05171	 -0.87611	  4.07943	  2.88092	 -0.32795	 10.95139	703.13000	 24.10	
 15.300	  0.000	  9.75097	  9.09528	 -0.89391	  3.49674	  3.44138	 -0.34425	 10.95270	703.15002	 24.10	
 15.298	 -6.413	  9.74696	  9.06042	 -0.86514	  2.91358	  4.03073	 -0.35282	 10.94923	703.19000	 24.10	
 15.291	-12.833	  9.74897	  8.94825	 -0.79329	  2.35696	  4.63857	 -0.35159	 10.95423	703.31000	 24.10	
 15.307	-19.324	  9.74122	  8.75935	 -0.68131	  1.83307	  5.23334	 -0.35395	 10.94978	703.22998	 24.10	
 15.300	-25.739	  9.74091	  8.50508	 -0.51811	  1.34756	  5.82593	 -0.34892	 10.95190	703.16998	 24.10	
 15.288	-32.146	  9.74306	  8.18018	 -0.30490	  0.89986	  6.39763	 -0.35649	 10.95727	703.23999	 24.10	
 15.293	-38.572	  9.73876	  7.79002	 -0.04582	  0.50561	  6.92729	 -0.36194	 10.95523	703.21997	 24.10	
 15.299	-45.015	  9.73031	  7.33807	  0.25891	  0.14737	  7.42447	 -0.35642	 10.95568	703.21997	 24.10	
 15.305	-51.417	  9.72982	  6.84576	  0.60385	 -0.16263	  7.87570	 -0.34583	 10.95804	703.16998	 24.10	
 15.309	-57.858	  9.71764	  6.30190	  1.00051	 -0.42770	  8.26590	 -0.33265	 10.95347	703.16998	 24.10	
 15.304	-64.289	  9.71168	  5.72599	  1.44892	 -0.63759	  8.58633	 -0.31606	 10.95680	703.17999	 24.10	
 15.297	-70.709	  9.71293	  5.14224	  1.93379	 -0.78678	  8.83603	 -0.30119	 10.96022	703.28003	 24.10	
 15.293	-77.103	  9.70657	  4.55011	  2.44753	 -0.89720	  9.01725	 -0.29433	 10.95787	703.25000	 24.10	
 15.293	-83.542	  9.69864	  3.94342	  3.00232	 -0.96038	  9.12888	 -0.28754	 10.96131	703.32001	 24.10	
 15.300	-90.000	  9.68725	  3.34532	  3.57173	 -0.98530	  9.16543	 -0.28406	 10.95607	703.34003	 24.10	
 15.293	-96.458	  9.68034	  2.76809	  4.16657	 -0.95833	  9.12452	 -0.28656	 10.96044	703.31000	 24.10	
 15.293	-102.897	  9.66791	  2.21040	  4.76421	 -0.89085	  9.00958	 -0.27957	 10.95288	703.25000	 24.10	
 15.297	-109.291	  9.65841	  1.69121	  5.35084	 -0.78552	  8.82662	 -0.28100	 10.96083	703.22998	 24.10	
 15.304	-115.711	  9.63697	  1.20345	  5.92228	 -0.63089	  8.56047	 -0.27684	 10.95076	703.23999	 24.10	
 15.309	-122.142	  9.63720	  0.75404	  6.49168	 -0.42753	  8.23028	 -0.28017	 10.96064	703.25000	 24.10	
 15.305	-128.583	  9.62597	  0.35577	  7.01906	 -0.16799	  7.82603	 -0.29467	 10.95170	703.34003	 24.10	
 15.299	-134.985	  9.62583	  0.01199	  7.50532	  0.14114	  7.36669	 -0.30620	 10.95407	703.32001	 24.10	
 15.293	-141.428	  9.62292	 -0.30072	  7.94961	  0.49939	  6.86591	 -0.31982	 10.95753	703.37000	 24.10	
 15.288	-147.854	  9.61365	 -0.56172	  8.32835	  0.88901	  6.33351	 -0.33521	 10.95253	703.28003	 24.20	
 15.300	-154.261	  9.61000	 -0.76455	  8.64944	  1.33667	  5.76783	 -0.33448	 10.95743	703.32001	 24.10	
 15.307	-160.676	  9.61072	 -0.92656	  8.90268	  1.83766	  5.17930	 -0.35362	 10.95316	703.19000	 24.10	
 15.291	-167.167	  9.60511	 -1.04491	  9.08241	  2.35642	  4.58741	 -0.36976	 10.95251	703.27002	 24.10	
 15.298	-173.587	  9.60699	 -1.11250	  9.19542	  2.91477	  3.98680	 -0.39384	 10.95799	703.21002	 24.10	
 15.300	180.000	  9.60301	 -1.14037	  9.22557	  3.48579	  3.39770	 -0.40673	 10.95451	703.27002	 24.10	
 17.000	180.000	  9.26530	 -1.72410	  9.57413	  3.22349	  3.13960	 -0.44647	 10.95689	703.17999	 24.10	
 16.990	-174.179	  9.26802	 -1.69595	  9.54072	  2.65430	  3.72139	 -0.42441	 10.95522	703.31000	 24.20	
 17.009	-168.383	  9.26660	 -1.64089	  9.44703	  2.09969	  4.31862	 -0.40069	 10.95331	703.25000	 24.10	
 17.000	-162.596	  9.27563	 -1.53687	  9.28309	  1.59641	  4.90157	 -0.36737	 10.95595	703.27002	 24.20	
 16.990	-156.759	  9.26961	 -1.39301	  9.04790	  1.10277	  5.49952	 -0.34901	 10.95048	703.27002	 24.20	
 16.995	-150.919	  9.26820	 -1.22360	  8.75329	  0.63467	  6.07788	 -0.33459	 10.94805	703.23999	 24.20	
 16.988	-145.161	  9.27767	 -1.00542	  8.40795	  0.23416	  6.61925	 -0.31812	 10.94912	703.31000	 24.20	
 17.014	-139.343	  9.27794	 -0.74995	  8.00483	 -0.15068	  7.15445	 -0.31112	 10.95283	703.35999	 24.20	
 17.007	-133.546	  9.28274	 -0.44232	  7.54379	 -0.47938	  7.64448	 -0.29164	 10.95087	703.33002	 24.20	
 17.001	-127.699	  9.29051	 -0.09272	  7.04074	 -0.76399	  8.09182	 -0.28020	 10.95011	703.38000	 24.20	
 17.006	-121.937	  9.29682	  0.29444	  6.51756	 -0.99372	  8.47847	 -0.26707	 10.95378	703.34003	 24.20	
 17.002	-116.134	  9.30740	  0.72600	  5.95656	 -1.19024	  8.81876	 -0.25785	 10.95375	703.28998	 24.20	
 17.001	-110.310	  9.31585	  1.19595	  5.37518	 -1.34728	  9.09878	 -0.25907	 10.95603	703.34998	 24.20	
 16.988	-104.517	  9.32622	  1.69491	  4.78822	 -1.45902	  9.29959	 -0.25906	 10.94895	703.28998	 24.20	
 17.008	-98.662	  9.33179	  2.23229	  4.18951	 -1.54659	  9.44313	 -0.26063	 10.95488	703.40997	 24.20	
 16.996	-92.909	  9.34268	  2.79597	  3.60636	 -1.57841	  9.50861	 -0.26820	 10.95160	703.35999	 24.20	
 16.996	-87.091	  9.35769	  3.37694	  3.02996	 -1.58367	  9.51648	 -0.27633	 10.95863	703.38000	 24.20	
 17.012	-81.253	  9.35296	  3.97502	  2.46321	 -1.54883	  9.44399	 -0.26910	 10.94691	703.34003	 24.20	
 16.988	-75.483	  9.37108	  4.57766	  1.93835	 -1.46996	  9.31245	 -0.28096	 10.95315	703.40002	 24.20	
 17.001	-69.690	  9.37310	  5.17152	  1.43351	 -1.35873	  9.12005	 -0.29059	 10.94603	703.33002	 24.20	
 17.002	-63.866	  9.38576	  5.76512	  0.96679	 -1.20412	  8.86818	 -0.30844	 10.95606	703.39001	 24.20	
 17.006	-58.063	  9.39255	  6.33843	  0.52953	 -1.01014	  8.54111	 -0.32373	 10.95646	703.42999	 24.20	
 17.001	-52.301	  9.38746	  6.86987	  0.14427	 -0.77332	  8.16031	 -0.34345	 10.94689	703.28998	 24.20	
 17.007	-46.454	  9.39886	  7.38360	 -0.20412	 -0.48381	  7.71843	 -0.35654	 10.95014	703.34003	 24.20	
 17.014	-40.657	  9.40336	  7.85646	 -0.51441	 -0.15758	  7.23404	 -0.37205	 10.95191	703.39001	 24.20	
 16.988	-34.839	  9.41082	  8.27081	 -0.76867	  0.22690	  6.70633	 -0.38266	 10.95146	703.37000	 24.20	
 16.995	-29.081	  9.41451	  8.63009	 -0.98780	  0.62826	  6.16411	 -0.38710	 10.95530	703.46002	 24.20	
 16.990	-23.241	  9.41928	  8.92394	 -1.16448	  1.08883	  5.57695	 -0.40372	 10.95485	703.44000	 24.20	
 17.000	-17.404	  9.42371	  9.15986	 -1.30607	  1.58283	  4.97706	 -0.40636	 10.95245	703.52002	 24.20	
 17.009	-11.617	  9.42298	  9.33167	 -1.40474	  2.09363	  4.38751	 -0.42015	 10.95457	703.40002	 24.20	
 16.990	 -5.821	  9.43210	  9.42737	 -1.45611	  2.65714	  3.78617	 -0.42819	 10.95396	703.32001	 24.20	
 17.000	  0.000	  9.42721	  9.45427	 -1.48398	  3.23247	  3.19369	 -0.43402	 10.94779	703.48999	 24.20	
 16.990	  5.821	  9.43789	  9.41859	 -1.46382	  3.81822	  2.63967	 -0.42785	 10.95492	703.46997	 24.20	
 17.009	 11.617	  9.43132	  9.31612	 -1.41858	  4.41928	  2.08794	 -0.41663	 10.95424	703.45001	 24.20	
 17.000	 17.404	  9.43457	  9.14296	 -1.32745	  5.02298	  1.56957	 -0.40966	 10.95700	703.47998	 24.20	
 16.990	 23.241	  9.42770	  8.89335	 -1.19582	  5.61070	  1.09365	 -0.41020	 10.95061	703.56000	 24.20	
 16.995	 29.081	  9.42016	  8.58784	 -1.02520	  6.19238	  0.63981	 -0.42724	 10.95079	703.46002	 24.20	
 16.988	 34.839	  9.41505	  8.22632	 -0.80842	  6.74377	  0.24261	 -0.45033	 10.94608	703.42999	 24.20	
 17.014	 40.657	  9.41261	  7.81688	 -0.55428	  7.26504	 -0.12100	 -0.47729	 10.95353	703.40997	 24.20	
 17.007	 46.454	  9.40853	  7.34836	 -0.24165	  7.74825	 -0.44206	 -0.48926	 10.95112	703.39001	 24.20	
 17.001	 52.301	  9.40373	  6.84047	  0.10456	  8.18961	 -0.72487	 -0.49687	 10.95195	703.41998	 24.20	
 17.006	 58.063	  9.38956	  6.29702	  0.48722	  8.56889	 -0.96423	 -0.50838	 10.95098	703.44000	 24.20	
 17.002	 63.866	  9.38748	  5.71989	  0.92633	  8.89573	 -1.15668	 -0.51746	 10.95547	703.54999	 24.20	
 17.001	 69.690	  9.37785	  5.12713	  1.39497	  9.15561	 -1.30861	 -0.52955	 10.94998	703.46997	 24.20	
 16.988	 75.483	  9.37558	  4.53256	  1.89369	  9.35187	 -1.41155	 -0.54588	 10.95057	703.50000	 24.20	
 17.012	 81.253	  9.36322	  3.93117	  2.41348	  9.48829	 -1.49559	 -0.56073	 10.95257	703.40997	 24.20	
 16.996	 87.091	  9.35503	  3.32992	  2.96956	  9.54745	 -1.53533	 -0.56945	 10.95043	703.47998	 24.20	
 16.996	 92.909	  9.34432	  2.75296	  3.54569	  9.53815	 -1.53392	 -0.57360	 10.94955	703.42999	 24.20	
 17.008	 98.662	  9.33617	  2.19068	  4.12457	  9.47492	 -1.50646	 -0.56473	 10.95462	703.51001	 24.20	
 16.988	104.517	  9.32683	  1.65416	  4.72681	  9.32931	 -1.41674	 -0.55130	 10.95171	703.41998	 24.20	
 17.001	110.310	  9.31424	  1.15016	  5.31380	  9.13511	 -1.30552	 -0.54525	 10.95716	703.46997	 24.20	
 17.002	116.134	  9.29524	  0.68225	  5.88798	  8.85984	 -1.15114	 -0.54270	 10.94727	703.53003	 24.20	
 17.006	121.937	  9.28914	  0.25245	  6.45542	  8.53412	 -0.95632	 -0.54584	 10.95288	703.48999	 24.20	
 17.001	127.699	  9.28178	 -0.12542	  6.98556	  8.15274	 -0.71766	 -0.55282	 10.95422	703.50000	 24.20	
 17.007	133.546	  9.26969	 -0.47431	  7.49059	  7.70170	 -0.43435	 -0.55977	 10.94588	703.54999	 24.20	
 17.014	139.343	  9.26698	 -0.77727	  7.96029	  7.21693	 -0.11531	 -0.54955	 10.94853	703.51001	 24.20	
 16.988	145.161	  9.26551	 -1.02930	  8.36409	  6.70371	  0.23601	 -0.53407	 10.95393	703.53003	 24.20	
 16.995	150.919	  9.25694	 -1.24664	  8.72141	  6.15447	  0.62628	 -0.51896	 10.95134	703.54999	 24.20	
 16.990	156.759	  9.25986	 -1.42224	  9.02578	  5.57317	  1.06974	 -0.50244	 10.95385	703.54999	 24.20	
 17.000	162.596	  9.25301	 -1.55789	  9.26132	  4.99234	  1.53528	 -0.49340	 10.95197	703.44000	 24.20	
 17.009	168.383	  9.25209	 -1.65234	  9.43004	  4.39490	  2.04079	 -0.47589	 10.95090	703.52002	 24.20	
 16.990	174.179	  9.25479	 -1.69181	  9.52329	  3.79647	  2.58769	 -0.46393	 10.94193	703.40997	 24.20	
 18.709	174.675	  8.88508	 -2.26377	  9.85087	  3.51882	  2.31580	 -0.47847	 10.95431	703.52002	 24.20	
 18.703	169.441	  8.88268	 -2.21586	  9.75693	  4.09622	  1.79328	 -0.50397	 10.95295	703.53003	 24.20	
 18.691	164.085	  8.88751	 -2.13839	  9.60310	  4.69858	  1.28276	 -0.52922	 10.95534	703.46002	 24.20	
 18.706	158.818	  8.88612	 -2.03029	  9.39263	  5.28119	  0.81715	 -0.55534	 10.95646	703.46002	 24.20	
 18.695	153.537	  8.88673	 -1.87523	  9.11195	  5.85991	  0.37991	 -0.57498	 10.95424	703.46002	 24.20	
 18.704	148.255	  8.89031	 -1.68687	  8.78241	  6.42332	 -0.02536	 -0.60437	 10.95168	703.46997	 24.20	
 18.698	142.952	  8.89790	 -1.46015	  8.40271	  6.95653	 -0.38007	 -0.61990	 10.95017	703.56000	 24.20	
 18.699	137.625	  8.89958	 -1.20697	  7.97091	  7.47186	 -0.71520	 -0.63794	 10.95346	703.48999	 24.20	
 18.705	132.343	  8.90156	 -0.91310	  7.49215	  7.94456	 -1.00710	 -0.65121	 10.94855	703.53003	 24.20	
 18.713	127.067	  8.91392	 -0.57807	  6.99426	  8.38063	 -1.27339	 -0.65482	 10.95291	703.44000	 24.20	
 18.700	121.794	  8.92839	 -0.19517	  6.46596	  8.75790	 -1.48351	 -0.65383	 10.94748	703.40002	 24.20	
 18.698	116.504	  8.93680	  0.21005	  5.91528	  9.08640	 -1.67333	 -0.65808	 10.95440	703.46002	 24.20	
 18.707	111.165	  8.94465	  0.67105	  5.32527	  9.36658	 -1.83011	 -0.66815	 10.94725	703.40997	 24.20	
 18.690	105.863	  8.96039	  1.15612	  4.73622	  9.58329	 -1.94987	 -0.66945	 10.95144	703.53003	 24.20	
 18.696	100.583	  8.96803	  1.66334	  4.14042	  9.74049	 -2.03751	 -0.68100	 10.95149	703.47998	 24.20	
 18.700	 95.309	  8.96972	  2.20791	  3.54454	  9.83402	 -2.09213	 -0.68970	 10.94402	703.52002	 24.20	
 18.700	 90.000	  8.98050	  2.77172	  2.97343	  9.87051	 -2.10511	 -0.69723	 10.94685	703.40002	 24.20	
 18.700	 84.691	  8.98841	  3.34877	  2.41705	  9.84618	 -2.08342	 -0.69164	 10.94538	703.40002	 24.20	
 18.696	 79.417	  9.00336	  3.95131	  1.88603	  9.75720	 -2.02655	 -0.68575	 10.94658	703.42999	 24.20	
 18.690	 74.137	  9.01411	  4.54851	  1.38358	  9.60215	 -1.93439	 -0.67064	 10.94720	703.41998	 24.20	
 18.707	 68.835	  9.02385	  5.14422	  0.89633	  9.40382	 -1.83523	 -0.66072	 10.95339	703.45001	 24.20	
 18.698	 63.496	  9.03076	  5.73921	  0.44142	  9.12404	 -1.68086	 -0.64438	 10.94771	703.37000	 24.20	
 18.700	 58.206	  9.03969	  6.31319	  0.02652	  8.80421	 -1.49515	 -0.63829	 10.95236	703.34003	 24.20	
 18.713	 52.933	  9.03787	  6.85017	 -0.35444	  8.43024	 -1.28276	 -0.62635	 10.94838	703.35999	 24.20	
 18.705	 47.657	  9.04631	  7.36272	 -0.69547	  8.00575	 -1.02560	 -0.61744	 10.94790	703.40002	 24.20	
 18.699	 42.375	  9.05358	  7.84423	 -0.99859	  7.52579	 -0.72366	 -0.60601	 10.94979	703.40002	 24.20	
 18.698	 37.048	  9.06258	  8.28667	 -1.26369	  7.01305	 -0.38323	 -0.58333	 10.95017	703.38000	 24.30	
 18.704	 31.745	  9.06716	  8.67263	 -1.48970	  6.48014	 -0.02651	 -0.56072	 10.95679	703.33002	 24.30	
 18.695	 26.463	  9.06987	  9.00071	 -1.67247	  5.91272	  0.38247	 -0.53788	 10.95507	703.35999	 24.20	
 18.706	 21.182	  9.07156	  9.27812	 -1.82410	  5.32332	  0.83204	 -0.52399	 10.94999	703.42999	 24.20	
 18.691	 15.915	  9.07699	  9.49734	 -1.92681	  4.74164	  1.30611	 -0.52066	 10.95510	703.46002	 24.20	
 18.703	 10.559	  9.06842	  9.65751	 -2.01083	  4.12638	  1.82921	 -0.51142	 10.94780	703.46002	 24.20	
 18.709	  5.325	  9.06802	  9.76146	 -2.05490	  3.53333	  2.36915	 -0.50680	 10.95151	703.37000	 24.30	
 18.700	  0.000	  9.07159	  9.79677	 -2.06604	  2.95622	  2.92684	 -0.49963	 10.95555	703.39001	 24.20	
 18.709	 -5.325	  9.06308	  9.76348	 -2.04265	  2.38060	  3.50887	 -0.48221	 10.95019	703.46002	 24.30	
 18.703	-10.559	  9.06385	  9.67017	 -1.98927	  1.83673	  4.10154	 -0.46479	 10.95053	703.40002	 24.30	
 18.691	-15.915	  9.06802	  9.51857	 -1.90040	  1.32195	  4.70007	 -0.44602	 10.95553	703.31000	 24.20	
 18.706	-21.182	  9.05679	  9.30118	 -1.78451	  0.82990	  5.29231	 -0.43402	 10.94601	703.45001	 24.20	
 18.695	-26.463	  9.06145	  9.03549	 -1.62916	  0.37259	  5.88628	 -0.41401	 10.95245	703.35999	 24.30	
 18.704	-31.745	  9.05388	  8.70693	 -1.44628	 -0.03946	  6.44049	 -0.39437	 10.95315	703.45001	 24.20	
 18.698	-37.048	  9.04676	  8.32038	 -1.22415	 -0.42610	  6.98548	 -0.37330	 10.95212	703.34998	 24.30	
 18.699	-42.375	  9.03995	  7.87880	 -0.95870	 -0.77819	  7.50349	 -0.36417	 10.95057	703.34998	 24.30	
 18.705	-47.657	  9.04213	  7.40296	 -0.65325	 -1.07902	  7.98255	 -0.34122	 10.95704	703.50000	 24.30	
 18.713	-52.933	  9.03498	  6.89118	 -0.31311	 -1.34036	  8.40318	 -0.32069	 10.95245	703.39001	 24.30	
 18.700	-58.206	  9.03134	  6.34984	  0.06333	 -1.56648	  8.78088	 -0.30564	 10.95183	703.28003	 24.30	
 18.698	-63.496	  9.02194	  5.77597	  0.47655	 -1.75445	  9.10267	 -0.29230	 10.94784	703.38000	 24.30	
 18.707	-68.835	  9.01678	  5.18267	  0.93166	 -1.91546	  9.38889	 -0.27424	 10.95807	703.50000	 24.30	
 18.690	-74.137	  9.00512	  4.58812	  1.41342	 -2.02857	  9.58494	 -0.27419	 10.94933	703.42999	 24.20	
 18.696	-79.417	  8.99825	  3.99338	  1.93119	 -2.10525	  9.72722	 -0.25115	 10.95430	703.38000	 24.30	
 18.700	-84.691	  8.98970	  3.39411	  2.47501	 -2.15585	  9.81721	 -0.25530	 10.95541	703.33002	 24.30	
 18.700	-90.000	  8.97875	  2.81161	  3.03013	 -2.16875	  9.84179	 -0.24769	 10.95072	703.38000	 24.30	
 18.700	-95.309	  8.97379	  2.24590	  3.61130	 -2.14855	  9.81057	 -0.24639	 10.95042	703.40997	 24.30	
 18.696	-100.583	  8.96349	  1.69840	  4.20025	 -2.09544	  9.71670	 -0.24414	 10.95107	703.34998	 24.30	
 18.690	-105.863	  8.95548	  1.18236	  4.78326	 -2.01355	  9.56211	 -0.24355	 10.95404	703.40002	 24.30	
 18.707	-111.165	  8.94438	  0.70026	  5.37118	 -1.90007	  9.34316	 -0.24374	 10.95573	703.41998	 24.30	
 18.698	-116.504	  8.93973	  0.24705	  5.95752	 -1.73718	  9.05216	 -0.24604	 10.95448	703.41998	 24.30	
 18.700	-121.794	  8.93240	 -0.15795	  6.51159	 -1.55025	  8.70946	 -0.24895	 10.95029	703.40997	 24.30	
 18.713	-127.067	  8.92456	 -0.53428	  7.04217	 -1.33025	  8.32343	 -0.25739	 10.94886	703.45001	 24.30	
 18.705	-132.343	  8.92297	 -0.87808	  7.55070	 -1.07059	  7.89505	 -0.26764	 10.96343	703.46002	 24.30	
 18.699	-137.625	  8.91251	 -1.17923	  8.01455	 -0.76796	  7.40982	 -0.27942	 10.95049	703.51001	 24.30	
 18.698	-142.952	  8.91137	 -1.44104	  8.44289	 -0.41809	  6.88875	 -0.29087	 10.95361	703.40002	 24.30	
 18.704	-148.255	  8.90791	 -1.66460	  8.82315	 -0.02933	  6.34630	 -0.30990	 10.95652	703.47998	 24.30	
 18.695	-153.537	  8.90936	 -1.84344	  9.14288	  0.38747	  5.78686	 -0.32926	 10.95455	703.39001	 24.30	
 18.706	-158.818	  8.89702	 -2.00301	  9.41310	  0.83528	  5.20030	 -0.34808	 10.95249	703.39001	 24.30	
 18.691	-164.085	  8.89994	 -2.12028	  9.61936	  1.32984	  4.60896	 -0.37561	 10.95441	703.37000	 24.30	
 18.703	-169.441	  8.89179	 -2.21555	  9.76839	  1.83419	  4.01743	 -0.39958	 10.95308	703.47998	 24.30	
 18.709	-174.675	  8.89361	 -2.26551	  9.86125	  2.37269	  3.44160	 -0.42697	 10.95522	703.40997	 24.30	
 18.700	180.000	  8.89356	 -2.27987	  9.88549	  2.94085	  2.86385	 -0.45372	 10.95311	703.53998	 24.30	
 20.400	180.000	  8.48889	 -2.82147	 10.15645	  2.64718	  2.56694	 -0.43870	 10.95737	703.44000	 24.30	
 20.401	-175.153	  8.49079	 -2.80812	 10.13096	  2.09364	  3.12992	 -0.41265	 10.95956	703.41998	 24.30	
 20.407	-170.264	  8.48661	 -2.76363	 10.04561	  1.55473	  3.70723	 -0.38896	 10.94959	703.39001	 24.30	
 20.410	-165.423	  8.49261	 -2.68752	  9.91833	  1.05377	  4.28224	 -0.35974	 10.95563	703.48999	 24.30	
 20.392	-160.496	  8.49552	 -2.58087	  9.72396	  0.56348	  4.88102	 -0.33652	 10.95369	703.40002	 24.30	
 20.401	-155.705	  8.49892	 -2.45744	  9.48659	  0.11625	  5.45789	 -0.31958	 10.95794	703.42999	 24.30	
 20.405	-150.835	  8.49841	 -2.29421	  9.18643	 -0.28599	  6.02081	 -0.29978	 10.95454	703.46997	 24.30	
 20.397	-145.903	  8.50709	 -2.09140	  8.82836	 -0.68608	  6.59214	 -0.28430	 10.95186	703.51001	 24.30	
 20.392	-141.062	  8.51431	 -1.86705	  8.43552	 -1.04336	  7.12744	 -0.26894	 10.95585	703.53998	 24.30	
 20.396	-136.227	  8.51873	 -1.60126	  8.00198	 -1.35828	  7.62693	 -0.25547	 10.95633	703.46997	 24.30	
 20.408	-131.372	  8.51680	 -1.31465	  7.52944	 -1.63513	  8.08985	 -0.25148	 10.95304	703.42999	 24.30	
 20.410	-126.511	  8.52773	 -0.98111	  7.02308	 -1.88608	  8.52906	 -0.24549	 10.95805	703.46997	 24.30	
 20.400	-121.604	  8.52811	 -0.61420	  6.47890	 -2.09792	  8.91180	 -0.23441	 10.95032	703.40997	 24.30	
 20.403	-116.741	  8.53239	 -0.22219	  5.92574	 -2.28315	  9.25281	 -0.23320	 10.95611	703.58002	 24.30	
 20.413	-111.900	  8.53725	  0.20374	  5.35826	 -2.42672	  9.53580	 -0.22907	 10.95156	703.48999	 24.30	
 20.398	-107.004	  8.55324	  0.67734	  4.77165	 -2.53879	  9.76728	 -0.22699	 10.95187	703.40997	 24.30	
 20.394	-102.132	  8.56833	  1.17459	  4.19464	 -2.62196	  9.94687	 -0.22871	 10.96333	703.45001	 24.30	
 20.403	-97.332	  8.57310	  1.68737	  3.60791	 -2.67508	 10.05680	 -0.23073	 10.95448	703.40997	 24.30	
 20.392	-92.440	  8.58455	  2.24599	  3.02540	 -2.70444	 10.11786	 -0.23325	 10.95539	703.44000	 24.30	
 20.392	-87.560	  8.59051	  2.81269	  2.46490	 -2.71225	 10.11451	 -0.23908	 10.95090	703.47998	 24.30	
 20.403	-82.668	  8.59534	  3.39338	  1.91593	 -2.68606	 10.06298	 -0.24546	 10.94997	703.40002	 24.30	
 20.394	-77.868	  8.60334	  3.97958	  1.40095	 -2.63842	  9.96152	 -0.25051	 10.94862	703.35999	 24.30	
 20.398	-72.996	  8.61185	  4.57550	  0.89939	 -2.56878	  9.81680	 -0.25524	 10.95811	703.35999	 24.30	
 20.413	-68.100	  8.61400	  5.16689	  0.42139	 -2.45686	  9.59717	 -0.26499	 10.95789	703.38000	 24.30	
 20.403	-63.259	  8.61587	  5.74640	 -0.00778	 -2.30708	  9.31688	 -0.27703	 10.94796	703.42999	 24.30	
 20.400	-58.396	  8.62592	  6.33124	 -0.40644	 -2.12917	  8.99726	 -0.28026	 10.94983	703.45001	 24.30	
 20.410	-53.489	  8.63666	  6.88502	 -0.77501	 -1.91461	  8.62519	 -0.29649	 10.95836	703.42999	 24.30	
 20.408	-48.628	  8.64078	  7.39206	 -1.10621	 -1.66296	  8.19114	 -0.31517	 10.95472	703.35999	 24.30	
 20.396	-43.773	  8.64671	  7.87480	 -1.40082	 -1.38234	  7.72805	 -0.33633	 10.95232	703.34998	 24.30	
 20.392	-38.938	  8.65827	  8.32039	 -1.65977	 -1.07145	  7.23906	 -0.35253	 10.96014	703.40997	 24.30	
 20.397	-34.097	  8.66167	  8.72397	 -1.87868	 -0.70667	  6.70561	 -0.37351	 10.95801	703.40002	 24.30	
 20.405	-29.165	  8.66095	  9.08922	 -2.08544	 -0.31555	  6.13897	 -0.39621	 10.95737	703.42999	 24.30	
 20.401	-24.295	  8.66397	  9.39532	 -2.25251	  0.09623	  5.57243	 -0.42085	 10.95865	703.37000	 24.30	
 20.392	-19.504	  8.67414	  9.64595	 -2.37788	  0.54874	  4.99522	 -0.43985	 10.95934	703.35999	 24.30	
 20.410	-14.577	  8.67333	  9.84034	 -2.48596	  1.04301	  4.38937	 -0.46307	 10.95587	703.37000	 24.30	
 20.407	 -9.736	  8.67378	  9.97387	 -2.55186	  1.55064	  3.80981	 -0.48816	 10.95283	703.23999	 24.30	
 20.401	 -4.847	  8.67903	 10.06203	 -2.60212	  2.09571	  3.21962	 -0.50364	 10.95689	703.32001	 24.30	
 20.400	  0.000	  8.68116	 10.08710	 -2.62202	  2.65642	  2.65072	 -0.53097	 10.95949	703.29999	 24.30	
 20.401	  4.847	  8.68544	 10.05637	 -2.61405	  3.22407	  2.10249	 -0.55126	 10.96114	703.34003	 24.30	
 20.407	  9.736	  8.68598	  9.97034	 -2.58084	  3.82131	  1.56208	 -0.56936	 10.96540	703.29999	 24.30	
 20.410	 14.577	  8.67815	  9.82196	 -2.51774	  4.41016	  1.04338	 -0.59194	 10.95211	703.21997	 24.30	
 20.392	 19.504	  8.68239	  9.61912	 -2.41594	  5.01113	  0.56662	 -0.60998	 10.95880	703.31000	 24.30	
 20.401	 24.295	  8.67855	  9.37072	 -2.29215	  5.59445	  0.12104	 -0.63001	 10.96217	703.21997	 24.30	
 20.405	 29.165	  8.66916	  9.05333	 -2.13522	  6.16520	 -0.29341	 -0.65017	 10.94978	703.34998	 24.30	
 20.397	 34.097	  8.67331	  8.69247	 -1.93463	  6.72226	 -0.66185	 -0.67658	 10.95218	703.39001	 24.30	
 20.392	 38.938	  8.67206	  8.28967	 -1.70793	  7.25323	 -1.00541	 -0.69506	 10.95822	703.45001	 24.30	
 20.396	 43.773	  8.66318	  7.84089	 -1.44278	  7.75408	 -1.31558	 -0.71323	 10.95594	703.32001	 24.30	
 20.408	 48.628	  8.65370	  7.35378	 -1.15016	  8.21061	 -1.58376	 -0.72651	 10.95495	703.38000	 24.30	
 20.410	 53.489	  8.64957	  6.83197	 -0.81068	  8.63076	 -1.82187	 -0.74708	 10.95132	703.40002	 24.30	
 20.400	 58.396	  8.64601	  6.28487	 -0.43797	  9.01420	 -2.02981	 -0.76457	 10.95910	703.39001	 24.30	
 20.403	 63.259	  8.63517	  5.71523	 -0.04626	  9.33616	 -2.20966	 -0.76700	 10.95108	703.38000	 24.30	
 20.413	 68.100	  8.62728	  5.13270	  0.38101	  9.61823	 -2.36882	 -0.77540	 10.95798	703.34003	 24.30	
 20.398	 72.996	  8.62012	  4.53310	  0.85220	  9.83266	 -2.47505	 -0.78170	 10.95491	703.35999	 24.30	
 20.394	 77.868	  8.61273	  3.93817	  1.34562	  9.99411	 -2.56283	 -0.78974	 10.95269	703.37000	 24.30	
 20.403	 82.668	  8.59940	  3.35384	  1.85620	 10.09843	 -2.61493	 -0.79492	 10.95329	703.34003	 24.30	
 20.392	 87.560	  8.59529	  2.77057	  2.41401	 10.14804	 -2.64448	 -0.79897	 10.95665	703.34998	 24.30	
 20.392	 92.440	  8.58692	  2.20497	  2.98088	 10.14336	 -2.65728	 -0.79686	 10.95872	703.34998	 24.30	
 20.403	 97.332	  8.57228	  1.64595	  3.56123	 10.08593	 -2.62589	 -0.79165	 10.95744	703.28998	 24.30	
 20.394	102.132	  8.56160	  1.12344	  4.13278	  9.97314	 -2.57191	 -0.78388	 10.95843	703.40002	 24.30	
 20.398	107.004	  8.55223	  0.62876	  4.71707	  9.80301	 -2.48392	 -0.77299	 10.95533	703.38000	 24.30	
 20.413	111.900	  8.53559	  0.15971	  5.30567	  9.56752	 -2.36096	 -0.77369	 10.95268	703.39001	 24.30	
 20.403	116.741	  8.52742	 -0.27211	  5.87721	  9.28765	 -2.22074	 -0.76300	 10.95676	703.35999	 24.30	
 20.400	121.604	  8.51762	 -0.66212	  6.43365	  8.95282	 -2.02986	 -0.75019	 10.94877	703.42999	 24.30	
 20.410	126.511	  8.51329	 -1.03448	  6.98282	  8.57504	 -1.82106	 -0.73249	 10.96039	703.32001	 24.30	
 20.408	131.372	  8.49882	 -1.37338	  7.49477	  8.15649	 -1.58496	 -0.72337	 10.95925	703.34003	 24.30	
 20.396	136.227	  8.49320	 -1.65605	  7.96212	  7.69313	 -1.31874	 -0.70398	 10.95661	703.39001	 24.30	
 20.392	141.062	  8.49716	 -1.90908	  8.40267	  7.19544	 -1.00711	 -0.68535	 10.96018	703.21002	 24.30	
 20.397	145.903	  8.48948	 -2.12672	  8.79651	  6.67049	 -0.66697	 -0.66130	 10.96085	703.38000	 24.30	
 20.405	150.835	  8.48119	 -2.33010	  9.15443	  6.11705	 -0.30423	 -0.63760	 10.95904	703.21997	 24.30	
 20.401	155.705	  8.47764	 -2.49054	  9.45902	  5.54886	  0.10453	 -0.60528	 10.95506	703.31000	 24.30	
 20.392	160.496	  8.48242	 -2.61038	  9.71007	  4.96910	  0.54437	 -0.57538	 10.95947	703.32001	 24.30	
 20.410	165.423	  8.47594	 -2.70359	  9.90322	  4.38019	  1.01380	 -0.53614	 10.95349	703.27002	 24.30	
 20.407	170.264	  8.47798	 -2.77545	 10.04282	  3.79486	  1.50444	 -0.50503	 10.95354	703.31000	 24.30	
 20.401	175.153	  8.48339	 -2.81091	 10.12729	  3.20878	  2.03205	 -0.46850	 10.95515	703.32001	 24.30	
  0.141	 45.000	 10.93119	  4.53231	  4.69349	  4.71782	  4.58992	  0.27265	 10.95339	703.29999	 24.30	
  4.001	128.691	 10.88735	  3.59039	  5.51024	  5.70393	  3.52909	  0.21490	 10.95619	703.32001	 24.30	
  4.002	 76.995	 10.90617	  4.71199	  4.36353	  5.99643	  3.29815	  0.25457	 10.96274	703.34003	 24.30	
  4.002	 25.892	 10.91225	  5.69517	  3.48148	  5.21376	  3.97232	  0.27060	 10.95712	703.29999	 24.30	
  4.002	-25.892	 10.91973	  5.68991	  3.49049	  4.04062	  5.11716	  0.22126	 10.96157	703.38000	 24.30	
  4.002	-76.995	 10.90275	  4.73304	  4.33917	  3.34207	  5.89939	  0.17752	 10.95838	703.27002	 24.30	
  4.001	-128.691	 10.89198	  3.57585	  5.52702	  3.58398	  5.60052	  0.15527	 10.95824	703.22998	 24.30	
  4.000	180.000	 10.88408	  3.11542	  6.06272	  4.60957	  4.52449	  0.18032	 10.95770	703.40997	 24.30	
  8.000	180.000	 10.63354	  1.57318	  7.32788	  4.32600	  4.27520	 -0.03789	 10.95643	703.41998	 24.30	
  7.991	-152.370	 10.64075	  1.86887	  6.98272	  3.07942	  5.60642	 -0.04018	 10.95453	703.46997	 24.30	
  7.997	-124.550	 10.65291	  2.65732	  6.03202	  2.20347	  6.67534	 -0.05048	 10.95722	703.40997	 24.30	
  8.006	-96.837	 10.67512	  3.84442	  4.74598	  1.81823	  7.20410	 -0.04790	 10.96229	703.39001	 24.30	
  7.988	-69.228	 10.69153	  5.17588	  3.46836	  1.95224	  7.02085	 -0.02006	 10.96015	703.34003	 24.30	
  7.997	-41.563	 10.70531	  6.35280	  2.47202	  2.60607	  6.19675	  0.01116	 10.95805	703.33002	 24.30	
  8.008	-13.821	 10.70879	  7.04148	  1.93089	  3.69371	  4.95870	  0.06545	 10.95645	703.33002	 24.30	
  8.008	 13.821	 10.70980	  7.02950	  1.91559	  5.01793	  3.64640	  0.10372	 10.95678	703.35999	 24.30	
  7.997	 41.563	 10.70356	  6.32864	  2.43515	  6.27423	  2.54736	  0.09047	 10.96005	703.31000	 24.30	
  7.988	 69.228	 10.68697	  5.14501	  3.43102	  7.09445	  1.90075	  0.08384	 10.95486	703.29999	 24.30	
  8.006	 96.837	 10.67347	  3.79947	  4.71173	  7.27696	  1.73584	  0.04076	 10.96343	703.27002	 24.30	
  7.997	124.550	 10.65326	  2.61688	  6.00588	  6.74186	  2.14290	  0.01550	 10.96091	703.28998	 24.30	
  7.991	152.370	 10.63728	  1.83926	  6.96683	  5.66316	  3.03932	 -0.00106	 10.96013	703.28998	 24.30	
 12.009	161.059	 10.15313	  0.21234	  8.18541	  5.31973	  2.57521	 -0.24541	 10.95671	703.34998	 24.30	
 12.013	142.081	 10.16554	  0.72593	  7.45231	  6.61778	  1.51307	 -0.24661	 10.95734	703.37000	 24.30	
 12.006	123.113	 10.18060	  1.57962	  6.33321	  7.65632	  0.73838	 -0.22753	 10.96076	703.26001	 24.30	
 12.007	104.200	 10.20294	  2.72299	  5.00496	  8.26801	  0.31119	 -0.20757	 10.95669	703.40002	 24.30	
 11.989	 85.301	 10.23070	  4.06382	  3.64067	  8.40756	  0.23338	 -0.20619	 10.96073	703.28998	 24.30	
 12.013	 66.294	 10.24610	  5.46784	  2.37826	  8.04297	  0.48015	 -0.15793	 10.95768	703.21997	 24.30	
 12.012	 47.388	 10.26382	  6.73891	  1.36799	  7.20797	  1.08292	 -0.14895	 10.96383	703.23999	 24.30	
 11.990	 28.440	 10.27434	  7.69010	  0.68954	  6.00876	  2.03032	 -0.11042	 10.95413	703.26001	 24.30	
 11.991	  9.464	 10.28335	  8.21020	  0.35882	  4.63658	  3.22752	 -0.11736	 10.95525	703.34998	 24.30	
 11.991	 -9.464	 10.27779	  8.22041	  0.37418	  3.27272	  4.57204	 -0.16282	 10.95471	703.23999	 24.30	
 11.990	-28.440	 10.27207	  7.71339	  0.72252	  2.06408	  5.93449	 -0.19601	 10.95293	703.28998	 24.30	
 12.012	-47.388	 10.25672	  6.77612	  1.40763	  1.10712	  7.13347	 -0.24739	 10.95712	703.34998	 24.30	
 12.013	-66.294	 10.24947	  5.52713	  2.41771	  0.50575	  7.97386	 -0.24450	 10.95560	703.27002	 24.30	
 11.989	-85.301	 10.23317	  4.12820	  3.68039	  0.25414	  8.35372	 -0.24810	 10.95843	703.42999	 24.30	
 12.007	-104.200	 10.20887	  2.78038	  5.04973	  0.32738	  8.22601	 -0.24968	 10.95827	703.31000	 24.30	
 12.006	-123.113	 10.18966	  1.62763	  6.38003	  0.75634	  7.59720	 -0.25138	 10.95910	703.29999	 24.30	
 12.013	-142.081	 10.17421	  0.76188	  7.48395	  1.52832	  6.55597	 -0.25585	 10.95617	703.39001	 24.30	
 12.009	-161.059	 10.16586	  0.23445	  8.20147	  2.61588	  5.24453	 -0.25442	 10.95755	703.28003	 24.30	
 16.000	180.000	  9.47105	 -1.38071	  9.37140	  3.38208	  3.29394	 -0.42639	 10.95407	703.21002	 24.30	
 15.990	-165.604	  9.48267	 -1.25573	  9.18895	  2.08790	  4.68348	 -0.37340	 10.96204	703.21997	 24.30	
 16.002	-151.165	  9.48363	 -0.90647	  8.62506	  0.92606	  6.05597	 -0.33673	 10.96163	703.14001	 24.30	
 16.002	-136.836	  9.50130	 -0.30199	  7.72265	  0.02430	  7.29925	 -0.31307	 10.96280	703.26001	 24.30	
 15.995	-122.439	  9.50750	  0.54065	  6.54213	 -0.64416	  8.31848	 -0.27948	 10.95990	703.17999	 24.30	
 15.993	-107.966	  9.53307	  1.63768	  5.20040	 -1.04889	  9.00692	 -0.27450	 10.96078	703.15997	 24.30	
 16.005	-93.629	  9.55025	  2.89884	  3.80907	 -1.22556	  9.30467	 -0.28084	 10.95518	703.14001	 24.30	
 15.992	-79.234	  9.57178	  4.28562	  2.48535	 -1.16656	  9.20657	 -0.28706	 10.95449	703.25000	 24.30	
 16.009	-64.774	  9.58463	  5.68702	  1.29869	 -0.88905	  8.74057	 -0.31361	 10.95567	703.19000	 24.30	
 15.997	-50.364	  9.59776	  6.98264	  0.32876	 -0.34818	  7.89701	 -0.34564	 10.95393	703.14001	 24.30	
 15.997	-36.045	  9.60946	  8.05717	 -0.39366	  0.44716	  6.76496	 -0.36987	 10.95178	703.25000	 24.30	
 16.000	-21.597	  9.61947	  8.81982	 -0.86946	  1.48106	  5.43550	 -0.37080	 10.95797	703.29999	 24.30	
 16.003	 -7.169	  9.62703	  9.21197	 -1.11130	  2.71695	  4.03557	 -0.38407	 10.95905	703.17999	 24.30	
 16.003	  7.169	  9.63323	  9.20521	 -1.11940	  4.08022	  2.69133	 -0.36598	 10.95922	703.09003	 24.30	
 16.000	 21.597	  9.62829	  8.79713	 -0.90066	  5.48693	  1.46970	 -0.34586	 10.96121	703.16998	 24.30	
 15.997	 36.045	  9.62194	  8.01368	 -0.43253	  6.82116	  0.45166	 -0.39148	 10.96220	703.15997	 24.30	
 15.997	 50.364	  9.60873	  6.93964	  0.28973	  7.93689	 -0.32032	 -0.42372	 10.95896	703.21997	 24.30	
 16.009	 64.774	  9.58599	  5.63094	  1.25968	  8.78441	 -0.86677	 -0.44857	 10.95452	703.23999	 24.30	
 15.992	 79.234	  9.57162	  4.22618	  2.43680	  9.26123	 -1.14022	 -0.48366	 10.96146	703.17999	 24.30	
 16.005	 93.629	  9.54265	  2.83845	  3.74648	  9.34501	 -1.21104	 -0.50275	 10.95342	703.17999	 24.30	
 15.993	107.966	  9.51920	  1.57481	  5.13043	  9.04453	 -1.03318	 -0.48149	 10.95670	703.21997	 24.30	
 15.995	122.439	  9.49486	  0.49524	  6.48163	  8.36454	 -0.61605	 -0.48015	 10.95368	703.12000	 24.30	
 16.002	136.836	  9.48778	 -0.33402	  7.67235	  7.36817	  0.04284	 -0.50045	 10.96588	703.29999	 24.30	
 16.002	151.165	  9.46990	 -0.92958	  8.59548	  6.13161	  0.91501	 -0.46978	 10.96178	703.26001	 24.30	
 15.990	165.604	  9.46728	 -1.26805	  9.17310	  4.76560	  2.02252	 -0.44922	 10.95901	703.25000	 24.30	
 20.003	168.362	  8.57624	 -2.62337	  9.93662	  4.07261	  1.40102	 -0.51703	 10.95489	703.17999	 24.30	
 20.008	156.764	  8.57935	 -2.39110	  9.47565	  5.44272	  0.31167	 -0.59579	 10.96118	703.19000	 24.30	
 20.000	145.147	  8.59129	 -1.96971	  8.69704	  6.75440	 -0.60798	 -0.65755	 10.95458	703.34998	 24.30	
 19.995	133.545	  8.60032	 -1.37384	  7.68947	  7.93073	 -1.34015	 -0.70205	 10.95333	703.35999	 24.30	
 20.009	121.926	  8.62135	 -0.57591	  6.48116	  8.89144	 -1.89125	 -0.72816	 10.95674	703.22998	 24.30	
 20.005	110.327	  8.64402	  0.40934	  5.14806	  9.59854	 -2.27679	 -0.74969	 10.95420	703.23999	 24.30	
 19.989	 98.733	  8.66509	  1.58436	  3.77887	  9.99026	 -2.48018	 -0.76699	 10.95030	703.26001	 24.30	
 19.999	 87.075	  8.69441	  2.88910	  2.42749	 10.09019	 -2.52231	 -0.77768	 10.96069	703.27002	 24.30	
 19.992	 75.457	  8.71409	  4.27611	  1.19690	  9.86352	 -2.39065	 -0.75983	 10.95935	703.29999	 24.30	
 20.009	 63.844	  8.73370	  5.66640	  0.11105	  9.33212	 -2.11126	 -0.74593	 10.96066	703.34998	 24.30	
 19.989	 52.269	  8.75626	  6.96113	 -0.76788	  8.50234	 -1.63689	 -0.71283	 10.95765	703.28003	 24.30	
 19.999	 40.602	  8.76907	  8.11683	 -1.49756	  7.42609	 -1.00464	 -0.67965	 10.96147	703.27002	 24.30	
 20.004	 29.051	  8.77443	  9.02158	 -2.00813	  6.17520	 -0.17912	 -0.63189	 10.96350	703.22998	 24.30	
 20.005	 17.433	  8.77595	  9.65077	 -2.32952	  4.79679	  0.86072	 -0.58593	 10.95411	703.29999	 24.30	
 20.006	  5.780	  8.77956	  9.98258	 -2.47850	  3.40472	  2.06930	 -0.55111	 10.95630	703.28998	 24.30	
 20.006	 -5.780	  8.77523	  9.98895	 -2.46604	  2.07499	  3.38717	 -0.50547	 10.96209	703.28998	 24.30	
 20.005	-17.433	  8.77316	  9.68323	 -2.30058	  0.85665	  4.77372	 -0.45603	 10.96492	703.37000	 24.30	
 20.004	-29.051	  8.75991	  9.05372	 -1.96268	 -0.19186	  6.13467	 -0.40141	 10.95794	703.38000	 24.30	
 19.999	-40.602	  8.74598	  8.13962	 -1.45254	 -1.05751	  7.39254	 -0.34635	 10.95489	703.35999	 24.30	
 19.989	-52.269	  8.74620	  7.00251	 -0.73680	 -1.71391	  8.48079	 -0.31359	 10.95885	703.35999	 24.30	
 20.009	-63.844	  8.72116	  5.70271	  0.14988	 -2.19991	  9.30979	 -0.27548	 10.95841	703.35999	 24.30	
 19.992	-75.457	  8.71159	  4.31814	  1.24387	 -2.47330	  9.84014	 -0.26107	 10.96310	703.26001	 24.30	
 19.999	-87.075	  8.69866	  2.93570	  2.48728	 -2.58105	 10.05639	 -0.23791	 10.96464	703.28998	 24.30	
 19.989	-98.733	  8.67315	  1.62130	  3.83075	 -2.53564	  9.96737	 -0.23757	 10.95696	703.28003	 24.40	
 20.005	-110.327	  8.64145	  0.45313	  5.19416	 -2.34259	  9.56692	 -0.23207	 10.95541	703.21002	 24.30	
 20.009	-121.926	  8.62923	 -0.52608	  6.52632	 -1.96879	  8.85668	 -0.24361	 10.95928	703.27002	 24.30	
 19.995	-133.545	  8.62396	 -1.32655	  7.73655	 -1.39326	  7.86639	 -0.26197	 10.96056	703.27002	 24.40	
 20.000	-145.147	  8.60337	 -1.93999	  8.73462	 -0.63253	  6.67438	 -0.28505	 10.95332	703.09998	 24.30	
 20.008	-156.764	  8.59124	 -2.37024	  9.49434	  0.31289	  5.35500	 -0.32128	 10.95806	703.19000	 24.30	
 20.003	-168.362	  8.58803	 -2.61543	  9.95041	  1.44671	  3.98488	 -0.38395	 10.95620	703.33002	 24.30	
 20.000	180.000	  8.58764	 -2.69460	 10.09861	  2.72346	  2.63919	 -0.44307	 10.95930	703.44000	 24.30	
