FileType=PCF
NHL=14
Date=03/15/19	08:46:52
Facility=APL
Serial=16071-2
Customer=NASA
NP=6
Mach=0.230000
Calibration=1:1
CalPts=490
TstPts=95
PortNumbering=AP Standard
Units=Torr C m/s kg/m^3 deg mm 
Theta[deg]	Phi[deg]	P1[Torr]	P2[Torr]	P3[Torr]	P4[Torr]	P5[Torr]	P6[Torr]	Pt[Torr]	Ps[Abs,Torr]	Ts[C]	
  0.000	  0.000	 25.63921	 10.16536	 11.88216	 10.91085	 10.88732	  0.67492	 25.64754	703.34003	 20.30	
  1.691	128.401	 25.63733	  9.27540	 12.71125	 11.92683	  9.81547	  0.65556	 25.66988	703.38000	 20.30	
  1.692	 77.194	 25.65366	 10.42694	 11.56681	 12.25405	  9.56935	  0.69539	 25.66668	703.50000	 20.30	
  1.699	 26.182	 25.66927	 11.41247	 10.65864	 11.55214	 10.26374	  0.70445	 25.68148	703.45001	 20.30	
  1.699	-26.182	 25.66490	 11.43120	 10.65065	 10.31820	 11.49173	  0.68474	 25.67821	703.40997	 20.30	
  1.692	-77.194	 25.65117	 10.47120	 11.55294	  9.55304	 12.24047	  0.64126	 25.68118	703.46002	 20.30	
  1.691	-128.401	 25.63915	  9.30118	 12.69567	  9.78753	 11.94283	  0.61082	 25.67681	703.39001	 20.30	
  1.700	180.000	 25.64001	  8.77808	 13.23598	 10.82769	 10.85538	  0.60797	 25.67272	703.29999	 20.40	
  3.400	180.000	 25.55281	  7.36085	 14.54762	 10.67307	 10.72112	  0.50434	 25.68262	703.34003	 20.40	
  3.388	-152.325	 25.57115	  7.67373	 14.22275	  9.41782	 12.02512	  0.49818	 25.68439	703.45001	 20.40	
  3.397	-124.529	 25.58929	  8.53576	 13.31796	  8.49429	 13.07153	  0.50071	 25.69810	703.40002	 20.40	
  3.399	-96.763	 25.61966	  9.78112	 12.05224	  8.09724	 13.61481	  0.52792	 25.70555	703.34998	 20.40	
  3.394	-69.283	 25.64230	 11.10122	 10.78970	  8.28797	 13.46379	  0.56355	 25.70947	703.34998	 20.40	
  3.400	-41.398	 25.65939	 12.25254	  9.75515	  9.04472	 12.68403	  0.61024	 25.69809	703.34003	 20.40	
  3.401	-14.021	 25.67728	 12.90558	  9.17731	 10.23469	 11.48128	  0.66783	 25.70936	703.54999	 20.40	
  3.401	 14.021	 25.68091	 12.89168	  9.19908	 11.59200	 10.13934	  0.68733	 25.71143	703.39001	 20.40	
  3.400	 41.398	 25.68365	 12.21715	  9.77127	 12.75334	  9.04231	  0.69755	 25.71911	703.53003	 20.40	
  3.394	 69.283	 25.68331	 11.04663	 10.83619	 13.50976	  8.33355	  0.67780	 25.72379	703.46002	 20.40	
  3.399	 96.763	 25.65079	  9.69829	 12.10330	 13.63080	  8.17257	  0.63336	 25.70732	703.47998	 20.50	
  3.397	124.529	 25.63103	  8.48483	 13.34450	 13.07856	  8.58050	  0.58538	 25.72588	703.51001	 20.50	
  3.388	152.325	 25.61137	  7.64637	 14.25896	 11.99831	  9.50829	  0.54454	 25.71999	703.50000	 20.50	
  5.099	161.165	 25.43772	  6.11692	 15.59775	 11.82109	  9.23969	  0.34009	 25.71739	703.53998	 20.50	
  5.109	142.013	 25.48091	  6.71535	 14.93999	 13.12591	  8.13317	  0.36932	 25.73450	703.44000	 20.50	
  5.095	123.033	 25.48853	  7.65298	 13.86775	 14.17150	  7.30458	  0.43864	 25.72541	703.35999	 20.50	
  5.105	104.191	 25.53828	  8.82335	 12.62587	 14.81499	  6.85733	  0.52588	 25.73521	703.39001	 20.50	
  5.093	 85.207	 25.57234	 10.19676	 11.27337	 14.99037	  6.76438	  0.56908	 25.73191	703.39001	 20.50	
  5.104	 66.290	 25.59652	 11.56913	  9.99481	 14.68141	  7.06633	  0.60650	 25.72812	704.21002	 20.50	
  5.094	 47.331	 25.63508	 12.83582	  8.90629	 13.92062	  7.72592	  0.60889	 25.74017	703.53998	 20.50	
  5.089	 28.397	 25.62665	 13.75223	  8.15212	 12.78799	  8.74713	  0.63186	 25.72956	703.45001	 20.50	
  5.096	  9.576	 25.64924	 14.26700	  7.76194	 11.49207	  9.97542	  0.61802	 25.75464	703.42999	 20.60	
  5.096	 -9.576	 25.63825	 14.28211	  7.73197	 10.09851	 11.36744	  0.57844	 25.74888	703.42999	 20.60	
  5.089	-28.397	 25.61532	 13.79350	  8.13995	  8.82306	 12.67966	  0.54124	 25.73641	703.53998	 20.60	
  5.094	-47.331	 25.59618	 12.89758	  8.91276	  7.78382	 13.82137	  0.49081	 25.74479	703.48999	 20.60	
  5.104	-66.290	 25.58052	 11.67870	 10.00650	  7.08268	 14.60005	  0.44085	 25.75728	703.48999	 20.60	
  5.093	-85.207	 25.52736	 10.31000	 11.24918	  6.71940	 14.92903	  0.40475	 25.73614	703.52002	 20.60	
  5.105	-104.191	 25.51606	  8.94896	 12.60415	  6.76095	 14.80062	  0.36037	 25.74887	703.52002	 20.60	
  5.095	-123.033	 25.49282	  7.72842	 13.89073	  7.21187	 14.17262	  0.34929	 25.76507	703.45001	 20.60	
  5.109	-142.013	 25.47724	  6.77240	 14.94605	  8.02008	 13.18888	  0.33625	 25.75725	703.41998	 20.60	
  5.099	-161.165	 25.47485	  6.17818	 15.60274	  9.15524	 11.91534	  0.28484	 25.76248	703.50000	 20.70	
  5.100	180.000	 25.46309	  5.93838	 15.84859	 10.47565	 10.52281	  0.34496	 25.74738	703.53998	 20.70	
  6.800	180.000	 25.21955	  4.45738	 17.07186	 10.17150	 10.27597	  0.09350	 25.76866	703.51001	 20.70	
  6.796	-166.229	 25.21095	  4.60015	 16.89528	  8.88253	 11.59068	  0.07865	 25.76187	703.53998	 20.70	
  6.808	-152.311	 25.19763	  5.01316	 16.39001	  7.68755	 12.91979	  0.08124	 25.75523	703.54999	 20.70	
  6.795	-138.383	 25.22636	  5.71387	 15.59442	  6.69716	 14.10079	  0.07388	 25.75811	703.51001	 20.70	
  6.792	-124.591	 25.25212	  6.64570	 14.56130	  5.96042	 15.06570	  0.07681	 25.76619	703.46997	 20.70	
  6.787	-110.754	 25.28588	  7.78632	 13.33686	  5.47755	 15.76863	  0.08966	 25.76661	703.53998	 20.70	
  6.800	-96.985	 25.31516	  9.06482	 12.03370	  5.23699	 16.16800	  0.12187	 25.77600	703.51001	 20.70	
  6.800	-83.015	 25.35057	 10.42807	 10.70950	  5.28497	 16.19405	  0.17035	 25.76833	703.48999	 20.80	
  6.787	-69.246	 25.37945	 11.76702	  9.47929	  5.60663	 15.84470	  0.21191	 25.76568	703.53003	 20.80	
  6.792	-55.409	 25.41725	 13.02074	  8.40620	  6.18323	 15.20564	  0.28994	 25.76889	703.54999	 20.80	
  6.795	-41.617	 25.46556	 14.10503	  7.49605	  7.02610	 14.26732	  0.25376	 25.77909	703.46997	 20.80	
  6.808	-27.689	 25.48564	 14.95461	  6.80468	  8.08518	 13.09321	  0.33420	 25.76292	703.40997	 20.80	
  6.796	-13.771	 25.51276	 15.47023	  6.39986	  9.32905	 11.79432	  0.41141	 25.77678	703.53998	 20.80	
  6.800	  0.000	 25.52853	 15.64371	  6.26355	 10.65175	 10.44768	  0.46542	 25.78742	703.47998	 20.80	
  6.796	 13.771	 25.52839	 15.44867	  6.41145	 11.96488	  9.16568	  0.50248	 25.78900	703.54999	 20.90	
  6.808	 27.689	 25.50278	 14.90976	  6.80722	 13.26293	  7.97325	  0.50858	 25.76732	703.54999	 20.90	
  6.795	 41.617	 25.49961	 14.03527	  7.49210	 14.41928	  6.96743	  0.44125	 25.76904	703.56000	 20.90	
  6.792	 55.409	 25.49355	 12.91839	  8.41373	 15.32777	  6.19610	  0.37329	 25.79386	703.58002	 20.90	
  6.787	 69.246	 25.46926	 11.64460	  9.52092	 15.96564	  5.65456	  0.45431	 25.77802	703.53003	 20.90	
  6.800	 83.015	 25.42659	 10.30866	 10.74869	 16.24741	  5.38530	  0.31732	 25.78909	703.51001	 20.90	
  6.800	 96.985	 25.37584	  8.92106	 12.05727	 16.19790	  5.36291	  0.33589	 25.77597	703.51001	 20.90	
  6.787	110.754	 25.35018	  7.69884	 13.34827	 15.80418	  5.56941	  0.27652	 25.79255	703.39001	 20.90	
  6.792	124.591	 25.31074	  6.59096	 14.55893	 15.09326	  6.06432	  0.29134	 25.79040	703.56000	 20.90	
  6.795	138.383	 25.28318	  5.69015	 15.59349	 14.09155	  6.83207	  0.17812	 25.78700	703.57001	 20.90	
  6.808	152.311	 25.25701	  5.00665	 16.40584	 12.87426	  7.84228	  0.12947	 25.79579	703.58002	 21.00	
  6.796	166.229	 25.24115	  4.60454	 16.89630	 11.51861	  9.01415	  0.09948	 25.78481	703.48999	 21.00	
  8.491	168.704	 24.88472	  3.03174	 18.09538	 11.20105	  8.64973	 -0.13533	 25.78593	703.42999	 21.00	
  8.502	157.493	 24.89851	  3.32831	 17.69083	 12.58269	  7.42014	 -0.13373	 25.78774	703.59003	 21.00	
  8.494	146.194	 24.91653	  3.87843	 16.98518	 13.89715	  6.30445	 -0.07479	 25.78459	703.64001	 21.00	
  8.495	135.039	 24.95557	  4.61647	 16.08908	 15.05255	  5.39192	 -0.06114	 25.79824	703.59003	 21.00	
  8.487	123.723	 24.99184	  5.57759	 14.98212	 16.04328	  4.63619	 -0.04075	 25.79848	703.51001	 21.00	
  8.492	112.575	 25.03163	  6.66595	 13.76154	 16.80618	  4.12675	 -0.01630	 25.80437	703.63000	 21.00	
  8.510	101.220	 25.06269	  7.92016	 12.40853	 17.31265	  3.83544	  0.02861	 25.78522	703.62000	 21.00	
  8.500	 90.000	 25.10532	  9.23810	 11.08119	 17.49764	  3.75358	  0.05304	 25.78112	703.66998	 21.10	
  8.510	 78.780	 25.15557	 10.63444	  9.79119	 17.41756	  3.88093	  0.11477	 25.79651	703.62000	 21.10	
  8.492	 67.425	 25.19828	 12.04545	  8.55099	 17.03282	  4.22518	  0.10551	 25.80127	703.65997	 21.10	
  8.487	 56.277	 25.22784	 13.35322	  7.46439	 16.36992	  4.80128	  0.14261	 25.80155	703.65997	 21.10	
  8.495	 44.961	 25.26134	 14.53944	  6.52728	 15.46760	  5.59162	  0.16512	 25.80733	703.59003	 21.10	
  8.494	 33.806	 25.26619	 15.50450	  5.76507	 14.39608	  6.50828	  0.29166	 25.80504	703.60999	 21.10	
  8.502	 22.507	 25.27665	 16.25451	  5.21648	 13.14492	  7.60414	  0.23462	 25.79884	703.66998	 21.10	
  8.491	 11.296	 25.28160	 16.71105	  4.88865	 11.79265	  8.83629	  0.21414	 25.79885	703.62000	 21.10	
  8.500	  0.000	 25.27719	 16.87967	  4.77152	 10.42202	 10.15809	  0.17008	 25.80067	703.69000	 21.20	
  8.491	-11.296	 25.28448	 16.75640	  4.86328	  9.06357	 11.55017	  0.11776	 25.80673	703.59003	 21.20	
  8.502	-22.507	 25.25039	 16.31771	  5.19519	  7.76735	 12.91213	  0.07695	 25.79256	703.59998	 21.20	
  8.494	-33.806	 25.24321	 15.60758	  5.77499	  6.64152	 14.17527	  0.04192	 25.81146	703.70001	 21.20	
  8.495	-44.961	 25.20721	 14.65005	  6.52547	  5.65270	 15.27734	 -0.00893	 25.80104	703.59998	 21.20	
  8.487	-56.277	 25.16639	 13.49449	  7.45212	  4.81481	 16.22178	 -0.06728	 25.78823	703.59003	 21.20	
  8.492	-67.425	 25.12849	 12.24042	  8.52596	  4.23496	 16.90661	 -0.09685	 25.81476	703.69000	 21.20	
  8.510	-78.780	 25.08298	 10.84473	  9.76796	  3.86193	 17.34007	 -0.13237	 25.80606	703.58002	 21.20	
  8.500	-90.000	 25.03707	  9.46605	 11.06231	  3.69780	 17.45796	 -0.16430	 25.79649	703.65002	 21.20	
  8.510	-101.220	 25.00031	  8.10208	 12.40899	  3.74768	 17.29484	 -0.18932	 25.80174	703.62000	 21.30	
  8.492	-112.575	 24.97145	  6.82100	 13.74241	  4.04537	 16.81155	 -0.18589	 25.80213	703.59998	 21.30	
  8.487	-123.723	 24.94807	  5.70114	 14.96751	  4.53364	 16.09390	 -0.18325	 25.80154	703.62000	 21.30	
  8.495	-135.039	 24.92788	  4.72552	 16.09082	  5.26594	 15.12774	 -0.17991	 25.80617	703.65997	 21.30	
  8.494	-146.194	 24.90864	  3.95840	 17.00376	  6.18309	 13.97174	 -0.19360	 25.80683	703.60999	 21.30	
  8.502	-157.493	 24.89272	  3.40029	 17.69312	  7.26540	 12.70437	 -0.18220	 25.81171	703.53998	 21.30	
  8.491	-168.704	 24.90275	  3.09122	 18.09601	  8.53304	 11.34771	 -0.16309	 25.81058	703.57001	 21.30	
  8.500	180.000	 24.88793	  2.94511	 18.24370	  9.85297	  9.96617	 -0.15287	 25.79976	703.58002	 21.30	
 10.200	180.000	 24.44971	  1.40633	 19.33317	  9.45065	  9.57463	 -0.39613	 25.80314	703.59998	 21.30	
 10.191	-170.497	 24.46511	  1.52656	 19.21659	  8.10976	 10.96796	 -0.39421	 25.82521	703.47998	 21.30	
 10.210	-161.034	 24.45899	  1.77912	 18.87039	  6.79837	 12.37947	 -0.40537	 25.81921	703.54999	 21.40	
 10.194	-151.526	 24.45982	  2.25682	 18.25804	  5.68217	 13.67770	 -0.41532	 25.80215	703.47998	 21.40	
 10.190	-142.105	 24.47762	  2.88556	 17.46503	  4.65828	 14.93297	 -0.42395	 25.80717	703.60999	 21.40	
 10.215	-132.646	 24.48705	  3.69949	 16.47752	  3.76003	 16.08168	 -0.39784	 25.80773	703.60999	 21.40	
 10.203	-123.092	 24.50970	  4.70396	 15.30874	  3.06137	 17.03591	 -0.40380	 25.79795	703.56000	 21.40	
 10.192	-113.678	 24.53835	  5.81837	 14.06833	  2.59418	 17.74750	 -0.41775	 25.79049	703.59003	 21.40	
 10.208	-104.249	 24.56890	  7.07521	 12.74023	  2.27574	 18.28033	 -0.40917	 25.78679	703.56000	 21.40	
 10.210	-94.801	 24.63694	  8.42592	 11.38375	  2.15511	 18.56700	 -0.39804	 25.81630	703.69000	 21.40	
 10.210	-85.199	 24.66967	  9.83225	 10.02059	  2.20215	 18.59226	 -0.36677	 25.82123	703.65997	 21.40	
 10.208	-75.751	 24.71578	 11.24216	  8.72746	  2.41701	 18.36190	 -0.35742	 25.82157	703.54999	 21.50	
 10.192	-66.322	 24.74308	 12.61302	  7.51449	  2.81805	 17.88112	 -0.34523	 25.80416	703.59998	 21.50	
 10.203	-56.908	 24.79292	 13.91602	  6.42751	  3.35508	 17.21549	 -0.33287	 25.81792	703.48999	 21.50	
 10.215	-47.354	 24.83478	 15.12311	  5.45022	  4.12043	 16.29088	 -0.28428	 25.81880	703.45001	 21.50	
 10.190	-37.895	 24.87529	 16.16389	  4.65621	  5.08106	 15.17736	 -0.23863	 25.82009	703.53998	 21.50	
 10.194	-28.474	 24.89828	 16.99148	  4.01941	  6.16543	 13.94915	 -0.19246	 25.81846	703.59998	 21.50	
 10.210	-18.966	 24.91652	 17.61319	  3.53167	  7.37092	 12.62933	 -0.16784	 25.81839	703.59998	 21.50	
 10.191	 -9.503	 24.94193	 17.95448	  3.27653	  8.69281	 11.23137	 -0.11908	 25.81879	703.46002	 21.50	
 10.200	  0.000	 24.94653	 18.08818	  3.18306	 10.08625	  9.82016	 -0.07244	 25.81728	703.53998	 21.50	
 10.191	  9.503	 24.94759	 17.92557	  3.26012	 11.45687	  8.48301	 -0.03010	 25.82018	703.51001	 21.50	
 10.210	 18.966	 24.93229	 17.52936	  3.51128	 12.86894	  7.18775	 -0.03138	 25.81586	703.53998	 21.60	
 10.194	 28.474	 24.93073	 16.88350	  3.96166	 14.20903	  6.00663	 -0.06046	 25.82960	703.53998	 21.60	
 10.190	 37.895	 24.91537	 16.01563	  4.61616	 15.39264	  4.98601	 -0.08420	 25.81517	703.97998	 21.60	
 10.215	 47.354	 24.90169	 14.94028	  5.43198	 16.49233	  4.04884	 -0.11731	 25.83480	703.51001	 21.60	
 10.203	 56.908	 24.88090	 13.71317	  6.45928	 17.37967	  3.34871	 -0.13495	 25.83571	703.71002	 21.60	
 10.192	 66.322	 24.83788	 12.37860	  7.54403	 18.04066	  2.79021	 -0.17479	 25.82461	703.65997	 21.60	
 10.208	 75.751	 24.79593	 10.97835	  8.75630	 18.49110	  2.40531	 -0.19887	 25.81891	703.60999	 21.60	
 10.210	 85.199	 24.75271	  9.56262	 10.04654	 18.68231	  2.21119	 -0.22352	 25.81327	703.62000	 21.60	
 10.210	 94.801	 24.71276	  8.14236	 11.40880	 18.63025	  2.16895	 -0.23981	 25.82631	703.65002	 21.60	
 10.208	104.249	 24.66195	  6.83591	 12.77639	 18.32516	  2.30043	 -0.28727	 25.82929	703.53998	 21.60	
 10.192	113.678	 24.60884	  5.63838	 14.09081	 17.75102	  2.67203	 -0.31617	 25.81753	703.58002	 21.70	
 10.203	123.092	 24.57765	  4.54375	 15.33366	 16.98745	  3.19206	 -0.34052	 25.82825	703.59998	 21.70	
 10.215	132.646	 24.54597	  3.54568	 16.49656	 15.99490	  3.90822	 -0.34023	 25.83327	703.59003	 21.70	
 10.190	142.105	 24.52770	  2.75828	 17.48419	 14.84345	  4.83788	 -0.33654	 25.83466	703.51001	 21.70	
 10.194	151.526	 24.50607	  2.12847	 18.27987	 13.60250	  5.85332	 -0.39325	 25.84030	703.64001	 21.70	
 10.210	161.034	 24.47246	  1.68927	 18.87997	 12.22969	  7.01845	 -0.40903	 25.81628	703.59003	 21.70	
 10.191	170.497	 24.46614	  1.46479	 19.21976	 10.82123	  8.28218	 -0.41925	 25.82115	703.59998	 21.70	
 11.899	171.783	 23.92561	 -0.06690	 20.24802	 10.36676	  7.82069	 -0.64562	 25.81661	703.62000	 21.70	
 11.890	163.610	 23.94722	  0.13100	 19.93609	 11.79390	  6.57069	 -0.66431	 25.83708	703.66998	 21.70	
 11.889	155.445	 23.95067	  0.47036	 19.42065	 13.16639	  5.37212	 -0.65857	 25.81819	703.62000	 21.80	
 11.909	147.299	 23.98796	  0.96467	 18.74222	 14.47782	  4.31172	 -0.60998	 25.84017	703.65002	 21.80	
 11.902	139.148	 23.99058	  1.62377	 17.85623	 15.71606	  3.29991	 -0.58513	 25.82463	703.64001	 21.80	
 11.894	130.867	 24.03511	  2.49323	 16.78985	 16.85856	  2.43640	 -0.59105	 25.83237	703.53998	 21.80	
 11.897	122.732	 24.06190	  3.47813	 15.61085	 17.80645	  1.75091	 -0.59666	 25.82113	703.51001	 21.80	
 11.903	114.597	 24.10588	  4.57340	 14.36120	 18.59145	  1.23222	 -0.58340	 25.83007	703.50000	 21.80	
 11.893	106.346	 24.14371	  5.76627	 13.02913	 19.19270	  0.85331	 -0.53509	 25.82293	703.59003	 21.80	
 11.892	 98.155	 24.19782	  7.06381	 11.64309	 19.57637	  0.65266	 -0.50040	 25.82872	703.58002	 21.80	
 11.900	 90.000	 24.25551	  8.41565	 10.29053	 19.75282	  0.62993	 -0.49862	 25.84027	703.58002	 21.80	
 11.892	 81.845	 24.29834	  9.81598	  8.97639	 19.69322	  0.70114	 -0.49675	 25.83292	703.54999	 21.80	
 11.893	 73.654	 24.34139	 11.24942	  7.68557	 19.42644	  0.94055	 -0.49274	 25.83047	703.59998	 21.80	
 11.903	 65.403	 24.38058	 12.66438	  6.48039	 18.95737	  1.32372	 -0.45229	 25.83716	703.59998	 21.90	
 11.897	 57.268	 24.41054	 14.00440	  5.39887	 18.27355	  1.87956	 -0.40587	 25.83738	703.63000	 21.90	
 11.894	 49.133	 24.39455	 15.21256	  4.45797	 17.40921	  2.48054	 -0.39123	 25.78773	703.57001	 21.90	
 11.902	 40.852	 24.42816	 16.37031	  3.58545	 16.36521	  3.34439	 -0.37033	 25.79728	703.65002	 21.90	
 11.909	 32.701	 24.45133	 17.32610	  2.90023	 15.16986	  4.37435	 -0.34217	 25.79076	703.71002	 21.90	
 11.889	 24.555	 24.47073	 18.08184	  2.38781	 13.92651	  5.46141	 -0.31370	 25.79039	703.71997	 21.90	
 11.890	 16.390	 24.48988	 18.66952	  1.99600	 12.55017	  6.68337	 -0.27725	 25.79193	703.69000	 21.90	
 11.899	  8.217	 24.49718	 19.02909	  1.75406	 11.14844	  7.95722	 -0.28855	 25.78745	703.59003	 21.90	
 11.900	  0.000	 24.51271	 19.17906	  1.68147	  9.75149	  9.31691	 -0.34328	 25.79548	703.57001	 22.00	
 11.899	 -8.217	 24.49599	 19.07544	  1.74360	  8.33578	 10.74578	 -0.40732	 25.78716	703.59998	 21.90	
 11.890	-16.390	 24.49577	 18.75615	  1.97642	  7.00727	 12.17491	 -0.43738	 25.79782	703.62000	 22.00	
 11.889	-24.555	 24.48868	 18.25014	  2.36865	  5.80499	 13.52534	 -0.45256	 25.81580	703.65002	 22.00	
 11.909	-32.701	 24.44591	 17.51705	  2.88775	  4.64997	 14.83097	 -0.47310	 25.79633	703.67999	 22.00	
 11.902	-40.852	 24.40849	 16.59517	  3.55741	  3.58545	 16.03889	 -0.52497	 25.79250	703.65997	 22.00	
 11.894	-49.133	 24.38035	 15.48954	  4.41393	  2.70078	 17.12090	 -0.55747	 25.79559	703.59003	 22.00	
 11.897	-57.268	 24.32622	 14.26197	  5.38044	  1.97605	 17.99371	 -0.57787	 25.78211	703.59998	 22.00	
 11.903	-65.403	 24.28284	 12.94387	  6.49746	  1.39179	 18.72221	 -0.59089	 25.78580	703.67999	 22.00	
 11.893	-73.654	 24.24317	 11.54091	  7.71354	  1.00400	 19.23829	 -0.57013	 25.78855	703.54999	 22.00	
 11.892	-81.845	 24.19749	 10.12829	  8.99240	  0.75504	 19.54317	 -0.56171	 25.78699	703.57001	 22.00	
 11.900	-90.000	 24.15792	  8.72780	 10.31109	  0.62743	 19.63640	 -0.57854	 25.79000	703.59998	 22.00	
 11.892	-98.155	 24.11282	  7.36771	 11.66792	  0.66402	 19.49834	 -0.60391	 25.79210	703.59998	 22.10	
 11.893	-106.346	 24.05986	  6.03156	 13.02977	  0.82957	 19.15022	 -0.61091	 25.79085	703.59998	 22.10	
 11.903	-114.597	 24.02787	  4.78785	 14.38467	  1.18845	 18.57806	 -0.60439	 25.79879	703.65997	 22.10	
 11.897	-122.732	 24.00851	  3.69923	 15.64390	  1.69611	 17.81914	 -0.58565	 25.80078	703.57001	 22.10	
 11.894	-130.867	 23.95730	  2.67919	 16.80737	  2.31156	 16.88129	 -0.60245	 25.79537	703.66998	 22.10	
 11.902	-139.148	 23.92018	  1.82048	 17.85631	  3.11776	 15.76804	 -0.62558	 25.78326	703.57001	 22.10	
 11.909	-147.299	 23.91004	  1.13205	 18.75414	  4.07781	 14.55294	 -0.65583	 25.78817	703.65997	 22.10	
 11.889	-155.445	 23.90179	  0.62126	 19.44527	  5.17091	 13.23414	 -0.66152	 25.79186	703.65002	 22.10	
 11.890	-163.610	 23.88014	  0.23427	 19.94710	  6.33407	 11.88236	 -0.64496	 25.78586	703.75000	 22.10	
 11.899	-171.783	 23.87397	  0.00217	 20.25874	  7.62608	 10.48171	 -0.65087	 25.79147	703.63000	 22.10	
 11.900	180.000	 23.87013	 -0.09146	 20.36523	  8.98282	  9.09088	 -0.65953	 25.78661	703.70001	 22.10	
 13.600	180.000	 23.24579	 -1.59410	 21.30639	  8.42516	  8.59434	 -0.83710	 25.79402	703.60999	 22.20	
 13.608	-172.853	 23.24830	 -1.50643	 21.20916	  7.09847	  9.97561	 -0.80999	 25.79175	703.60999	 22.20	
 13.611	-165.583	 23.25419	 -1.33501	 20.95729	  5.78209	 11.41260	 -0.80716	 25.79794	703.69000	 22.20	
 13.601	-158.353	 23.25597	 -1.00202	 20.48447	  4.60309	 12.77203	 -0.78513	 25.78630	703.62000	 22.20	
 13.609	-151.210	 23.28093	 -0.55322	 19.86082	  3.49310	 14.12385	 -0.78332	 25.79613	703.63000	 22.20	
 13.611	-143.999	 23.30318	  0.04257	 19.06278	  2.47700	 15.43162	 -0.75230	 25.79182	703.59998	 22.20	
 13.601	-136.825	 23.32852	  0.77481	 18.11561	  1.59907	 16.59457	 -0.73174	 25.79536	703.70001	 22.20	
 13.596	-129.640	 23.36300	  1.65148	 17.04843	  0.86293	 17.65729	 -0.68552	 25.79075	703.65997	 22.20	
 13.611	-122.431	 23.38091	  2.63092	 15.83974	  0.22619	 18.59445	 -0.68366	 25.78571	703.73999	 22.20	
 13.604	-115.211	 23.41270	  3.73135	 14.55180	 -0.25607	 19.37644	 -0.68246	 25.78336	703.70001	 22.20	
 13.595	-108.042	 23.45470	  4.95067	 13.22731	 -0.58498	 19.96857	 -0.69464	 25.79243	703.73999	 22.30	
 13.607	-100.793	 23.49741	  6.22195	 11.86679	 -0.79452	 20.39591	 -0.68772	 25.79801	703.70001	 22.30	
 13.601	-93.617	 23.54481	  7.57701	 10.50034	 -0.85928	 20.61544	 -0.68158	 25.79212	703.73999	 22.30	
 13.601	-86.383	 23.57955	  8.95902	  9.15415	 -0.83841	 20.63983	 -0.67541	 25.78718	703.71002	 22.30	
 13.607	-79.207	 23.62673	 10.36607	  7.85831	 -0.71052	 20.47285	 -0.67091	 25.78135	703.64001	 22.30	
 13.595	-71.958	 23.68692	 11.80109	  6.62058	 -0.41145	 20.10279	 -0.69241	 25.79744	703.65002	 22.30	
 13.604	-64.789	 23.71757	 13.18182	  5.44211	 -0.01880	 19.56465	 -0.72382	 25.78969	703.65002	 22.30	
 13.611	-57.569	 23.76653	 14.51891	  4.36763	  0.54742	 18.82555	 -0.73711	 25.79228	703.67999	 22.30	
 13.596	-50.360	 23.82262	 15.77809	  3.40090	  1.26851	 17.92643	 -0.74357	 25.79034	703.67999	 22.30	
 13.601	-43.175	 23.86053	 16.90493	  2.55821	  2.11563	 16.88519	 -0.71854	 25.78646	703.71002	 22.30	
 13.611	-36.001	 23.89471	 17.89519	  1.83972	  3.08946	 15.72896	 -0.70628	 25.79449	703.69000	 22.30	
 13.609	-28.790	 23.91837	 18.71934	  1.25970	  4.17743	 14.45379	 -0.68957	 25.78920	703.65002	 22.30	
 13.601	-21.647	 23.95544	 19.38073	  0.81115	  5.34761	 13.12330	 -0.68302	 25.79960	703.66998	 22.40	
 13.611	-14.417	 23.95267	 19.84407	  0.48111	  6.57902	 11.73342	 -0.68244	 25.79063	703.64001	 22.40	
 13.608	 -7.147	 23.98519	 20.14581	  0.28590	  7.93734	 10.29368	 -0.65619	 25.80778	703.70001	 22.40	
 13.600	  0.000	 23.98145	 20.21009	  0.23695	  9.30942	  8.89199	 -0.61962	 25.80220	703.63000	 22.40	
 13.608	  7.147	 23.96587	 20.08823	  0.28468	 10.68081	  7.53092	 -0.57701	 25.79576	703.71997	 22.40	
 13.611	 14.417	 23.95029	 19.76824	  0.45232	 12.12345	  6.21130	 -0.55864	 25.80297	703.63000	 22.40	
 13.601	 21.647	 23.94123	 19.22930	  0.79812	 13.52722	  4.97669	 -0.57061	 25.80725	703.71997	 22.40	
 13.609	 28.790	 23.92211	 18.53013	  1.23727	 14.82916	  3.83371	 -0.61853	 25.79560	703.69000	 22.40	
 13.611	 36.001	 23.90441	 17.64793	  1.83459	 16.09287	  2.76865	 -0.63587	 25.80009	703.63000	 22.40	
 13.601	 43.175	 23.86859	 16.62816	  2.54442	 17.22594	  1.82254	 -0.67012	 25.80202	703.65002	 22.40	
 13.596	 50.360	 23.83779	 15.46148	  3.40561	 18.22478	  1.01562	 -0.69675	 25.79935	703.66998	 22.50	
 13.611	 57.569	 23.80555	 14.18568	  4.38442	 19.07943	  0.37250	 -0.73512	 25.79778	703.62000	 22.50	
 13.604	 64.789	 23.76826	 12.81837	  5.45539	 19.77379	 -0.16140	 -0.79130	 25.80525	703.71002	 22.50	
 13.595	 71.958	 23.72644	 11.41923	  6.62142	 20.27414	 -0.53154	 -0.83499	 25.79468	703.65997	 22.50	
 13.607	 79.207	 23.68262	  9.98275	  7.86564	 20.60807	 -0.77156	 -0.84000	 25.80654	703.79999	 22.50	
 13.601	 86.383	 23.62333	  8.55161	  9.16388	 20.72686	 -0.89608	 -0.81710	 25.79297	703.66998	 22.50	
 13.601	 93.617	 23.59024	  7.17765	 10.51930	 20.67255	 -0.90928	 -0.81316	 25.80832	703.83002	 22.50	
 13.607	100.793	 23.51350	  5.82664	 11.88670	 20.42281	 -0.85489	 -0.83651	 25.79427	703.62000	 22.50	
 13.595	108.042	 23.46951	  4.58769	 13.25391	 19.95768	 -0.59905	 -0.85392	 25.80406	703.70001	 22.50	
 13.604	115.211	 23.42862	  3.41726	 14.57519	 19.33309	 -0.23113	 -0.88854	 25.78819	703.65002	 22.50	
 13.611	122.431	 23.39288	  2.30696	 15.87102	 18.54122	  0.26741	 -0.91150	 25.80389	703.67999	 22.50	
 13.596	129.640	 23.34294	  1.34212	 17.04920	 17.57964	  0.92649	 -0.89847	 25.79614	703.71997	 22.50	
 13.601	136.825	 23.31931	  0.51252	 18.10312	 16.50729	  1.70985	 -0.89521	 25.80220	703.73999	 22.60	
 13.611	143.999	 23.29055	 -0.19403	 19.05066	 15.28869	  2.64222	 -0.92590	 25.79699	703.72998	 22.60	
 13.609	151.210	 23.27943	 -0.74383	 19.85330	 13.96083	  3.69381	 -0.93843	 25.80702	703.70001	 22.60	
 13.601	158.353	 23.24014	 -1.17488	 20.46470	 12.61325	  4.77990	 -0.95711	 25.79165	703.70001	 22.60	
 13.611	165.583	 23.22321	 -1.44675	 20.92964	 11.20548	  5.99637	 -0.93546	 25.79386	703.70001	 22.60	
 13.608	172.853	 23.22556	 -1.60227	 21.20765	  9.77589	  7.27086	 -0.90732	 25.79667	703.87000	 22.60	
 15.298	173.587	 22.53572	 -2.98289	 22.05230	  9.19351	  6.73100	 -1.05415	 25.79919	703.83002	 22.60	
 15.291	167.167	 22.53718	 -2.87837	 21.80769	 10.58764	  5.45802	 -1.09971	 25.79831	703.77002	 22.60	
 15.307	160.676	 22.53323	 -2.65603	 21.40381	 11.99326	  4.22157	 -1.13769	 25.79204	703.71002	 22.60	
 15.300	154.261	 22.55358	 -2.28212	 20.83115	 13.37406	  3.08847	 -1.16204	 25.79563	703.81000	 22.60	
 15.288	147.854	 22.59367	 -1.83479	 20.12571	 14.72391	  2.02308	 -1.16744	 25.81145	703.78998	 22.60	
 15.293	141.428	 22.61077	 -1.25328	 19.25623	 16.01412	  1.07029	 -1.14414	 25.80486	703.72998	 22.70	
 15.299	134.985	 22.63910	 -0.56873	 18.28588	 17.18706	  0.27389	 -1.15326	 25.79621	703.72998	 22.70	
 15.305	128.583	 22.67109	  0.22047	 17.21038	 18.25763	 -0.40829	 -1.17205	 25.80728	703.83002	 22.70	
 15.309	122.142	 22.68714	  1.14972	 16.00897	 19.20168	 -1.03713	 -1.18963	 25.79232	703.70001	 22.70	
 15.304	115.711	 22.73998	  2.24073	 14.72105	 20.02169	 -1.55241	 -1.17497	 25.80284	703.84003	 22.70	
 15.297	109.291	 22.77436	  3.42124	 13.38454	 20.66272	 -1.94261	 -1.14771	 25.79805	703.76001	 22.70	
 15.293	102.897	 22.82141	  4.62425	 12.03496	 21.15075	 -2.18792	 -1.12188	 25.79050	703.79999	 22.70	
 15.293	 96.458	 22.88743	  5.92868	 10.64889	 21.47971	 -2.32195	 -1.11251	 25.79994	703.75000	 22.70	
 15.300	 90.000	 22.94149	  7.31055	  9.28851	 21.61871	 -2.35993	 -1.11817	 25.79212	703.77002	 22.70	
 15.293	 83.542	 22.99474	  8.71667	  7.96885	 21.59862	 -2.28870	 -1.13739	 25.79707	703.85999	 22.70	
 15.293	 77.103	 23.03254	 10.16411	  6.67368	 21.39618	 -2.11338	 -1.16015	 25.79684	703.85999	 22.70	
 15.297	 70.709	 23.08037	 11.57324	  5.48428	 21.03444	 -1.85277	 -1.14684	 25.80246	703.88000	 22.70	
 15.304	 64.289	 23.11336	 12.95553	  4.36157	 20.49681	 -1.47968	 -1.10096	 25.78854	703.84998	 22.70	
 15.309	 57.858	 23.15594	 14.32757	  3.29824	 19.81016	 -0.99156	 -1.04363	 25.79896	703.81000	 22.70	
 15.305	 51.417	 23.19862	 15.63106	  2.34066	 18.96014	 -0.38566	 -0.99761	 25.80169	703.77002	 22.80	
 15.299	 45.015	 23.22951	 16.81142	  1.50274	 17.97987	  0.32697	 -0.96462	 25.80101	703.82001	 22.80	
 15.293	 38.572	 23.25054	 17.87587	  0.76717	 16.88615	  1.18509	 -0.93442	 25.78698	703.85999	 22.80	
 15.288	 32.146	 23.28009	 18.82556	  0.14573	 15.66075	  2.18549	 -0.90281	 25.79335	703.78998	 22.80	
 15.300	 25.739	 23.29634	 19.63481	 -0.37941	 14.36144	  3.27566	 -0.87499	 25.79621	703.73999	 22.80	
 15.307	 19.324	 23.31221	 20.27828	 -0.77119	 13.03076	  4.43481	 -0.84319	 25.80425	703.91998	 22.80	
 15.291	 12.833	 23.33885	 20.75126	 -1.02743	 11.61497	  5.71663	 -0.82678	 25.80545	703.96002	 22.80	
 15.298	  6.413	 23.35166	 21.04071	 -1.16637	 10.19042	  7.02422	 -0.84020	 25.80648	703.90002	 22.80	
 15.300	  0.000	 23.35246	 21.14024	 -1.19578	  8.80573	  8.38153	 -0.87042	 25.79080	703.90997	 22.80	
 15.298	 -6.413	 23.35230	 21.06825	 -1.13709	  7.43873	  9.77876	 -0.89770	 25.79679	703.81000	 22.80	
 15.291	-12.833	 23.34510	 20.82752	 -0.98101	  6.11056	 11.21359	 -0.91089	 25.80284	703.72998	 22.80	
 15.307	-19.324	 23.32847	 20.42406	 -0.72811	  4.84975	 12.61571	 -0.89417	 25.79539	703.72998	 22.90	
 15.300	-25.739	 23.31330	 19.84364	 -0.34477	  3.66156	 13.99324	 -0.87982	 25.80180	703.75000	 22.90	
 15.288	-32.146	 23.29874	 19.09264	  0.15789	  2.56269	 15.31761	 -0.86010	 25.80817	703.78998	 22.90	
 15.293	-38.572	 23.26322	 18.18635	  0.77421	  1.59166	 16.53804	 -0.85875	 25.79961	703.83002	 22.90	
 15.299	-45.015	 23.22243	 17.14442	  1.49818	  0.69850	 17.66414	 -0.84303	 25.79212	703.78998	 22.90	
 15.305	-51.417	 23.17766	 15.99797	  2.32277	 -0.08260	 18.69339	 -0.84980	 25.79918	703.90002	 22.90	
 15.309	-57.858	 23.12477	 14.73028	  3.26658	 -0.75318	 19.56195	 -0.83087	 25.79305	703.89001	 22.90	
 15.304	-64.289	 23.07758	 13.38435	  4.33728	 -1.27498	 20.29812	 -0.81155	 25.78913	703.82001	 22.90	
 15.297	-70.709	 23.04371	 12.00817	  5.48203	 -1.65957	 20.86255	 -0.77795	 25.79945	703.77002	 22.90	
 15.293	-77.103	 23.00262	 10.60810	  6.69031	 -1.94040	 21.26155	 -0.74686	 25.79424	703.85999	 22.90	
 15.293	-83.542	 22.96712	  9.17828	  7.98060	 -2.11940	 21.49867	 -0.72595	 25.79654	703.81000	 22.90	
 15.300	-90.000	 22.90377	  7.76354	  9.28595	 -2.21357	 21.55019	 -0.73151	 25.78518	703.88000	 22.90	
 15.293	-96.458	 22.87401	  6.39103	 10.64476	 -2.20867	 21.45831	 -0.73758	 25.80972	703.90002	 23.00	
 15.293	-102.897	 22.82845	  5.06336	 12.01580	 -2.09604	 21.16838	 -0.74005	 25.79776	703.94000	 23.00	
 15.297	-109.291	 22.76494	  3.82468	 13.35716	 -1.87169	 20.69430	 -0.73083	 25.77974	703.90997	 23.00	
 15.304	-115.711	 22.71598	  2.66408	 14.65788	 -1.57767	 20.09651	 -0.74123	 25.77896	703.88000	 23.00	
 15.309	-122.142	 22.68744	  1.59466	 15.93525	 -1.21164	 19.33369	 -0.73080	 25.79502	703.85999	 23.00	
 15.305	-128.583	 22.65207	  0.63988	 17.13987	 -0.62416	 18.42764	 -0.75058	 25.79885	703.79999	 23.00	
 15.299	-134.985	 22.64118	 -0.19291	 18.24800	  0.11023	 17.37587	 -0.79439	 25.79304	703.92999	 23.00	
 15.293	-141.428	 22.61437	 -0.91454	 19.23940	  0.94848	 16.20968	 -0.83173	 25.79202	703.84998	 23.00	
 15.288	-147.854	 22.59021	 -1.54912	 20.10246	  1.86375	 14.96792	 -0.89224	 25.79251	703.88000	 23.00	
 15.300	-154.261	 22.56849	 -2.06636	 20.83052	  2.88965	 13.65563	 -0.91244	 25.79809	703.81000	 23.00	
 15.307	-160.676	 22.54893	 -2.46260	 21.39426	  4.02269	 12.26953	 -0.94449	 25.79094	703.84003	 23.00	
 15.291	-167.167	 22.54616	 -2.72527	 21.79487	  5.21693	 10.87138	 -0.97565	 25.79224	703.83002	 23.00	
 15.298	-173.587	 22.54214	 -2.91889	 22.03360	  6.48940	  9.46483	 -1.00766	 25.79847	703.96997	 23.00	
 15.300	180.000	 22.54272	 -3.00332	 22.12034	  7.83215	  8.08031	 -1.04292	 25.80136	703.90997	 23.00	
 17.000	180.000	 21.74806	 -4.34382	 22.87161	  7.19005	  7.48087	 -1.12698	 25.79684	703.97998	 23.10	
 16.990	-174.179	 21.76831	 -4.28422	 22.80359	  5.87008	  8.86259	 -1.07730	 25.81355	704.06000	 23.10	
 17.009	-168.383	 21.75980	 -4.14230	 22.58809	  4.58046	 10.25005	 -1.02549	 25.79155	704.03998	 23.10	
 17.000	-162.596	 21.79030	 -3.88004	 22.23898	  3.42925	 11.63878	 -0.97983	 25.80422	704.04999	 23.10	
 16.990	-156.759	 21.79863	 -3.53415	 21.71321	  2.29583	 13.02822	 -0.92062	 25.79562	703.97998	 23.10	
 16.995	-150.919	 21.81486	 -3.12139	 21.07105	  1.24460	 14.39571	 -0.89335	 25.80612	703.96997	 23.10	
 16.988	-145.161	 21.83722	 -2.60491	 20.28768	  0.35114	 15.64363	 -0.84795	 25.79935	703.90002	 23.10	
 17.014	-139.343	 21.84960	 -1.97643	 19.37424	 -0.51911	 16.87790	 -0.79868	 25.79578	703.84998	 23.10	
 17.007	-133.546	 21.87817	 -1.24656	 18.34939	 -1.28446	 18.03108	 -0.75851	 25.80676	703.90997	 23.10	
 17.001	-127.699	 21.90262	 -0.40558	 17.20981	 -1.95245	 19.08049	 -0.73223	 25.79781	703.96997	 23.10	
 17.006	-121.937	 21.93942	  0.52603	 16.02534	 -2.46147	 19.96717	 -0.71635	 25.80221	703.85999	 23.10	
 17.002	-116.134	 21.97626	  1.58062	 14.74658	 -2.86485	 20.71202	 -0.70931	 25.79647	704.03998	 23.10	
 17.001	-110.310	 22.02653	  2.71155	 13.40811	 -3.19977	 21.37056	 -0.70100	 25.80741	703.92999	 23.10	
 16.988	-104.517	 22.03716	  3.90952	 12.05871	 -3.45105	 21.83739	 -0.70544	 25.79263	703.98999	 23.20	
 17.008	-98.662	 22.07972	  5.18333	 10.68051	 -3.61409	 22.19751	 -0.70033	 25.78854	704.03003	 23.20	
 16.996	-92.909	 22.14248	  6.52046	  9.34801	 -3.63091	 22.37224	 -0.69275	 25.80140	704.02002	 23.20	
 16.996	-87.091	 22.18477	  7.90302	  8.02713	 -3.59123	 22.41204	 -0.69148	 25.80874	703.89001	 23.20	
 17.012	-81.253	 22.20845	  9.31471	  6.70362	 -3.49105	 22.28329	 -0.71080	 25.79064	703.84998	 23.20	
 16.988	-75.483	 22.27196	 10.72740	  5.48580	 -3.26002	 21.98668	 -0.74152	 25.79784	703.85999	 23.20	
 17.001	-69.690	 22.32592	 12.13724	  4.31899	 -2.94979	 21.55937	 -0.77579	 25.80402	703.94000	 23.20	
 17.002	-63.866	 22.36255	 13.52020	  3.20492	 -2.55531	 20.95961	 -0.80266	 25.79772	703.96002	 23.20	
 17.006	-58.063	 22.40341	 14.85711	  2.15994	 -2.06189	 20.22083	 -0.81677	 25.78949	704.03998	 23.20	
 17.001	-52.301	 22.45299	 16.11600	  1.24319	 -1.47028	 19.37612	 -0.84946	 25.79669	703.96002	 23.20	
 17.007	-46.454	 22.50468	 17.30422	  0.40797	 -0.75334	 18.39162	 -0.87478	 25.80665	703.95001	 23.20	
 17.014	-40.657	 22.52559	 18.38339	 -0.33477	  0.06453	 17.27752	 -0.90371	 25.81010	703.96002	 23.20	
 16.988	-34.839	 22.56228	 19.32927	 -0.94342	  1.00803	 16.05585	 -0.92481	 25.78803	703.92999	 23.20	
 16.995	-29.081	 22.58879	 20.15774	 -1.46404	  2.00379	 14.80186	 -0.95687	 25.79942	703.92999	 23.20	
 16.990	-23.241	 22.61326	 20.82996	 -1.86318	  3.13349	 13.43754	 -1.01048	 25.80039	703.92999	 23.30	
 17.000	-17.404	 22.63995	 21.34841	 -2.17351	  4.34039	 12.04941	 -1.04364	 25.79086	703.96002	 23.30	
 17.009	-11.617	 22.65289	 21.72796	 -2.40366	  5.56517	 10.66803	 -1.05901	 25.79212	703.96002	 23.30	
 16.990	 -5.821	 22.67656	 21.93976	 -2.52171	  6.90576	  9.25453	 -1.07365	 25.79786	703.96997	 23.30	
 17.000	  0.000	 22.66174	 22.00706	 -2.59234	  8.26535	  7.83044	 -1.07472	 25.80464	703.90997	 23.30	
 16.990	  5.821	 22.66252	 21.90041	 -2.55044	  9.63651	  6.49612	 -1.07539	 25.80123	704.03003	 23.30	
 17.009	 11.617	 22.65095	 21.65969	 -2.44561	 11.05977	  5.15256	 -1.06842	 25.81840	704.06000	 23.30	
 17.000	 17.404	 22.63355	 21.22379	 -2.20816	 12.46082	  3.89411	 -1.08724	 25.80739	703.92999	 23.30	
 16.990	 23.241	 22.61048	 20.64067	 -1.87454	 13.81768	  2.72465	 -1.12023	 25.80835	704.01001	 23.30	
 16.995	 29.081	 22.59029	 19.90241	 -1.45360	 15.14550	  1.64714	 -1.18568	 25.79657	704.03998	 23.30	
 16.988	 34.839	 22.58420	 19.04809	 -0.92041	 16.41574	  0.67018	 -1.23039	 25.82425	704.03998	 23.30	
 17.014	 40.657	 22.53827	 18.06540	 -0.30637	 17.56362	 -0.20646	 -1.26041	 25.80318	704.03998	 23.30	
 17.007	 46.454	 22.48813	 16.92269	  0.43457	 18.64301	 -1.00869	 -1.29198	 25.79955	704.04999	 23.30	
 17.001	 52.301	 22.46099	 15.70726	  1.27441	 19.61946	 -1.68667	 -1.31820	 25.79465	703.96002	 23.30	
 17.006	 58.063	 22.42007	 14.41849	  2.19605	 20.44875	 -2.26557	 -1.36850	 25.79855	703.96002	 23.30	
 17.002	 63.866	 22.38391	 13.05429	  3.22944	 21.14060	 -2.71486	 -1.41920	 25.79702	703.97998	 23.30	
 17.001	 69.690	 22.35264	 11.65766	  4.34173	 21.68934	 -3.07429	 -1.48106	 25.80463	704.09003	 23.30	
 16.988	 75.483	 22.32785	 10.25733	  5.50735	 22.09491	 -3.33841	 -1.50497	 25.80726	704.03998	 23.30	
 17.012	 81.253	 22.26136	  8.83701	  6.72171	 22.34647	 -3.55658	 -1.50016	 25.79673	704.12000	 23.40	
 16.996	 87.091	 22.21265	  7.41496	  8.03312	 22.43643	 -3.64793	 -1.46186	 25.79506	704.00000	 23.40	
 16.996	 92.909	 22.16658	  6.05285	  9.36071	 22.37670	 -3.65143	 -1.45134	 25.80042	703.91998	 23.40	
 17.008	 98.662	 22.10450	  4.71449	 10.70963	 22.17455	 -3.58410	 -1.45977	 25.79398	704.04999	 23.40	
 16.988	104.517	 22.07731	  3.45213	 12.10190	 21.79548	 -3.37179	 -1.47842	 25.80600	704.00000	 23.40	
 17.001	110.310	 22.01370	  2.26284	 13.42915	 21.27760	 -3.11855	 -1.49889	 25.79856	704.02002	 23.40	
 17.002	116.134	 21.95222	  1.13584	 14.75018	 20.61575	 -2.77020	 -1.51062	 25.79167	703.96997	 23.40	
 17.006	121.937	 21.91838	  0.12764	 16.03201	 19.81558	 -2.31075	 -1.52198	 25.80106	704.01001	 23.40	
 17.001	127.699	 21.88364	 -0.76433	 17.22219	 18.87611	 -1.72045	 -1.49721	 25.79559	704.08002	 23.40	
 17.007	133.546	 21.85302	 -1.58949	 18.35639	 17.79793	 -1.07656	 -1.45173	 25.80382	704.10999	 23.40	
 17.014	139.343	 21.82684	 -2.27552	 19.39001	 16.63206	 -0.31703	 -1.43337	 25.79998	704.12000	 23.40	
 16.988	145.161	 21.79327	 -2.85586	 20.27785	 15.39300	  0.53420	 -1.43741	 25.80018	704.09003	 23.40	
 16.995	150.919	 21.77637	 -3.31460	 21.04457	 14.09554	  1.49213	 -1.42554	 25.79940	704.09003	 23.40	
 16.990	156.759	 21.77110	 -3.69926	 21.68964	 12.72605	  2.53549	 -1.37605	 25.79894	704.10999	 23.40	
 17.000	162.596	 21.75504	 -4.01757	 22.21024	 11.35174	  3.64871	 -1.33433	 25.80336	704.07001	 23.40	
 17.009	168.383	 21.74874	 -4.23395	 22.58050	  9.96003	  4.85910	 -1.28019	 25.80404	704.02002	 23.40	
 16.990	174.179	 21.75150	 -4.33033	 22.79674	  8.55819	  6.16802	 -1.20229	 25.80304	704.09003	 23.40	
 18.709	174.675	 20.87534	 -5.63896	 23.47935	  7.84284	  5.56018	 -1.25702	 25.80378	704.14001	 23.40	
 18.703	169.441	 20.87360	 -5.56171	 23.29043	  9.20650	  4.28004	 -1.35428	 25.80017	704.12000	 23.50	
 18.691	164.085	 20.89537	 -5.36457	 22.95222	 10.61771	  3.09450	 -1.40942	 25.80114	704.07001	 23.40	
 18.706	158.818	 20.89681	 -5.11887	 22.50242	 11.98419	  1.97368	 -1.47605	 25.81132	704.12000	 23.50	
 18.695	153.537	 20.91654	 -4.76404	 21.89553	 13.35985	  0.92816	 -1.52884	 25.80408	704.00000	 23.50	
 18.704	148.255	 20.92967	 -4.35341	 21.19359	 14.69806	 -0.03834	 -1.57706	 25.80023	704.03003	 23.50	
 18.698	142.952	 20.95148	 -3.86944	 20.36682	 15.96297	 -0.92355	 -1.60507	 25.79948	704.03003	 23.50	
 18.699	137.625	 20.97990	 -3.26920	 19.42480	 17.20261	 -1.80354	 -1.47890	 25.75409	704.01001	 23.50	
 18.705	132.343	 20.99444	 -2.58605	 18.37009	 18.34856	 -2.50435	 -1.52652	 25.74904	704.09003	 23.50	
 18.713	127.067	 21.03023	 -1.80727	 17.22678	 19.40207	 -3.14184	 -1.58288	 25.75613	704.01001	 23.50	
 18.700	121.794	 21.07164	 -0.91514	 16.02486	 20.32250	 -3.65847	 -1.60314	 25.74602	704.13000	 23.50	
 18.698	116.504	 21.11939	  0.06139	 14.77598	 21.13421	 -4.08012	 -1.60599	 25.75103	704.12000	 23.50	
 18.707	111.165	 21.15204	  1.12831	 13.44509	 21.82198	 -4.44194	 -1.62129	 25.75522	704.13000	 23.50	
 18.690	105.863	 21.20487	  2.28120	 12.09470	 22.37154	 -4.72176	 -1.61043	 25.75770	704.20001	 23.50	
 18.696	100.583	 21.24208	  3.49977	 10.74380	 22.77271	 -4.91355	 -1.61180	 25.74429	704.15002	 23.50	
 18.700	 95.309	 21.30434	  4.78115	  9.38953	 23.04619	 -5.02549	 -1.59491	 25.74632	704.08002	 23.50	
 18.700	 90.000	 21.36216	  6.10984	  8.06570	 23.18221	 -5.06983	 -1.60415	 25.76218	704.15002	 23.50	
 18.700	 84.691	 21.40660	  7.48337	  6.76606	 23.15766	 -5.00742	 -1.61549	 25.74125	704.09998	 23.50	
 18.696	 79.417	 21.45217	  8.88741	  5.50979	 22.98991	 -4.85984	 -1.63972	 25.73662	704.03998	 23.60	
 18.690	 74.137	 21.50558	 10.29827	  4.31848	 22.72056	 -4.67721	 -1.63034	 25.74623	704.07001	 23.60	
 18.707	 68.835	 21.53575	 11.69813	  3.18272	 22.28028	 -4.40196	 -1.60349	 25.74443	704.09003	 23.60	
 18.698	 63.496	 21.58776	 13.12656	  2.11532	 21.71164	 -4.01432	 -1.54963	 25.74653	704.04999	 23.60	
 18.700	 58.206	 21.63336	 14.49960	  1.10459	 21.02571	 -3.58374	 -1.49296	 25.75754	704.03998	 23.60	
 18.713	 52.933	 21.65868	 15.78026	  0.21556	 20.21471	 -3.07899	 -1.45306	 25.75228	704.07001	 23.60	
 18.705	 47.657	 21.69051	 17.00828	 -0.61116	 19.26372	 -2.45102	 -1.41697	 25.75294	704.15997	 23.60	
 18.699	 42.375	 21.72894	 18.15745	 -1.34211	 18.19844	 -1.71304	 -1.38934	 25.74980	704.09998	 23.60	
 18.698	 37.048	 21.77419	 19.20205	 -1.96607	 17.04762	 -0.87986	 -1.35276	 25.76179	704.14001	 23.60	
 18.704	 31.745	 21.78274	 20.08903	 -2.52782	 15.84036	  0.00531	 -1.31057	 25.75706	704.09003	 23.60	
 18.695	 26.463	 21.80995	 20.88629	 -2.96453	 14.55253	  1.00715	 -1.25572	 25.74906	704.03003	 23.60	
 18.706	 21.182	 21.82094	 21.56630	 -3.34730	 13.19377	  2.09990	 -1.21303	 25.76261	704.12000	 23.60	
 18.691	 15.915	 21.84448	 22.08920	 -3.61388	 11.84029	  3.25222	 -1.17138	 25.75484	704.12000	 23.60	
 18.703	 10.559	 21.85544	 22.48587	 -3.82330	 10.41557	  4.52224	 -1.12368	 25.75876	704.23999	 23.60	
 18.709	  5.325	 21.86827	 22.72063	 -3.91859	  9.04237	  5.80403	 -1.09639	 25.75236	704.21002	 23.60	
 18.700	  0.000	 21.86934	 22.81303	 -3.95338	  7.66500	  7.14502	 -1.06860	 25.74520	704.02002	 23.60	
 18.709	 -5.325	 21.87342	 22.77126	 -3.90552	  6.31759	  8.54055	 -1.02521	 25.75566	704.07001	 23.60	
 18.703	-10.559	 21.86588	 22.56297	 -3.77640	  5.02164	  9.93168	 -0.99796	 25.74590	704.09003	 23.60	
 18.691	-15.915	 21.87095	 22.21883	 -3.56635	  3.78555	 11.34251	 -0.95022	 25.75940	704.09998	 23.60	
 18.706	-21.182	 21.82896	 21.73202	 -3.29588	  2.59238	 12.71745	 -0.92379	 25.73191	704.07001	 23.60	
 18.695	-26.463	 21.81909	 21.11934	 -2.95164	  1.47626	 14.09108	 -0.86835	 25.74509	704.04999	 23.60	
 18.704	-31.745	 21.79576	 20.38362	 -2.52031	  0.47068	 15.36815	 -0.81825	 25.74000	704.03998	 23.60	
 18.698	-37.048	 21.75913	 19.50150	 -1.99266	 -0.50799	 16.64401	 -0.78230	 25.75540	704.03003	 23.70	
 18.699	-42.375	 21.73071	 18.50015	 -1.37773	 -1.35360	 17.82776	 -0.74749	 25.75190	704.03003	 23.70	
 18.705	-47.657	 21.69271	 17.38245	 -0.63932	 -2.11941	 18.91142	 -0.71528	 25.74789	704.03003	 23.70	
 18.713	-52.933	 21.65002	 16.19830	  0.17957	 -2.76515	 19.87161	 -0.68794	 25.74870	704.10999	 23.70	
 18.700	-58.206	 21.59938	 14.93500	  1.07026	 -3.33204	 20.71548	 -0.63697	 25.74675	704.03003	 23.70	
 18.698	-63.496	 21.54936	 13.60137	  2.05721	 -3.81611	 21.44241	 -0.61672	 25.74631	704.14001	 23.70	
 18.707	-68.835	 21.49055	 12.19701	  3.14656	 -4.20935	 22.05637	 -0.59348	 25.73897	704.06000	 23.70	
 18.690	-74.137	 21.45023	 10.80720	  4.30757	 -4.51072	 22.52531	 -0.58214	 25.74339	704.00000	 23.70	
 18.696	-79.417	 21.40781	  9.40681	  5.49622	 -4.73813	 22.84914	 -0.56385	 25.74925	704.14001	 23.70	
 18.700	-84.691	 21.36465	  7.99347	  6.74977	 -4.88186	 23.03492	 -0.54698	 25.73949	704.07001	 23.70	
 18.700	-90.000	 21.32636	  6.62510	  8.03549	 -4.95170	 23.07975	 -0.53242	 25.75260	704.12000	 23.70	
 18.700	-95.309	 21.27628	  5.29191	  9.35934	 -4.94115	 22.98509	 -0.52179	 25.74456	704.02002	 23.70	
 18.696	-100.583	 21.22461	  3.99489	 10.68877	 -4.88592	 22.74410	 -0.51865	 25.73570	704.02002	 23.70	
 18.690	-105.863	 21.18988	  2.77110	 12.04777	 -4.73470	 22.36045	 -0.52237	 25.74165	704.09998	 23.70	
 18.707	-111.165	 21.15133	  1.60775	 13.38253	 -4.51375	 21.87486	 -0.53243	 25.74264	704.00000	 23.70	
 18.698	-116.504	 21.11448	  0.49489	 14.72433	 -4.16363	 21.19917	 -0.53467	 25.73664	704.13000	 23.70	
 18.700	-121.794	 21.08424	 -0.49012	 15.99964	 -3.75033	 20.41674	 -0.55021	 25.73304	703.97998	 23.70	
 18.713	-127.067	 21.05503	 -1.39675	 17.20543	 -3.26780	 19.53361	 -0.57444	 25.74220	703.97998	 23.70	
 18.705	-132.343	 21.01566	 -2.21292	 18.32498	 -2.69169	 18.51909	 -0.59500	 25.74052	704.10999	 23.70	
 18.699	-137.625	 20.98474	 -2.94918	 19.39631	 -1.98948	 17.40744	 -0.62956	 25.73613	704.08002	 23.70	
 18.698	-142.952	 20.97522	 -3.59646	 20.35308	 -1.19663	 16.20877	 -0.66508	 25.74599	704.12000	 23.70	
 18.704	-148.255	 20.94581	 -4.12401	 21.18735	 -0.32387	 14.92486	 -0.70162	 25.72890	704.08002	 23.70	
 18.695	-153.537	 20.92561	 -4.57584	 21.88835	  0.61265	 13.63025	 -0.74376	 25.73081	704.20001	 23.70	
 18.706	-158.818	 20.91669	 -4.94973	 22.50265	  1.65321	 12.26752	 -0.77793	 25.74069	704.14001	 23.80	
 18.691	-164.085	 20.90699	 -5.23982	 22.95392	  2.79366	 10.88850	 -0.84125	 25.74321	704.06000	 23.70	
 18.703	-169.441	 20.88155	 -5.45835	 23.28320	  3.96601	  9.49151	 -0.89201	 25.73161	704.04999	 23.80	
 18.709	-174.675	 20.86474	 -5.59406	 23.46892	  5.20553	  8.11475	 -0.96442	 25.73623	704.03003	 23.80	
 18.700	180.000	 20.87068	 -5.64457	 23.54326	  6.52907	  6.76090	 -1.04579	 25.73781	704.01001	 23.80	
 20.400	180.000	 19.92893	 -6.88195	 24.10654	  5.80951	  6.08980	 -1.02433	 25.73397	703.96997	 23.80	
 20.401	-175.153	 19.91174	 -6.85361	 24.03409	  4.52142	  7.39248	 -0.95668	 25.71490	703.94000	 23.80	
 20.407	-170.264	 19.94033	 -6.73268	 23.88969	  3.27268	  8.78370	 -0.87546	 25.73506	703.96997	 23.80	
 20.410	-165.423	 19.94971	 -6.56998	 23.59274	  2.12007	 10.11859	 -0.81991	 25.72666	703.95001	 23.80	
 20.392	-160.496	 19.96709	 -6.29252	 23.15319	  1.00955	 11.52248	 -0.76043	 25.71964	704.02002	 23.80	
 20.401	-155.705	 19.97696	 -5.99027	 22.63752	 -0.05042	 12.87827	 -0.70072	 25.72408	704.04999	 23.80	
 20.405	-150.835	 19.99412	 -5.59006	 21.97692	 -0.98184	 14.18769	 -0.67651	 25.71526	703.89001	 23.80	
 20.397	-145.903	 20.01150	 -5.11388	 21.17953	 -1.86803	 15.49517	 -0.63825	 25.70781	703.95001	 23.80	
 20.392	-141.062	 20.04953	 -4.56297	 20.30869	 -2.65105	 16.74364	 -0.62546	 25.72429	703.95001	 23.80	
 20.396	-136.227	 20.07423	 -3.91619	 19.33501	 -3.35039	 17.90698	 -0.59477	 25.72494	703.90997	 23.80	
 20.408	-131.372	 20.08545	 -3.22077	 18.27276	 -3.99475	 18.98239	 -0.56971	 25.71955	703.84998	 23.80	
 20.410	-126.511	 20.13256	 -2.43905	 17.11481	 -4.54884	 19.99710	 -0.55006	 25.72946	703.90997	 23.80	
 20.400	-121.604	 20.15058	 -1.54828	 15.88317	 -5.01851	 20.87977	 -0.52972	 25.71502	703.94000	 23.80	
 20.403	-116.741	 20.17549	 -0.59519	 14.61509	 -5.44245	 21.67149	 -0.51797	 25.72613	703.95001	 23.80	
 20.413	-111.900	 20.21050	  0.46564	 13.30669	 -5.75083	 22.31997	 -0.50350	 25.71569	704.00000	 23.80	
 20.398	-107.004	 20.26404	  1.62291	 11.96855	 -5.96537	 22.85236	 -0.50254	 25.71943	703.90002	 23.80	
 20.394	-102.132	 20.30903	  2.81233	 10.64100	 -6.08944	 23.24201	 -0.49002	 25.71975	703.90002	 23.80	
 20.403	-97.332	 20.34025	  4.02343	  9.31596	 -6.19869	 23.52065	 -0.50992	 25.70823	703.92999	 23.80	
 20.392	-92.440	 20.40313	  5.33256	  8.00760	 -6.20924	 23.67465	 -0.50370	 25.71943	703.95001	 23.90	
 20.392	-87.560	 20.42945	  6.65939	  6.72528	 -6.18756	 23.69077	 -0.49871	 25.71582	703.94000	 23.80	
 20.403	-82.668	 20.46987	  8.03209	  5.45782	 -6.10567	 23.60808	 -0.52086	 25.73777	703.90997	 23.80	
 20.394	-77.868	 20.52088	  9.41577	  4.26600	 -5.94603	 23.37254	 -0.53794	 25.72122	703.95001	 23.80	
 20.398	-72.996	 20.55963	 10.80002	  3.10368	 -5.70914	 23.02571	 -0.54914	 25.71616	703.96997	 23.90	
 20.413	-68.100	 20.58993	 12.19308	  1.96914	 -5.41926	 22.54434	 -0.55702	 25.71208	703.90997	 23.90	
 20.403	-63.259	 20.64643	 13.54986	  0.94876	 -5.05419	 21.93614	 -0.56882	 25.71609	703.96997	 23.90	
 20.400	-58.396	 20.69746	 14.87966	 -0.00285	 -4.59657	 21.20696	 -0.59711	 25.71747	703.87000	 23.90	
 20.410	-53.489	 20.75026	 16.16089	 -0.89661	 -4.05813	 20.36189	 -0.62191	 25.73418	703.96997	 23.90	
 20.408	-48.628	 20.78422	 17.38693	 -1.70438	 -3.42705	 19.37586	 -0.64139	 25.71853	703.95001	 23.90	
 20.396	-43.773	 20.82829	 18.50173	 -2.39241	 -2.71630	 18.32158	 -0.70028	 25.71707	703.90997	 23.90	
 20.392	-38.938	 20.85546	 19.51615	 -3.00088	 -1.95452	 17.20231	 -0.73895	 25.71209	703.84998	 23.90	
 20.397	-34.097	 20.90544	 20.45794	 -3.51466	 -1.07265	 16.01554	 -0.77594	 25.73019	703.96997	 23.90	
 20.405	-29.165	 20.92955	 21.28492	 -3.98934	 -0.10002	 14.69423	 -0.83179	 25.72729	703.90997	 23.90	
 20.401	-24.295	 20.92535	 21.95029	 -4.37522	  0.90893	 13.37527	 -0.87866	 25.71004	703.90002	 23.90	
 20.392	-19.504	 20.96923	 22.50781	 -4.66935	  2.02233	 12.03267	 -0.92099	 25.72658	703.96997	 23.90	
 20.410	-14.577	 20.99273	 22.96828	 -4.90817	  3.21934	 10.63299	 -0.96111	 25.73478	703.97998	 23.90	
 20.407	 -9.736	 21.00500	 23.27065	 -5.09058	  4.41699	  9.27170	 -1.02958	 25.73582	703.82001	 23.90	
 20.401	 -4.847	 21.00418	 23.43917	 -5.18327	  5.72397	  7.86655	 -1.07103	 25.72500	703.87000	 23.90	
 20.400	  0.000	 21.00207	 23.49063	 -5.22822	  7.04663	  6.51810	 -1.12763	 25.72950	703.83002	 23.90	
 20.401	  4.847	 20.98784	 23.39347	 -5.20115	  8.36076	  5.21223	 -1.17706	 25.72186	703.90997	 23.90	
 20.407	  9.736	 20.99109	 23.19332	 -5.12069	  9.75364	  3.92784	 -1.25363	 25.73265	703.95001	 23.90	
 20.410	 14.577	 20.94398	 22.83580	 -4.97617	 11.11141	  2.69197	 -1.31560	 25.70807	703.84998	 23.90	
 20.392	 19.504	 20.95235	 22.34625	 -4.70678	 12.53856	  1.52793	 -1.37817	 25.73294	703.90997	 23.90	
 20.401	 24.295	 20.91797	 21.72463	 -4.39475	 13.87673	  0.44025	 -1.43052	 25.72739	703.90997	 23.90	
 20.405	 29.165	 20.89716	 20.98507	 -4.00754	 15.18918	 -0.57426	 -1.50118	 25.72057	703.91998	 23.90	
 20.397	 34.097	 20.89548	 20.15006	 -3.51207	 16.45678	 -1.47028	 -1.54578	 25.71892	703.88000	 23.90	
 20.392	 38.938	 20.86717	 19.17972	 -2.94339	 17.65635	 -2.31457	 -1.61141	 25.72467	703.96997	 23.90	
 20.396	 43.773	 20.81542	 18.10958	 -2.30659	 18.74041	 -3.08881	 -1.64480	 25.70887	704.02002	 24.00	
 20.408	 48.628	 20.77959	 16.95669	 -1.60873	 19.74854	 -3.75784	 -1.68339	 25.71421	704.10999	 23.90	
 20.410	 53.489	 20.75846	 15.71705	 -0.79823	 20.67566	 -4.30583	 -1.71972	 25.72171	703.96997	 24.00	
 20.400	 58.396	 20.72960	 14.39047	  0.09293	 21.49407	 -4.80230	 -1.76670	 25.71965	704.07001	 24.00	
 20.403	 63.259	 20.67395	 13.02366	  1.03585	 22.17875	 -5.23151	 -1.80233	 25.70664	704.04999	 24.00	
 20.413	 68.100	 20.61291	 11.62974	  2.05009	 22.76702	 -5.60307	 -1.83774	 25.70872	703.98999	 24.00	
 20.398	 72.996	 20.58724	 10.23929	  3.14453	 23.21713	 -5.87933	 -1.85990	 25.72601	704.03998	 24.00	
 20.394	 77.868	 20.53811	  8.84460	  4.29005	 23.53393	 -6.06988	 -1.86718	 25.72393	704.02002	 24.00	
 20.403	 82.668	 20.49505	  7.46900	  5.48447	 23.72992	 -6.21177	 -1.88615	 25.72166	704.01001	 24.00	
 20.392	 87.560	 20.45250	  6.09763	  6.74153	 23.79584	 -6.28968	 -1.86397	 25.71818	704.06000	 24.00	
 20.392	 92.440	 20.39868	  4.77980	  8.02890	 23.74118	 -6.29144	 -1.86368	 25.72346	703.95001	 24.00	
 20.403	 97.332	 20.33668	  3.47831	  9.33730	 23.56699	 -6.26592	 -1.86371	 25.72396	704.04999	 24.00	
 20.394	102.132	 20.28514	  2.25887	 10.65923	 23.26058	 -6.14352	 -1.85847	 25.71962	703.97998	 24.00	
 20.398	107.004	 20.23266	  1.08750	 11.99728	 22.81568	 -5.92442	 -1.85592	 25.71578	704.03003	 24.00	
 20.413	111.900	 20.17685	 -0.02741	 13.33807	 22.25072	 -5.65499	 -1.84233	 25.70615	704.02002	 24.00	
 20.403	116.741	 20.15405	 -1.03712	 14.64869	 21.56389	 -5.30297	 -1.82082	 25.72025	704.10999	 24.00	
 20.400	121.604	 20.13084	 -1.97122	 15.91067	 20.75449	 -4.88136	 -1.78141	 25.73265	704.06000	 24.00	
 20.410	126.511	 20.07861	 -2.84542	 17.11114	 19.79967	 -4.39270	 -1.75723	 25.71333	704.03003	 24.00	
 20.408	131.372	 20.03462	 -3.61869	 18.24992	 18.76500	 -3.80032	 -1.69555	 25.71330	704.02002	 24.00	
 20.396	136.227	 20.02846	 -4.26497	 19.31217	 17.67028	 -3.13492	 -1.65398	 25.72749	703.97998	 24.00	
 20.392	141.062	 19.99894	 -4.83867	 20.29110	 16.47326	 -2.39529	 -1.59414	 25.72236	704.03003	 24.00	
 20.397	145.903	 19.97224	 -5.33804	 21.16948	 15.22286	 -1.59199	 -1.53407	 25.71860	704.04999	 24.00	
 20.405	150.835	 19.93444	 -5.78015	 21.94606	 13.90826	 -0.70746	 -1.48078	 25.71651	704.12000	 24.00	
 20.401	155.705	 19.91962	 -6.13790	 22.60956	 12.56113	  0.26101	 -1.42624	 25.71133	704.17999	 24.00	
 20.392	160.496	 19.92534	 -6.42419	 23.14274	 11.20635	  1.30454	 -1.34739	 25.72217	704.09998	 24.00	
 20.410	165.423	 19.90048	 -6.64035	 23.55931	  9.82524	  2.41234	 -1.26440	 25.70224	703.98999	 24.10	
 20.407	170.264	 19.90320	 -6.78252	 23.85075	  8.47287	  3.58027	 -1.17536	 25.71179	704.02002	 24.00	
 20.401	175.153	 19.89985	 -6.86230	 24.01770	  7.10317	  4.81630	 -1.08063	 25.69454	704.03003	 24.00	
  0.141	 45.000	 25.70564	 10.27026	 11.86311	 11.10268	 10.70765	  0.63985	 25.71425	704.08002	 24.10	
  4.001	128.691	 25.58416	  7.96631	 13.78569	 13.35362	  8.14190	  0.45715	 25.72276	704.12000	 24.10	
  4.002	 76.995	 25.65736	 10.70040	 11.05118	 14.15966	  7.60266	  0.59974	 25.72976	704.10999	 24.10	
  4.002	 25.892	 25.69285	 13.07538	  8.94847	 12.39408	  9.24582	  0.64765	 25.71304	704.10999	 24.10	
  4.002	-25.892	 25.69070	 13.12854	  8.95623	  9.53697	 12.09513	  0.58622	 25.73414	704.12000	 24.10	
  4.002	-76.995	 25.63883	 10.81341	 11.03115	  7.78231	 13.90658	  0.47518	 25.72183	704.21002	 24.10	
  4.001	-128.691	 25.57105	  8.04753	 13.79911	  8.27623	 13.16719	  0.39569	 25.71101	704.06000	 24.10	
  4.000	180.000	 25.55108	  6.88105	 15.05114	 10.68513	 10.54937	  0.40822	 25.72359	704.03998	 24.10	
  8.000	180.000	 24.90960	  3.38102	 17.88563	  9.96778	  9.93242	 -0.11704	 25.71544	704.08002	 24.10	
  7.991	-152.370	 24.93088	  4.03655	 17.09488	  7.06759	 13.04781	 -0.13093	 25.71310	704.08002	 24.10	
  7.997	-124.550	 24.98444	  5.89558	 14.92830	  5.00655	 15.61793	 -0.12124	 25.71161	704.06000	 24.10	
  8.006	-96.837	 25.08015	  8.76749	 11.94876	  4.21706	 16.90801	 -0.10846	 25.72316	704.04999	 24.10	
  7.988	-69.228	 25.17320	 11.92802	  8.98787	  4.65622	 16.52480	 -0.02518	 25.71988	704.09998	 24.10	
  7.997	-41.563	 25.26875	 14.68541	  6.68010	  6.33519	 14.62542	  0.06083	 25.71958	704.06000	 24.10	
  8.008	-13.821	 25.31133	 16.29857	  5.41599	  8.99077	 11.72413	  0.18170	 25.72237	703.33002	 24.10	
  8.008	 13.821	 25.30029	 16.24212	  5.40425	 12.10241	  8.60512	  0.23658	 25.71395	704.06000	 24.10	
  7.997	 41.563	 25.27276	 14.55794	  6.66367	 14.97445	  6.04847	  0.19019	 25.71134	704.07001	 24.10	
  7.988	 69.228	 25.20793	 11.72637	  8.98333	 16.78668	  4.49994	  0.13253	 25.72406	704.01001	 24.10	
  8.006	 96.837	 25.09071	  8.52454	 11.93628	 17.07602	  4.11100	  0.13741	 25.71579	704.07001	 24.10	
  7.997	124.550	 24.99204	  5.77064	 14.91362	 15.72270	  4.96662	  0.00471	 25.71389	704.09998	 24.10	
  7.991	152.370	 24.93630	  3.95183	 17.09586	 13.10961	  7.05338	 -0.07674	 25.70890	704.10999	 24.10	
 12.009	161.059	 23.77628	  0.09976	 19.80760	 12.19742	  5.98706	 -0.68082	 25.71371	704.03998	 24.10	
 12.013	142.081	 23.81530	  1.22196	 18.17799	 15.28207	  3.43366	 -0.61348	 25.71585	704.06000	 24.10	
 12.006	123.113	 23.89942	  3.30358	 15.64912	 17.78204	  1.56772	 -0.62296	 25.71331	704.09003	 24.10	
 12.007	104.200	 24.00634	  5.98342	 12.63960	 19.32723	  0.58637	 -0.54036	 25.71543	704.06000	 24.10	
 11.989	 85.301	 24.12532	  9.12292	  9.49366	 19.75248	  0.46600	 -0.51731	 25.70338	704.07001	 24.10	
 12.013	 66.294	 24.22076	 12.44193	  6.55953	 19.03425	  1.05915	 -0.48983	 25.70497	704.08002	 24.10	
 12.012	 47.388	 24.30785	 15.46074	  4.16037	 17.23804	  2.48405	 -0.40073	 25.71038	703.96002	 24.10	
 11.990	 28.440	 24.38241	 17.75594	  2.51910	 14.53143	  4.80344	 -0.31680	 25.72925	704.09998	 24.10	
 11.991	  9.464	 24.40652	 18.99620	  1.73045	 11.34591	  7.66185	 -0.28583	 25.71280	703.89001	 24.20	
 11.991	 -9.464	 24.42280	 19.04770	  1.75593	  8.12775	 10.89950	 -0.40198	 25.71649	703.89001	 24.20	
 11.990	-28.440	 24.37719	 17.91422	  2.56868	  5.21696	 14.08549	 -0.44235	 25.70770	704.04999	 24.20	
 12.012	-47.388	 24.28434	 15.72277	  4.19078	  2.81127	 16.84370	 -0.53955	 25.69243	704.02002	 24.20	
 12.013	-66.294	 24.20577	 12.78282	  6.59242	  1.30935	 18.75343	 -0.55670	 25.71465	704.12000	 24.20	
 11.989	-85.301	 24.10337	  9.49053	  9.52138	  0.66200	 19.57364	 -0.54963	 25.70361	704.16998	 24.20	
 12.007	-104.200	 23.99283	  6.31920	 12.64145	  0.74223	 19.22762	 -0.58817	 25.71257	704.10999	 24.20	
 12.006	-123.113	 23.90278	  3.56885	 15.67079	  1.65591	 17.71681	 -0.56775	 25.71081	704.21002	 24.20	
 12.013	-142.081	 23.83468	  1.48715	 18.19503	  3.39481	 15.29870	 -0.61228	 25.72107	704.09998	 24.20	
 12.009	-161.059	 23.79810	  0.24141	 19.82258	  5.89534	 12.24002	 -0.62492	 25.72733	704.17999	 24.20	
 16.000	180.000	 22.18176	 -3.53092	 22.39505	  7.58904	  7.74613	 -0.98168	 25.70595	704.00000	 24.20	
 15.990	-165.604	 22.21237	 -3.20444	 21.98650	  4.56799	 11.00016	 -0.88475	 25.71815	704.08002	 24.20	
 16.002	-151.165	 22.23457	 -2.35138	 20.72910	  1.95549	 14.21227	 -0.79004	 25.71212	704.03003	 24.20	
 16.002	-136.836	 22.28045	 -0.91031	 18.68854	 -0.18608	 17.09651	 -0.69201	 25.70656	704.09003	 24.20	
 15.995	-122.439	 22.34329	  1.09821	 16.04301	 -1.63993	 19.43016	 -0.61853	 25.71126	704.13000	 24.20	
 15.993	-107.966	 22.44054	  3.71540	 12.98426	 -2.47659	 21.02104	 -0.62297	 25.70273	703.97998	 24.20	
 16.005	-93.629	 22.53223	  6.73449	  9.81211	 -2.78571	 21.75699	 -0.61592	 25.70630	704.04999	 24.20	
 15.992	-79.234	 22.65131	 10.01149	  6.77263	 -2.56164	 21.59448	 -0.63468	 25.70903	704.12000	 24.20	
 16.009	-64.774	 22.75616	 13.29443	  3.99402	 -1.82823	 20.54645	 -0.70441	 25.71108	704.15002	 24.20	
 15.997	-50.364	 22.86225	 16.31245	  1.68351	 -0.46265	 18.64331	 -0.76291	 25.71119	704.12000	 24.20	
 15.997	-36.045	 22.94335	 18.78014	 -0.03267	  1.50463	 16.06924	 -0.78826	 25.70960	704.03998	 24.20	
 16.000	-21.597	 22.99848	 20.52583	 -1.15761	  4.04555	 12.99537	 -0.84206	 25.70954	704.03998	 24.20	
 16.003	 -7.169	 23.04652	 21.40113	 -1.69447	  7.00280	  9.72707	 -0.87239	 25.71692	704.09003	 24.20	
 16.003	  7.169	 23.03296	 21.34420	 -1.71917	 10.20523	  6.49750	 -0.83600	 25.71564	704.16998	 24.20	
 16.000	 21.597	 22.98575	 20.35784	 -1.17997	 13.47155	  3.54080	 -0.85798	 25.71548	704.19000	 24.20	
 15.997	 36.045	 22.92389	 18.48519	 -0.02965	 16.50755	  1.00918	 -0.94594	 25.69504	704.13000	 24.20	
 15.997	 50.364	 22.86590	 15.94158	  1.70010	 18.98792	 -0.79550	 -1.02265	 25.70863	704.12000	 24.20	
 16.009	 64.774	 22.77826	 12.84346	  3.99892	 20.82640	 -2.08992	 -1.14297	 25.71583	704.19000	 24.20	
 15.992	 79.234	 22.67623	  9.53126	  6.75318	 21.78629	 -2.78262	 -1.20678	 25.71493	704.07001	 24.20	
 16.005	 93.629	 22.56991	  6.26256	  9.83235	 21.87809	 -2.93294	 -1.16575	 25.71975	704.14001	 24.20	
 15.993	107.966	 22.42063	  3.25135	 12.98196	 21.05011	 -2.55465	 -1.20109	 25.69816	704.09003	 24.20	
 15.995	122.439	 22.32841	  0.71151	 16.05073	 19.38346	 -1.56716	 -1.24212	 25.70561	704.16998	 24.20	
 16.002	136.836	 22.26600	 -1.24951	 18.69665	 16.97587	 -0.03755	 -1.19036	 25.71415	704.15002	 24.30	
 16.002	151.165	 22.19459	 -2.57100	 20.69758	 14.03579	  2.03427	 -1.18516	 25.70770	704.06000	 24.30	
 15.990	165.604	 22.17660	 -3.33896	 21.95539	 10.83511	  4.69000	 -1.10714	 25.70851	704.09003	 24.30	
 20.003	168.362	 20.12930	 -6.45327	 23.61472	  9.12187	  3.31093	 -1.22898	 25.70711	704.04999	 24.30	
 20.008	156.764	 20.15145	 -5.93385	 22.63767	 12.33392	  0.70390	 -1.39957	 25.72094	704.08002	 24.30	
 20.000	145.147	 20.20266	 -4.98483	 20.95313	 15.43649	 -1.46056	 -1.53841	 25.71691	704.09003	 24.30	
 19.995	133.545	 20.24877	 -3.63943	 18.69395	 18.23416	 -3.22285	 -1.66329	 25.69827	704.06000	 24.30	
 20.009	121.926	 20.32017	 -1.78219	 15.98161	 20.57434	 -4.56094	 -1.75464	 25.70558	704.03998	 24.30	
 20.005	110.327	 20.40945	  0.56167	 12.96950	 22.30689	 -5.44002	 -1.80871	 25.69730	704.09998	 24.30	
 19.989	 98.733	 20.54257	  3.31275	  9.85217	 23.33603	 -5.91931	 -1.81062	 25.71243	704.06000	 24.30	
 19.999	 87.075	 20.66047	  6.37150	  6.78010	 23.64356	 -5.99004	 -1.81194	 25.70016	704.12000	 24.30	
 19.992	 75.457	 20.77413	  9.61917	  3.93017	 23.24535	 -5.68644	 -1.83071	 25.71571	704.14001	 24.30	
 20.009	 63.844	 20.86491	 12.89301	  1.37923	 22.13922	 -5.01251	 -1.76061	 25.70841	704.14001	 24.30	
 19.989	 52.269	 20.96910	 15.99304	 -0.72511	 20.34712	 -3.88967	 -1.67205	 25.69922	704.03003	 24.30	
 19.999	 40.602	 21.04571	 18.74237	 -2.45258	 17.95748	 -2.32854	 -1.58520	 25.70957	704.16998	 24.30	
 20.004	 29.051	 21.09407	 20.87620	 -3.72592	 15.14436	 -0.31095	 -1.46870	 25.71170	704.10999	 24.30	
 20.005	 17.433	 21.14355	 22.39980	 -4.52034	 11.98997	  2.21841	 -1.32893	 25.69325	704.13000	 24.30	
 20.006	  5.780	 21.18184	 23.19766	 -4.88786	  8.76123	  5.12593	 -1.19057	 25.71382	704.08002	 24.30	
 20.006	 -5.780	 21.20069	 23.24791	 -4.87444	  5.64679	  8.24475	 -1.06424	 25.71212	704.09998	 24.30	
 20.005	-17.433	 21.17317	 22.56219	 -4.48952	  2.73309	 11.49514	 -0.95654	 25.71675	704.12000	 24.30	
 20.004	-29.051	 21.13478	 21.17083	 -3.70231	  0.19159	 14.66301	 -0.83660	 25.71208	704.21997	 24.30	
 19.999	-40.602	 21.05479	 19.09846	 -2.52793	 -1.95860	 17.57093	 -0.71945	 25.71583	704.14001	 24.30	
 19.989	-52.269	 20.98305	 16.44747	 -0.80822	 -3.59140	 20.01401	 -0.64187	 25.71500	704.14001	 24.30	
 20.009	-63.844	 20.83385	 13.41760	  1.30858	 -4.80996	 21.88692	 -0.58487	 25.70522	704.12000	 24.30	
 19.992	-75.457	 20.73457	 10.18675	  3.90069	 -5.52392	 23.05442	 -0.54913	 25.69366	704.14001	 24.30	
 19.999	-87.075	 20.64063	  6.92715	  6.76605	 -5.87608	 23.51892	 -0.51431	 25.69109	704.19000	 24.30	
 19.989	-98.733	 20.55222	  3.84980	  9.83903	 -5.85662	 23.29515	 -0.50766	 25.70470	704.15002	 24.30	
 20.005	-110.327	 20.42966	  1.06175	 12.93134	 -5.53104	 22.37288	 -0.51248	 25.70778	704.09998	 24.30	
 20.009	-121.926	 20.36103	 -1.34018	 15.97341	 -4.69510	 20.72887	 -0.53741	 25.70904	704.21997	 24.30	
 19.995	-133.545	 20.29601	 -3.26430	 18.70094	 -3.41707	 18.43195	 -0.58999	 25.69740	704.20001	 24.30	
 20.000	-145.147	 20.23415	 -4.75091	 20.96490	 -1.72105	 15.69534	 -0.64212	 25.70523	704.21002	 24.30	
 20.008	-156.764	 20.18246	 -5.76913	 22.62821	  0.43847	 12.62327	 -0.73986	 25.70767	704.19000	 24.30	
 20.003	-168.362	 20.14084	 -6.38028	 23.62232	  3.03966	  9.40490	 -0.88082	 25.69887	704.20001	 24.30	
 20.000	180.000	 20.11924	 -6.59172	 23.94085	  5.98152	  6.24064	 -1.03060	 25.69459	704.27002	 24.30	
