FileType=PCF
NHL=14
Date=03/15/19	09:26:10
Facility=APL
Serial=16071-2
Customer=NASA
NP=6
Mach=0.150000
Calibration=1:1
CalPts=490
TstPts=95
PortNumbering=AP Standard
Units=Torr C m/s kg/m^3 deg mm 
Theta[deg]	Phi[deg]	P1[Torr]	P2[Torr]	P3[Torr]	P4[Torr]	P5[Torr]	P6[Torr]	Pt[Torr]	Ps[Abs,Torr]	Ts[C]	
  0.000	  0.000	 11.06209	  4.40135	  5.17580	  4.72976	  4.71122	  0.27110	 11.07824	704.06000	 24.00	
  1.691	128.401	 11.05722	  4.03982	  5.50576	  5.15508	  4.26208	  0.25869	 11.07820	704.17999	 24.00	
  1.692	 77.194	 11.05826	  4.51267	  5.04073	  5.28869	  4.16002	  0.27954	 11.07269	704.16998	 24.00	
  1.699	 26.182	 11.06344	  4.91832	  4.66099	  4.99141	  4.45511	  0.28967	 11.07425	704.14001	 24.00	
  1.699	-26.182	 11.06413	  4.92886	  4.65674	  4.48589	  4.96255	  0.27703	 11.07586	704.15002	 24.00	
  1.692	-77.194	 11.06025	  4.54545	  5.00956	  4.17970	  5.25186	  0.25678	 11.07703	704.19000	 24.00	
  1.691	-128.401	 11.04709	  4.05161	  5.50039	  4.27145	  5.10760	  0.24108	 11.06895	704.19000	 23.90	
  1.700	180.000	 11.04508	  3.83657	  5.69659	  4.69104	  4.68593	  0.23634	 11.06712	704.17999	 23.90	
  3.400	180.000	 11.01117	  3.22504	  6.27332	  4.60050	  4.61017	  0.17794	 11.07078	704.14001	 23.90	
  3.388	-152.325	 11.01753	  3.36200	  6.12854	  4.08116	  5.17116	  0.17897	 11.07599	704.15002	 23.90	
  3.397	-124.529	 11.02045	  3.71303	  5.75222	  3.71426	  5.60433	  0.17896	 11.07298	704.09003	 23.90	
  3.399	-96.763	 11.03152	  4.24066	  5.20923	  3.55494	  5.83215	  0.18887	 11.07613	704.15997	 23.90	
  3.394	-69.283	 11.04238	  4.79287	  4.69606	  3.64361	  5.78975	  0.22208	 11.07515	704.21002	 23.90	
  3.400	-41.398	 11.04661	  5.26829	  4.28533	  3.96299	  5.45580	  0.24999	 11.06876	704.28003	 23.90	
  3.401	-14.021	 11.05539	  5.53713	  4.05034	  4.44997	  4.95183	  0.26869	 11.07185	704.21997	 23.90	
  3.401	 14.021	 11.06034	  5.53121	  4.05532	  5.00523	  4.40244	  0.28238	 11.07421	704.19000	 23.90	
  3.400	 41.398	 11.05237	  5.24452	  4.29385	  5.48930	  3.93588	  0.28466	 11.06871	704.16998	 23.90	
  3.394	 69.283	 11.04622	  4.75781	  4.72327	  5.80375	  3.63767	  0.27505	 11.06931	704.19000	 23.90	
  3.399	 96.763	 11.03535	  4.20363	  5.24083	  5.86249	  3.55094	  0.25357	 11.07243	704.26001	 23.90	
  3.397	124.529	 11.02425	  3.70964	  5.73782	  5.61605	  3.71970	  0.21538	 11.07034	704.23999	 23.80	
  3.388	152.325	 11.01722	  3.34458	  6.13125	  5.15672	  4.09361	  0.19747	 11.07450	704.21997	 23.80	
  5.099	161.165	 10.93275	  2.66671	  6.71394	  5.06830	  3.98948	  0.11996	 11.06417	704.21997	 23.80	
  5.109	142.013	 10.94734	  2.91344	  6.43202	  5.63260	  3.50182	  0.13403	 11.06935	704.26001	 23.80	
  5.095	123.033	 10.95702	  3.31647	  5.97897	  6.07198	  3.15095	  0.14725	 11.06368	704.26001	 23.80	
  5.105	104.191	 10.97575	  3.83255	  5.44450	  6.35681	  2.95573	  0.17417	 11.06772	704.21997	 23.80	
  5.093	 85.207	 10.99112	  4.39997	  4.88823	  6.43106	  2.93756	  0.21376	 11.06775	704.08002	 23.80	
  5.104	 66.290	 11.00469	  4.96595	  4.37769	  6.29426	  3.07818	  0.21090	 11.06664	704.06000	 23.80	
  5.094	 47.331	 11.01924	  5.49879	  3.92829	  5.96212	  3.38691	  0.22043	 11.06854	704.09998	 23.80	
  5.089	 28.397	 11.01994	  5.89350	  3.60909	  5.50570	  3.80934	  0.25148	 11.06671	704.20001	 23.80	
  5.096	  9.576	 11.02600	  6.09658	  3.45719	  4.96840	  4.31735	  0.23959	 11.07012	704.15997	 23.80	
  5.096	 -9.576	 11.01686	  6.11582	  3.44670	  4.39392	  4.88736	  0.23512	 11.06352	704.28003	 23.70	
  5.089	-28.397	 11.01322	  5.91114	  3.60237	  3.86410	  5.42952	  0.19304	 11.06557	704.28003	 23.70	
  5.094	-47.331	 11.00229	  5.51994	  3.91132	  3.41200	  5.92074	  0.16621	 11.06600	704.28003	 23.70	
  5.104	-66.290	 10.98461	  5.01914	  4.33569	  3.10813	  6.25385	  0.16515	 11.06069	704.27002	 23.70	
  5.093	-85.207	 10.97292	  4.43599	  4.86812	  2.95730	  6.39034	  0.12747	 11.06532	704.31000	 23.70	
  5.105	-104.191	 10.95602	  3.85673	  5.43665	  2.96145	  6.33225	  0.11054	 11.06413	704.28998	 23.70	
  5.095	-123.033	 10.94818	  3.34171	  5.97686	  3.13918	  6.07285	  0.10437	 11.06671	704.31000	 23.70	
  5.109	-142.013	 10.93587	  2.93644	  6.42465	  3.46962	  5.65533	  0.10434	 11.06747	704.34003	 23.70	
  5.099	-161.165	 10.92402	  2.68346	  6.70852	  3.94499	  5.10412	  0.10304	 11.05876	704.37000	 23.70	
  5.100	180.000	 10.92473	  2.59349	  6.81283	  4.50269	  4.52812	  0.11479	 11.06352	704.26001	 23.70	
  6.800	180.000	 10.81503	  1.94861	  7.34273	  4.38130	  4.42821	  0.02489	 11.06414	704.32001	 23.70	
  6.796	-166.229	 10.81251	  2.01787	  7.26527	  3.82739	  4.99734	  0.02445	 11.06399	704.29999	 23.70	
  6.808	-152.311	 10.82197	  2.19715	  7.05395	  3.32321	  5.55836	  0.01569	 11.06860	704.38000	 23.70	
  6.795	-138.383	 10.82808	  2.49117	  6.71013	  2.90485	  6.05711	  0.01716	 11.06397	704.31000	 23.70	
  6.792	-124.591	 10.83024	  2.88539	  6.26043	  2.59105	  6.46015	  0.01634	 11.05669	704.33002	 23.70	
  6.787	-110.754	 10.84547	  3.36316	  5.74887	  2.39009	  6.76064	  0.01644	 11.06207	704.25000	 23.70	
  6.800	-96.985	 10.86389	  3.89884	  5.19933	  2.29111	  6.92760	  0.02355	 11.06220	704.22998	 23.60	
  6.800	-83.015	 10.88498	  4.47909	  4.64636	  2.32035	  6.94153	  0.04313	 11.06743	704.28003	 23.60	
  6.787	-69.246	 10.89878	  5.04389	  4.12899	  2.46390	  6.79062	  0.05675	 11.06541	704.27002	 23.60	
  6.792	-55.409	 10.91512	  5.57818	  3.66867	  2.71518	  6.50946	  0.07456	 11.06436	704.32001	 23.60	
  6.795	-41.617	 10.91968	  6.03081	  3.29267	  3.06901	  6.10722	  0.09785	 11.05325	704.32001	 23.60	
  6.808	-27.689	 10.93528	  6.39160	  3.01238	  3.51665	  5.61981	  0.12253	 11.05793	704.29999	 23.60	
  6.796	-13.771	 10.94969	  6.61908	  2.84695	  4.04760	  5.05628	  0.14472	 11.06334	704.34998	 23.60	
  6.800	  0.000	 10.95557	  6.68066	  2.79502	  4.59501	  4.49713	  0.15299	 11.06643	704.31000	 23.60	
  6.796	 13.771	 10.95374	  6.58956	  2.86112	  5.15516	  3.95406	  0.16314	 11.06393	704.34003	 23.60	
  6.808	 27.689	 10.94278	  6.37203	  3.01706	  5.68566	  3.45963	  0.16357	 11.05510	704.23999	 23.60	
  6.795	 41.617	 10.94102	  5.99637	  3.30037	  6.17466	  3.01966	  0.16143	 11.05850	704.15997	 23.60	
  6.792	 55.409	 10.92830	  5.52072	  3.67822	  6.56049	  2.67345	  0.15452	 11.05793	704.27002	 23.60	
  6.787	 69.246	 10.92125	  4.98212	  4.14459	  6.82619	  2.44602	  0.13585	 11.06356	704.26001	 23.60	
  6.800	 83.015	 10.90228	  4.40407	  4.66279	  6.95154	  2.31253	  0.12359	 11.06292	704.21997	 23.60	
  6.800	 96.985	 10.88625	  3.82872	  5.21184	  6.92501	  2.30133	  0.10874	 11.06239	704.21997	 23.60	
  6.787	110.754	 10.87097	  3.29792	  5.76117	  6.75029	  2.41333	  0.08471	 11.06299	704.25000	 23.60	
  6.792	124.591	 10.84823	  2.82201	  6.27339	  6.44111	  2.62653	  0.06785	 11.05824	704.15002	 23.50	
  6.795	138.383	 10.83423	  2.44790	  6.70828	  6.02344	  2.95485	  0.06069	 11.05960	704.26001	 23.50	
  6.808	152.311	 10.81996	  2.16095	  7.05544	  5.50295	  3.38357	  0.04186	 11.05340	704.29999	 23.50	
  6.796	166.229	 10.81431	  1.99922	  7.26802	  4.93338	  3.89450	  0.02463	 11.06268	704.28998	 23.50	
  8.491	168.704	 10.65965	  1.30965	  7.78032	  4.79513	  3.72985	 -0.07926	 11.05943	704.21002	 23.50	
  8.502	157.493	 10.66662	  1.43344	  7.60898	  5.38331	  3.20017	 -0.06600	 11.06355	704.31000	 23.50	
  8.494	146.194	 10.67359	  1.67009	  7.30692	  5.94114	  2.72613	 -0.04050	 11.05534	704.28998	 23.50	
  8.495	135.039	 10.69225	  1.98484	  6.92714	  6.43140	  2.34338	 -0.03014	 11.06000	703.46997	 23.50	
  8.487	123.723	 10.70959	  2.38375	  6.45888	  6.85674	  2.02063	 -0.03019	 11.06298	703.51001	 23.50	
  8.492	112.575	 10.72310	  2.84867	  5.93854	  7.18150	  1.78643	 -0.01693	 11.05732	704.21997	 23.50	
  8.510	101.220	 10.74063	  3.38829	  5.36473	  7.40150	  1.64021	  0.00534	 11.05913	703.83002	 23.50	
  8.500	 90.000	 10.75416	  3.96265	  4.79255	  7.48394	  1.60091	  0.01874	 11.05445	703.78003	 23.50	
  8.510	 78.780	 10.77655	  4.55733	  4.24051	  7.45509	  1.64979	  0.02238	 11.05821	704.00000	 23.50	
  8.492	 67.425	 10.79935	  5.16092	  3.71623	  7.28035	  1.81845	  0.03933	 11.05799	704.21997	 23.50	
  8.487	 56.277	 10.81221	  5.70911	  3.26208	  7.00127	  2.06523	  0.06237	 11.05641	704.32001	 23.50	
  8.495	 44.961	 10.82035	  6.20545	  2.86403	  6.61735	  2.39146	  0.07310	 11.05703	704.38000	 23.50	
  8.494	 33.806	 10.83005	  6.62086	  2.54750	  6.15978	  2.78753	  0.07527	 11.05644	704.28998	 23.50	
  8.502	 22.507	 10.83881	  6.94600	  2.31362	  5.62455	  3.27428	  0.08183	 11.06428	704.28003	 23.50	
  8.491	 11.296	 10.84148	  7.14190	  2.17895	  5.04899	  3.80802	  0.08533	 11.06118	703.82001	 23.50	
  8.500	  0.000	 10.83196	  7.21496	  2.12881	  4.46888	  4.36710	  0.06817	 11.05478	704.28998	 23.40	
  8.491	-11.296	 10.83542	  7.15963	  2.18054	  3.89661	  4.96045	  0.04804	 11.05937	704.28998	 23.40	
  8.502	-22.507	 10.83017	  6.97828	  2.31931	  3.35441	  5.54130	  0.02856	 11.06201	704.16998	 23.40	
  8.494	-33.806	 10.81390	  6.66902	  2.55592	  2.87118	  6.07368	  0.01576	 11.05511	704.23999	 23.40	
  8.495	-44.961	 10.80367	  6.26735	  2.86842	  2.45601	  6.55312	 -0.00760	 11.06042	704.25000	 23.40	
  8.487	-56.277	 10.78284	  5.77389	  3.26021	  2.10621	  6.94795	 -0.03315	 11.05778	704.28003	 23.40	
  8.492	-67.425	 10.76157	  5.23008	  3.71768	  1.85742	  7.24085	 -0.04829	 11.05661	704.28998	 23.40	
  8.510	-78.780	 10.73931	  4.63928	  4.23744	  1.68235	  7.42547	 -0.05777	 11.05159	704.28998	 23.40	
  8.500	-90.000	 10.72060	  4.04874	  4.78441	  1.61844	  7.47388	 -0.07410	 11.05089	704.19000	 23.40	
  8.510	-101.220	 10.70836	  3.48146	  5.35592	  1.63930	  7.40837	 -0.08409	 11.05792	704.29999	 23.40	
  8.492	-112.575	 10.69137	  2.93707	  5.92532	  1.76861	  7.19938	 -0.08716	 11.05307	704.17999	 23.40	
  8.487	-123.723	 10.68121	  2.46703	  6.44542	  1.98060	  6.88996	 -0.07698	 11.05685	704.10999	 23.40	
  8.495	-135.039	 10.66843	  2.05321	  6.91433	  2.28694	  6.47577	 -0.07812	 11.05453	704.15997	 23.40	
  8.494	-146.194	 10.65276	  1.72564	  7.29734	  2.66521	  5.99017	 -0.08456	 11.04742	704.10999	 23.40	
  8.502	-157.493	 10.64823	  1.47893	  7.59530	  3.12209	  5.45025	 -0.08067	 11.05294	703.54999	 23.40	
  8.491	-168.704	 10.65220	  1.33239	  7.77808	  3.65001	  4.87288	 -0.06600	 11.05660	704.25000	 23.40	
  8.500	180.000	 10.64934	  1.26740	  7.84292	  4.21239	  4.28700	 -0.07420	 11.05305	704.26001	 23.40	
 10.200	180.000	 10.46108	  0.61710	  8.30843	  4.04139	  4.12727	 -0.17321	 11.05915	704.21002	 23.40	
 10.191	-170.497	 10.45741	  0.66815	  8.24955	  3.46516	  4.71355	 -0.16647	 11.05249	703.78003	 23.40	
 10.210	-161.034	 10.45167	  0.78991	  8.10173	  2.92142	  5.30628	 -0.17791	 11.05063	704.32001	 23.40	
 10.194	-151.526	 10.46343	  0.99843	  7.84887	  2.44710	  5.87127	 -0.18217	 11.05366	703.62000	 23.40	
 10.190	-142.105	 10.47008	  1.27345	  7.50300	  2.02040	  6.40245	 -0.17884	 11.05299	704.37000	 23.40	
 10.215	-132.646	 10.47491	  1.61747	  7.08124	  1.64198	  6.88818	 -0.17471	 11.05072	703.66998	 23.30	
 10.203	-123.092	 10.48586	  2.04066	  6.58793	  1.35156	  7.29753	 -0.17323	 11.04832	704.35999	 23.30	
 10.192	-113.678	 10.50575	  2.51724	  6.06190	  1.14969	  7.60901	 -0.17941	 11.05385	703.53003	 23.30	
 10.208	-104.249	 10.52313	  3.04076	  5.50034	  1.01351	  7.83059	 -0.18172	 11.05552	704.28998	 23.30	
 10.210	-94.801	 10.54447	  3.61706	  4.92086	  0.95654	  7.95241	 -0.17414	 11.05701	704.21002	 23.30	
 10.210	-85.199	 10.55906	  4.21273	  4.34482	  0.97915	  7.95914	 -0.15802	 11.05329	704.33002	 23.30	
 10.208	-75.751	 10.57580	  4.80792	  3.79896	  1.07675	  7.86116	 -0.15095	 11.04910	704.38000	 23.30	
 10.192	-66.322	 10.59775	  5.39644	  3.28439	  1.25024	  7.65799	 -0.15086	 11.04898	704.06000	 23.30	
 10.203	-56.908	 10.61764	  5.94961	  2.82576	  1.48961	  7.37020	 -0.14005	 11.05682	704.29999	 23.30	
 10.215	-47.354	 10.63374	  6.46055	  2.41663	  1.81930	  6.97679	 -0.12836	 11.05392	704.27002	 23.30	
 10.190	-37.895	 10.65253	  6.90142	  2.08341	  2.22755	  6.50016	 -0.10067	 11.05492	704.37000	 23.30	
 10.194	-28.474	 10.66845	  7.25979	  1.81332	  2.68194	  5.97771	 -0.08233	 11.05754	704.26001	 23.30	
 10.210	-18.966	 10.67596	  7.52395	  1.61136	  3.18581	  5.41730	 -0.07121	 11.05780	704.37000	 23.30	
 10.191	 -9.503	 10.68343	  7.67464	  1.50534	  3.75010	  4.82107	 -0.05300	 11.05596	704.26001	 23.30	
 10.200	  0.000	 10.68496	  7.72240	  1.45745	  4.33230	  4.22135	 -0.02535	 11.05515	704.26001	 23.30	
 10.191	  9.503	 10.68195	  7.65441	  1.50036	  4.91703	  3.64930	 -0.00511	 11.05208	704.09003	 23.30	
 10.210	 18.966	 10.68136	  7.49032	  1.60977	  5.50604	  3.09245	 -0.00844	 11.05344	704.17999	 23.30	
 10.194	 28.474	 10.67746	  7.20661	  1.81156	  6.07584	  2.58691	 -0.01688	 11.05595	704.13000	 23.30	
 10.190	 37.895	 10.66956	  6.83509	  2.08058	  6.58189	  2.14862	 -0.02306	 11.05189	704.14001	 23.30	
 10.215	 47.354	 10.65962	  6.38531	  2.41697	  7.04565	  1.75540	 -0.03015	 11.05605	704.04999	 23.30	
 10.203	 56.908	 10.64575	  5.86172	  2.82481	  7.42526	  1.44064	 -0.04089	 11.05382	704.27002	 23.30	
 10.192	 66.322	 10.63130	  5.29955	  3.28786	  7.71203	  1.20278	 -0.06604	 11.05436	704.21002	 23.30	
 10.208	 75.751	 10.61404	  4.69741	  3.80164	  7.90215	  1.03531	 -0.08326	 11.05527	704.20001	 23.30	
 10.210	 85.199	 10.59517	  4.09172	  4.35773	  7.98083	  0.95341	 -0.09012	 11.05184	704.19000	 23.30	
 10.210	 94.801	 10.56775	  3.49153	  4.92844	  7.94885	  0.94722	 -0.09133	 11.04867	704.23999	 23.30	
 10.208	104.249	 10.54817	  2.92067	  5.51212	  7.82093	  1.02174	 -0.10418	 11.05038	704.28998	 23.30	
 10.192	113.678	 10.52883	  2.40153	  6.06945	  7.57849	  1.18023	 -0.12908	 11.04840	703.53998	 23.20	
 10.203	123.092	 10.51163	  1.93544	  6.60040	  7.24345	  1.40804	 -0.14072	 11.05122	703.53003	 23.30	
 10.215	132.646	 10.49227	  1.52090	  7.09153	  6.82319	  1.71319	 -0.13802	 11.04882	703.45001	 23.20	
 10.190	142.105	 10.48615	  1.19138	  7.51369	  6.33055	  2.09003	 -0.13995	 11.05548	703.81000	 23.20	
 10.194	151.526	 10.46439	  0.93080	  7.84723	  5.79425	  2.51306	 -0.16073	 11.04787	704.20001	 23.20	
 10.210	161.034	 10.45833	  0.74270	  8.10506	  5.21700	  3.00839	 -0.18202	 11.05060	704.17999	 23.20	
 10.191	170.497	 10.45838	  0.64915	  8.25539	  4.62472	  3.55588	 -0.18034	 11.05279	704.19000	 23.20	
 11.899	171.783	 10.22572	 -0.00050	  8.69968	  4.42302	  3.36253	 -0.27519	 11.05437	704.13000	 23.20	
 11.890	163.610	 10.23428	  0.08859	  8.56525	  5.02189	  2.82035	 -0.27868	 11.05591	704.14001	 23.20	
 11.889	155.445	 10.24102	  0.23769	  8.34272	  5.61471	  2.30920	 -0.27249	 11.05569	704.28003	 23.20	
 11.909	147.299	 10.25145	  0.44528	  8.05048	  6.17615	  1.85550	 -0.26177	 11.05617	704.25000	 23.20	
 11.902	139.148	 10.25720	  0.72501	  7.67025	  6.70070	  1.44965	 -0.24754	 11.04654	703.75000	 23.20	
 11.894	130.867	 10.26681	  1.07753	  7.21862	  7.18485	  1.09879	 -0.25156	 11.04707	704.06000	 23.20	
 11.897	122.732	 10.29064	  1.48774	  6.72160	  7.59984	  0.81545	 -0.25171	 11.05202	703.60999	 23.20	
 11.903	114.597	 10.31040	  1.94438	  6.19415	  7.93604	  0.59373	 -0.23835	 11.05264	703.56000	 23.20	
 11.893	106.346	 10.32814	  2.46185	  5.62395	  8.18423	  0.44009	 -0.22272	 11.04756	703.69000	 23.20	
 11.892	 98.155	 10.35126	  3.02365	  5.03756	  8.35442	  0.34551	 -0.20068	 11.04621	704.31000	 23.20	
 11.900	 90.000	 10.37239	  3.60614	  4.46264	  8.43029	  0.31473	 -0.20044	 11.05036	704.21002	 23.20	
 11.892	 81.845	 10.39520	  4.20622	  3.90330	  8.40939	  0.35324	 -0.20171	 11.04674	704.28998	 23.20	
 11.893	 73.654	 10.41377	  4.81969	  3.35631	  8.29355	  0.45467	 -0.19777	 11.04759	704.21002	 23.20	
 11.903	 65.403	 10.42811	  5.42043	  2.84707	  8.09132	  0.61939	 -0.17990	 11.04891	704.21997	 23.20	
 11.897	 57.268	 10.44544	  5.98976	  2.38427	  7.80406	  0.84040	 -0.15717	 11.04780	704.19000	 23.20	
 11.894	 49.133	 10.45540	  6.51879	  1.98267	  7.43173	  1.14260	 -0.14137	 11.04698	704.15002	 23.20	
 11.902	 40.852	 10.46129	  7.00030	  1.62163	  6.97686	  1.50582	 -0.12801	 11.04027	703.53003	 23.20	
 11.909	 32.701	 10.47186	  7.40902	  1.33383	  6.47719	  1.92501	 -0.11849	 11.04377	704.29999	 23.20	
 11.889	 24.555	 10.48590	  7.73776	  1.11295	  5.94348	  2.39118	 -0.11292	 11.05040	704.17999	 23.20	
 11.890	 16.390	 10.49146	  7.98089	  0.95100	  5.36248	  2.91361	 -0.10131	 11.04921	704.25000	 23.20	
 11.899	  8.217	 10.49066	  8.13684	  0.84818	  4.76304	  3.47289	 -0.10804	 11.04640	704.21997	 23.20	
 11.900	  0.000	 10.49014	  8.19215	  0.81513	  4.17439	  4.04607	 -0.12531	 11.04699	704.20001	 23.20	
 11.899	 -8.217	 10.48642	  8.15157	  0.85009	  3.58040	  4.64779	 -0.15377	 11.04169	704.16998	 23.20	
 11.890	-16.390	 10.48552	  8.01618	  0.95089	  3.02079	  5.25332	 -0.17267	 11.04851	704.26001	 23.20	
 11.889	-24.555	 10.47336	  7.79005	  1.11362	  2.50668	  5.82408	 -0.17636	 11.04544	704.23999	 23.10	
 11.909	-32.701	 10.45579	  7.47823	  1.33025	  2.01266	  6.38125	 -0.19019	 11.04104	704.16998	 23.20	
 11.902	-40.852	 10.43852	  7.08362	  1.61733	  1.58359	  6.89251	 -0.21241	 11.03965	704.26001	 23.10	
 11.894	-49.133	 10.42794	  6.60965	  1.97647	  1.21026	  7.34951	 -0.22723	 11.04388	704.26001	 23.10	
 11.897	-57.268	 10.40976	  6.09374	  2.38768	  0.90661	  7.72866	 -0.23589	 11.04347	704.19000	 23.10	
 11.903	-65.403	 10.38470	  5.53548	  2.83569	  0.65968	  8.03475	 -0.23641	 11.03966	704.22998	 23.10	
 11.893	-73.654	 10.36914	  4.94265	  3.34609	  0.48136	  8.26018	 -0.22944	 11.04397	704.21997	 23.10	
 11.892	-81.845	 10.34350	  4.33082	  3.88611	  0.36505	  8.38792	 -0.22872	 11.03960	704.07001	 23.10	
 11.900	-90.000	 10.32934	  3.73762	  4.44368	  0.31501	  8.42840	 -0.23712	 11.04466	704.25000	 23.10	
 11.892	-98.155	 10.30948	  3.15389	  5.01858	  0.32915	  8.36718	 -0.24486	 11.04088	704.25000	 23.10	
 11.893	-106.346	 10.28582	  2.58957	  5.59812	  0.40279	  8.20922	 -0.25020	 11.03782	704.15997	 23.10	
 11.903	-114.597	 10.26995	  2.06574	  6.17034	  0.54658	  7.97004	 -0.24356	 11.03934	703.85999	 23.10	
 11.897	-122.732	 10.26001	  1.60249	  6.70683	  0.75489	  7.65032	 -0.24375	 11.04552	704.02002	 23.10	
 11.894	-130.867	 10.24523	  1.18309	  7.20427	  1.02073	  7.25154	 -0.24648	 11.04847	704.17999	 23.10	
 11.902	-139.148	 10.23308	  0.81959	  7.65365	  1.35814	  6.77749	 -0.25748	 11.04353	704.19000	 23.10	
 11.909	-147.299	 10.22543	  0.52681	  8.03163	  1.75939	  6.26087	 -0.26463	 11.04252	704.27002	 23.10	
 11.889	-155.445	 10.22149	  0.30468	  8.32592	  2.21884	  5.69730	 -0.26675	 11.04078	704.23999	 23.10	
 11.890	-163.610	 10.21955	  0.13531	  8.55007	  2.70965	  5.12514	 -0.26079	 11.04594	704.25000	 23.10	
 11.899	-171.783	 10.20896	  0.02407	  8.68330	  3.25267	  4.52163	 -0.25979	 11.03808	704.21997	 23.10	
 11.900	180.000	 10.21484	 -0.02099	  8.73634	  3.83554	  3.92726	 -0.26895	 11.04408	704.20001	 23.10	
 13.600	180.000	  9.94161	 -0.64976	  9.13351	  3.60000	  3.71413	 -0.34989	 11.04040	704.23999	 23.10	
 13.608	-172.853	  9.93827	 -0.62084	  9.09890	  3.02516	  4.30140	 -0.34225	 11.04071	704.31000	 23.10	
 13.611	-165.583	  9.94721	 -0.53095	  8.98182	  2.47504	  4.91536	 -0.33807	 11.04451	704.21997	 23.10	
 13.601	-158.353	  9.94794	 -0.38060	  8.77874	  1.97575	  5.49643	 -0.33104	 11.03700	704.19000	 23.10	
 13.609	-151.210	  9.95296	 -0.18487	  8.50817	  1.50413	  6.07532	 -0.32202	 11.04122	704.15002	 23.10	
 13.611	-143.999	  9.95912	  0.06656	  8.16617	  1.07855	  6.62727	 -0.31035	 11.04178	704.34998	 23.10	
 13.601	-136.825	  9.96863	  0.37392	  7.76093	  0.71904	  7.12365	 -0.29497	 11.04160	704.27002	 23.10	
 13.596	-129.640	  9.98051	  0.73316	  7.30347	  0.40758	  7.57553	 -0.28240	 11.03916	704.28998	 23.10	
 13.611	-122.431	  9.99241	  1.14520	  6.79219	  0.14266	  7.98014	 -0.27975	 11.03908	704.25000	 23.10	
 13.604	-115.211	 10.00727	  1.61154	  6.24802	 -0.06138	  8.31440	 -0.27873	 11.04015	704.34003	 23.10	
 13.595	-108.042	 10.02295	  2.11484	  5.68648	 -0.20468	  8.57091	 -0.27741	 11.04233	704.21997	 23.10	
 13.607	-100.793	 10.04084	  2.66127	  5.10019	 -0.29935	  8.75114	 -0.27651	 11.04192	704.27002	 23.10	
 13.601	-93.617	 10.05561	  3.23866	  4.51575	 -0.33297	  8.84000	 -0.27377	 11.04109	704.33002	 23.10	
 13.601	-86.383	 10.07565	  3.83471	  3.94318	 -0.31067	  8.85258	 -0.26989	 11.03618	704.26001	 23.10	
 13.607	-79.207	 10.09459	  4.44018	  3.38954	 -0.24263	  8.77835	 -0.26672	 11.03511	704.17999	 23.10	
 13.595	-71.958	 10.12503	  5.05296	  2.86435	 -0.11363	  8.62432	 -0.28184	 11.04375	704.28003	 23.10	
 13.604	-64.789	 10.14177	  5.64089	  2.37413	  0.06515	  8.38929	 -0.28482	 11.04076	704.12000	 23.10	
 13.611	-57.569	 10.16246	  6.20689	  1.92047	  0.30250	  8.08095	 -0.29658	 11.04007	703.59003	 23.10	
 13.596	-50.360	 10.18429	  6.74129	  1.51854	  0.60525	  7.68995	 -0.29782	 11.03796	704.17999	 23.00	
 13.601	-43.175	 10.20550	  7.22540	  1.16303	  0.95390	  7.25581	 -0.29313	 11.04680	704.15002	 23.00	
 13.611	-36.001	 10.21582	  7.64086	  0.85916	  1.34787	  6.76212	 -0.28163	 11.04153	704.16998	 23.00	
 13.609	-28.790	 10.23132	  7.99968	  0.61556	  1.80406	  6.21851	 -0.27858	 11.04202	704.17999	 23.00	
 13.601	-21.647	 10.24227	  8.28154	  0.42323	  2.29966	  5.64549	 -0.27510	 11.04310	704.15997	 23.00	
 13.611	-14.417	 10.24458	  8.49155	  0.26781	  2.81138	  5.05494	 -0.26868	 11.04115	704.09003	 23.00	
 13.608	 -7.147	 10.25593	  8.61245	  0.18419	  3.39359	  4.44400	 -0.25741	 11.04574	704.12000	 23.00	
 13.600	  0.000	 10.25869	  8.63985	  0.16626	  3.98118	  3.84858	 -0.23620	 11.03856	704.21997	 23.00	
 13.608	  7.147	 10.25423	  8.58781	  0.19329	  4.56818	  3.27712	 -0.21410	 11.03731	704.14001	 23.00	
 13.611	 14.417	 10.25623	  8.45534	  0.27995	  5.18009	  2.70903	 -0.21018	 11.04212	704.21002	 23.00	
 13.601	 21.647	 10.25189	  8.22754	  0.43782	  5.77141	  2.18373	 -0.21478	 11.04094	704.21002	 23.00	
 13.609	 28.790	 10.24192	  7.92681	  0.62647	  6.32250	  1.70637	 -0.22399	 11.03690	704.16998	 23.00	
 13.611	 36.001	 10.24299	  7.56228	  0.87496	  6.86603	  1.26294	 -0.23406	 11.05082	704.20001	 23.00	
 13.601	 43.175	 10.22523	  7.12023	  1.17505	  7.34513	  0.87102	 -0.24756	 11.04040	704.17999	 23.00	
 13.596	 50.360	 10.21609	  6.63006	  1.53014	  7.77644	  0.54119	 -0.25927	 11.04331	704.19000	 23.00	
 13.611	 57.569	 10.19614	  6.08489	  1.93520	  8.13823	  0.25967	 -0.27808	 11.03629	704.16998	 23.00	
 13.604	 64.789	 10.18211	  5.50159	  2.39185	  8.43696	  0.03306	 -0.30438	 11.03990	704.15997	 23.00	
 13.595	 71.958	 10.16825	  4.90777	  2.88348	  8.65844	 -0.13743	 -0.32634	 11.04075	704.15002	 23.00	
 13.607	 79.207	 10.14850	  4.29254	  3.41415	  8.80220	 -0.25598	 -0.33431	 11.04460	704.29999	 23.00	
 13.601	 86.383	 10.12889	  3.68673	  3.96786	  8.85844	 -0.30830	 -0.32433	 11.04082	704.21997	 23.00	
 13.601	 93.617	 10.10361	  3.08883	  4.54012	  8.83080	 -0.31637	 -0.32322	 11.03963	704.14001	 23.00	
 13.607	100.793	 10.07522	  2.51284	  5.12283	  8.71942	 -0.26775	 -0.32992	 11.03636	704.27002	 23.00	
 13.595	108.042	 10.06436	  1.97533	  5.70864	  8.52476	 -0.15270	 -0.34071	 11.04298	704.34003	 23.00	
 13.604	115.211	 10.03840	  1.47977	  6.26573	  8.25324	  0.00593	 -0.35531	 11.03817	704.27002	 23.00	
 13.611	122.431	 10.01490	  1.01934	  6.80838	  7.90547	  0.22645	 -0.36731	 11.03522	704.16998	 23.00	
 13.596	129.640	 10.00234	  0.61778	  7.31476	  7.50111	  0.49144	 -0.36306	 11.03983	704.07001	 23.00	
 13.601	136.825	  9.98549	  0.26598	  7.76702	  7.03980	  0.80824	 -0.36026	 11.04204	704.21997	 23.00	
 13.611	143.999	  9.97133	 -0.02929	  8.17194	  6.52000	  1.17900	 -0.36560	 11.04069	704.16998	 23.00	
 13.609	151.210	  9.96714	 -0.26432	  8.51673	  5.96387	  1.61593	 -0.37559	 11.04536	704.15002	 23.00	
 13.601	158.353	  9.95297	 -0.44045	  8.78192	  5.38972	  2.07302	 -0.37678	 11.04107	704.23999	 23.00	
 13.611	165.583	  9.94127	 -0.57014	  8.97913	  4.78763	  2.58903	 -0.37410	 11.03938	704.22998	 23.00	
 13.608	172.853	  9.94211	 -0.64122	  9.10105	  4.17541	  3.15169	 -0.36294	 11.04124	704.21002	 23.00	
 15.298	173.587	  9.64294	 -1.24015	  9.46201	  3.92618	  2.91654	 -0.43221	 11.04250	704.23999	 23.00	
 15.291	167.167	  9.63859	 -1.18061	  9.35279	  4.52254	  2.36487	 -0.44920	 11.03746	704.29999	 23.00	
 15.307	160.676	  9.64156	 -1.08387	  9.17887	  5.12993	  1.83810	 -0.46479	 11.03599	704.31000	 23.00	
 15.300	154.261	  9.65779	 -0.93331	  8.94638	  5.71132	  1.37007	 -0.47542	 11.04389	704.22998	 23.00	
 15.288	147.854	  9.66866	 -0.73406	  8.63736	  6.28782	  0.93267	 -0.47628	 11.04326	704.20001	 23.00	
 15.293	141.428	  9.68194	 -0.48286	  8.26434	  6.83903	  0.53730	 -0.47061	 11.04449	704.29999	 23.00	
 15.299	134.985	  9.69216	 -0.18006	  7.84413	  7.34102	  0.19069	 -0.47241	 11.03777	704.20001	 23.00	
 15.305	128.583	  9.71221	  0.16132	  7.38192	  7.79747	 -0.10591	 -0.48165	 11.04236	704.25000	 23.00	
 15.309	122.142	  9.71457	  0.55238	  6.86108	  8.20054	 -0.36680	 -0.48527	 11.03147	704.26001	 23.00	
 15.304	115.711	  9.74408	  1.00291	  6.32137	  8.55614	 -0.57495	 -0.47872	 11.03978	704.21997	 23.00	
 15.297	109.291	  9.76053	  1.48517	  5.76072	  8.83214	 -0.73448	 -0.46787	 11.04094	704.40997	 23.00	
 15.293	102.897	  9.78421	  2.00468	  5.18854	  9.04091	 -0.84399	 -0.45573	 11.04037	704.23999	 23.00	
 15.293	 96.458	  9.80737	  2.56601	  4.59934	  9.17941	 -0.90543	 -0.44716	 11.04078	704.34003	 23.00	
 15.300	 90.000	  9.83489	  3.15095	  4.02238	  9.24789	 -0.93088	 -0.44636	 11.04365	704.26001	 23.00	
 15.293	 83.542	  9.84960	  3.74688	  3.45311	  9.23364	 -0.90317	 -0.45569	 11.03831	704.21002	 23.00	
 15.293	 77.103	  9.87241	  4.36008	  2.91114	  9.14942	 -0.83097	 -0.46580	 11.03910	704.21002	 23.00	
 15.297	 70.709	  9.89203	  4.96665	  2.40056	  8.99212	 -0.71501	 -0.45406	 11.04041	704.23999	 22.90	
 15.304	 64.289	  9.91077	  5.56240	  1.92264	  8.76227	 -0.54810	 -0.43198	 11.03957	704.33002	 23.00	
 15.309	 57.858	  9.92487	  6.15113	  1.47490	  8.46342	 -0.32973	 -0.40540	 11.04013	704.33002	 23.00	
 15.305	 51.417	  9.94095	  6.70058	  1.07562	  8.09227	 -0.05671	 -0.38270	 11.03894	704.19000	 23.00	
 15.299	 45.015	  9.95574	  7.20609	  0.72578	  7.67743	  0.25295	 -0.36715	 11.03914	704.15997	 22.90	
 15.293	 38.572	  9.96782	  7.66271	  0.42166	  7.21033	  0.60796	 -0.35564	 11.04217	704.14001	 22.90	
 15.288	 32.146	  9.97825	  8.06890	  0.15835	  6.68940	  1.02115	 -0.34230	 11.04153	704.26001	 23.00	
 15.300	 25.739	  9.97752	  8.40756	 -0.06554	  6.13325	  1.46874	 -0.33478	 11.03604	704.22998	 22.90	
 15.307	 19.324	  9.98429	  8.68273	 -0.23260	  5.56718	  1.95234	 -0.32707	 11.04161	704.28003	 22.90	
 15.291	 12.833	  9.99202	  8.87332	 -0.34161	  4.96324	  2.49351	 -0.31989	 11.03649	704.26001	 22.90	
 15.298	  6.413	  9.99309	  8.99802	 -0.41612	  4.35962	  3.05644	 -0.32298	 11.03866	704.23999	 22.90	
 15.300	  0.000	  9.99457	  9.05045	 -0.44451	  3.77638	  3.62034	 -0.33881	 11.04022	704.32001	 22.90	
 15.298	 -6.413	  9.98862	  9.01652	 -0.43413	  3.19125	  4.21602	 -0.34791	 11.03792	704.28003	 22.90	
 15.291	-12.833	  9.98548	  8.91251	 -0.36087	  2.62300	  4.82573	 -0.35662	 11.04377	704.26001	 22.90	
 15.307	-19.324	  9.97417	  8.73363	 -0.25179	  2.08773	  5.42161	 -0.35473	 11.04025	704.28998	 22.90	
 15.300	-25.739	  9.96346	  8.47752	 -0.08014	  1.58583	  6.00621	 -0.34508	 11.03933	704.26001	 22.90	
 15.288	-32.146	  9.95198	  8.14971	  0.13771	  1.12015	  6.56787	 -0.33963	 11.03906	704.25000	 22.90	
 15.293	-38.572	  9.93961	  7.76327	  0.39658	  0.70570	  7.08886	 -0.33108	 11.04050	704.28003	 22.90	
 15.299	-45.015	  9.92492	  7.32373	  0.70245	  0.32863	  7.57714	 -0.33093	 11.04123	704.23999	 22.90	
 15.305	-51.417	  9.90317	  6.82922	  1.05243	 -0.00424	  8.01593	 -0.32860	 11.04122	704.27002	 22.90	
 15.309	-57.858	  9.87563	  6.28885	  1.44816	 -0.28536	  8.39086	 -0.31611	 11.03600	704.27002	 22.90	
 15.304	-64.289	  9.86379	  5.71777	  1.89745	 -0.51028	  8.71066	 -0.29797	 11.04113	704.34998	 22.90	
 15.297	-70.709	  9.83704	  5.12584	  2.37692	 -0.68177	  8.94334	 -0.28773	 11.03315	704.29999	 22.90	
 15.293	-77.103	  9.82555	  4.53255	  2.89145	 -0.80819	  9.11755	 -0.28034	 11.04210	704.34003	 22.90	
 15.293	-83.542	  9.80623	  3.92174	  3.43535	 -0.88533	  9.21724	 -0.26639	 11.04000	704.33002	 22.90	
 15.300	-90.000	  9.78606	  3.32338	  3.99541	 -0.93116	  9.24301	 -0.27033	 11.04043	704.40002	 22.90	
 15.293	-96.458	  9.76275	  2.73304	  4.57389	 -0.92546	  9.19089	 -0.27330	 11.03462	704.28998	 22.90	
 15.293	-102.897	  9.74015	  2.16598	  5.15922	 -0.87290	  9.06350	 -0.27134	 11.03470	703.53998	 22.90	
 15.297	-109.291	  9.72431	  1.64275	  5.72931	 -0.78139	  8.87498	 -0.27419	 11.03308	703.59998	 22.90	
 15.304	-115.711	  9.70490	  1.14913	  6.29341	 -0.64536	  8.61446	 -0.27588	 11.03270	704.21997	 22.90	
 15.309	-122.142	  9.69193	  0.68876	  6.84375	 -0.45658	  8.28591	 -0.27603	 11.03955	703.64001	 22.90	
 15.305	-128.583	  9.68215	  0.28506	  7.35928	 -0.20966	  7.88613	 -0.28507	 11.03937	703.91998	 22.90	
 15.299	-134.985	  9.67447	 -0.06775	  7.83281	  0.08794	  7.43814	 -0.30078	 11.04198	704.25000	 22.90	
 15.293	-141.428	  9.66485	 -0.38002	  8.25607	  0.42892	  6.94414	 -0.32072	 11.04179	703.78998	 22.90	
 15.288	-147.854	  9.65340	 -0.64481	  8.62483	  0.80824	  6.41460	 -0.33962	 11.03999	704.37000	 22.90	
 15.300	-154.261	  9.64184	 -0.86071	  8.93452	  1.24106	  5.84597	 -0.35820	 11.03733	704.28998	 22.90	
 15.307	-160.676	  9.63864	 -1.02305	  9.17386	  1.71754	  5.26222	 -0.37512	 11.03648	704.33002	 22.90	
 15.291	-167.167	  9.63838	 -1.14655	  9.35103	  2.22792	  4.67191	 -0.38180	 11.03903	704.27002	 22.90	
 15.298	-173.587	  9.63158	 -1.22166	  9.45215	  2.77356	  4.06731	 -0.39774	 11.03475	704.34998	 22.90	
 15.300	180.000	  9.63181	 -1.25096	  9.48943	  3.34773	  3.47765	 -0.41431	 11.03522	704.29999	 22.90	
 17.000	180.000	  9.30205	 -1.83445	  9.82296	  3.07586	  3.22733	 -0.45750	 11.04598	704.25000	 22.90	
 16.990	-174.179	  9.29833	 -1.80004	  9.78116	  2.50824	  3.81087	 -0.42649	 11.03661	703.75000	 22.90	
 17.009	-168.383	  9.29275	 -1.73962	  9.68569	  1.96190	  4.40573	 -0.40611	 11.03327	704.37000	 22.90	
 17.000	-162.596	  9.30199	 -1.63523	  9.53529	  1.46342	  4.99229	 -0.38147	 11.03721	703.89001	 22.90	
 16.990	-156.759	  9.30335	 -1.49151	  9.30946	  0.98159	  5.58972	 -0.35981	 11.03533	703.53003	 22.90	
 16.995	-150.919	  9.31002	 -1.30941	  9.02825	  0.53567	  6.17252	 -0.35279	 11.03532	703.58002	 22.90	
 16.988	-145.161	  9.31911	 -1.08113	  8.69127	  0.15129	  6.70924	 -0.32950	 11.03656	703.53003	 22.90	
 17.014	-139.343	  9.32276	 -0.82218	  8.30875	 -0.21584	  7.23707	 -0.30190	 11.03724	704.34998	 22.90	
 17.007	-133.546	  9.32746	 -0.51241	  7.86013	 -0.53450	  7.72087	 -0.28480	 11.03261	703.65997	 22.90	
 17.001	-127.699	  9.34030	 -0.15541	  7.37376	 -0.80690	  8.16180	 -0.27110	 11.03131	703.60999	 22.90	
 17.006	-121.937	  9.35913	  0.23933	  6.86684	 -1.02547	  8.54288	 -0.27193	 11.03020	703.56000	 22.90	
 17.002	-116.134	  9.37777	  0.68466	  6.32282	 -1.20446	  8.87794	 -0.26139	 11.03772	703.53998	 22.90	
 17.001	-110.310	  9.39113	  1.16495	  5.75015	 -1.35133	  9.15318	 -0.25145	 11.03691	703.41998	 22.90	
 16.988	-104.517	  9.41378	  1.67625	  5.18116	 -1.44215	  9.36165	 -0.25436	 11.03841	703.60999	 22.90	
 17.008	-98.662	  9.42017	  2.21387	  4.59365	 -1.51627	  9.51138	 -0.25254	 11.03411	703.59998	 22.90	
 16.996	-92.909	  9.44566	  2.78933	  4.02101	 -1.53238	  9.58548	 -0.25402	 11.03662	703.58002	 22.90	
 16.996	-87.091	  9.46343	  3.37411	  3.45755	 -1.51845	  9.59669	 -0.25152	 11.03365	703.58002	 22.90	
 17.012	-81.253	  9.47833	  3.97438	  2.90412	 -1.46880	  9.54554	 -0.25957	 11.03501	703.62000	 22.90	
 16.988	-75.483	  9.50683	  4.58550	  2.38582	 -1.36645	  9.41888	 -0.27192	 11.03703	703.72998	 22.90	
 17.001	-69.690	  9.52430	  5.17964	  1.88837	 -1.23857	  9.23545	 -0.27631	 11.03664	703.58002	 22.90	
 17.002	-63.866	  9.54499	  5.77167	  1.42022	 -1.06289	  8.98417	 -0.29132	 11.03456	703.53998	 22.90	
 17.006	-58.063	  9.56748	  6.34469	  0.98213	 -0.85202	  8.66849	 -0.30103	 11.03743	703.66998	 22.90	
 17.001	-52.301	  9.58571	  6.87814	  0.59183	 -0.60160	  8.30705	 -0.31282	 11.03725	703.65002	 22.90	
 17.007	-46.454	  9.60357	  7.38565	  0.24393	 -0.29079	  7.87663	 -0.32982	 11.03718	703.59003	 22.90	
 17.014	-40.657	  9.61813	  7.84948	 -0.07099	  0.05702	  7.40085	 -0.34072	 11.03665	703.58002	 22.90	
 16.988	-34.839	  9.64172	  8.26278	 -0.33248	  0.45814	  6.87940	 -0.35389	 11.03957	703.52002	 22.90	
 16.995	-29.081	  9.64535	  8.60510	 -0.55157	  0.87746	  6.34095	 -0.37459	 11.02922	703.53003	 22.90	
 16.990	-23.241	  9.66121	  8.89946	 -0.72712	  1.35286	  5.76426	 -0.39073	 11.03105	703.41998	 22.90	
 17.000	-17.404	  9.67297	  9.13531	 -0.86789	  1.86286	  5.17102	 -0.40568	 11.03214	703.46997	 22.80	
 17.009	-11.617	  9.67818	  9.29684	 -0.97145	  2.38663	  4.58268	 -0.41150	 11.03317	704.28003	 22.80	
 16.990	 -5.821	  9.68757	  9.38681	 -1.02048	  2.95749	  3.98182	 -0.41457	 11.03467	703.53003	 22.80	
 17.000	  0.000	  9.68623	  9.41550	 -1.03739	  3.53921	  3.38593	 -0.41751	 11.03144	704.12000	 22.80	
 16.990	  5.821	  9.69431	  9.37527	 -1.01292	  4.12910	  2.81850	 -0.41435	 11.03421	704.15002	 22.80	
 17.009	 11.617	  9.68892	  9.26694	 -0.95455	  4.73080	  2.25643	 -0.42155	 11.03758	703.97998	 22.80	
 17.000	 17.404	  9.68156	  9.08494	 -0.85852	  5.32202	  1.72749	 -0.42889	 11.03340	703.46002	 22.80	
 16.990	 23.241	  9.68076	  8.83686	 -0.71325	  5.90409	  1.23537	 -0.44524	 11.03639	704.09998	 22.80	
 16.995	 29.081	  9.66607	  8.52362	 -0.52871	  6.47542	  0.76737	 -0.46344	 11.03528	704.21997	 22.80	
 16.988	 34.839	  9.66635	  8.15567	 -0.30224	  7.00781	  0.35590	 -0.47486	 11.03726	704.25000	 22.80	
 17.014	 40.657	  9.65165	  7.73176	 -0.04024	  7.50454	 -0.01530	 -0.49024	 11.03501	704.22998	 22.80	
 17.007	 46.454	  9.63348	  7.24950	  0.27321	  7.96204	 -0.34971	 -0.50067	 11.02717	704.21002	 22.80	
 17.001	 52.301	  9.62478	  6.73019	  0.62541	  8.38566	 -0.64899	 -0.51219	 11.03724	704.21002	 22.80	
 17.006	 58.063	  9.60822	  6.17728	  1.01083	  8.74293	 -0.90437	 -0.53070	 11.03858	704.19000	 22.80	
 17.002	 63.866	  9.59296	  5.59293	  1.44731	  9.04311	 -1.11033	 -0.56249	 11.03588	704.23999	 22.80	
 17.001	 69.690	  9.57424	  4.99741	  1.91118	  9.27083	 -1.26295	 -0.58810	 11.02947	704.29999	 22.80	
 16.988	 75.483	  9.56657	  4.40323	  2.41210	  9.44920	 -1.37707	 -0.60073	 11.03641	704.27002	 22.80	
 17.012	 81.253	  9.53972	  3.79388	  2.92939	  9.56161	 -1.46915	 -0.59752	 11.03751	704.25000	 22.80	
 16.996	 87.091	  9.52230	  3.19093	  3.48918	  9.59849	 -1.50498	 -0.58355	 11.03772	704.32001	 22.80	
 16.996	 92.909	  9.49364	  2.60348	  4.05416	  9.56869	 -1.51146	 -0.57794	 11.03432	703.97998	 22.80	
 17.008	 98.662	  9.46860	  2.03743	  4.62587	  9.48007	 -1.47502	 -0.58313	 11.03226	704.21997	 22.80	
 16.988	104.517	  9.44977	  1.49791	  5.21316	  9.31162	 -1.38966	 -0.58370	 11.02851	704.32001	 22.80	
 17.001	110.310	  9.42294	  0.99372	  5.78181	  9.09031	 -1.28089	 -0.59552	 11.03171	703.71997	 22.80	
 17.002	116.134	  9.40585	  0.51937	  6.34760	  8.81020	 -1.12801	 -0.60292	 11.03650	704.28998	 22.80	
 17.006	121.937	  9.38318	  0.08873	  6.88716	  8.46008	 -0.93657	 -0.60504	 11.03595	703.66998	 22.80	
 17.001	127.699	  9.36978	 -0.28813	  7.39542	  8.06115	 -0.69366	 -0.59614	 11.03520	703.92999	 22.80	
 17.007	133.546	  9.35595	 -0.63308	  7.88078	  7.60154	 -0.40569	 -0.58193	 11.03434	704.26001	 22.80	
 17.014	139.343	  9.33190	 -0.94299	  8.31614	  7.09760	 -0.08964	 -0.57437	 11.03046	704.23999	 22.80	
 16.988	145.161	  9.32787	 -1.18624	  8.70653	  6.57301	  0.27476	 -0.57190	 11.03407	704.28998	 22.80	
 16.995	150.919	  9.31406	 -1.39307	  9.03627	  6.01408	  0.67901	 -0.56562	 11.03474	704.25000	 22.80	
 16.990	156.759	  9.31059	 -1.55853	  9.31678	  5.42927	  1.13086	 -0.55129	 11.03499	704.17999	 22.80	
 17.000	162.596	  9.29738	 -1.68572	  9.52983	  4.83847	  1.60373	 -0.53273	 11.03081	703.46002	 22.80	
 17.009	168.383	  9.29242	 -1.77713	  9.69229	  4.24347	  2.11403	 -0.51037	 11.03448	703.47998	 22.80	
 16.990	174.179	  9.29355	 -1.81570	  9.78189	  3.64559	  2.66579	 -0.47744	 11.03504	703.44000	 22.80	
 18.709	174.675	  8.91800	 -2.38758	 10.08107	  3.34491	  2.39896	 -0.50167	 11.03677	703.47998	 22.80	
 18.703	169.441	  8.91917	 -2.34486	  9.99446	  3.93123	  1.85975	 -0.53405	 11.03440	704.07001	 22.80	
 18.691	164.085	  8.92807	 -2.27175	  9.85680	  4.53062	  1.35402	 -0.56548	 11.03555	703.66998	 22.80	
 18.706	158.818	  8.93315	 -2.16353	  9.65871	  5.11454	  0.88152	 -0.59093	 11.03547	704.12000	 22.80	
 18.695	153.537	  8.94618	 -2.01582	  9.40314	  5.70849	  0.43432	 -0.61938	 11.03526	703.85999	 22.80	
 18.704	148.255	  8.94667	 -1.84116	  9.09319	  6.27422	  0.02009	 -0.64116	 11.02775	703.58002	 22.80	
 18.698	142.952	  8.96672	 -1.62741	  8.74356	  6.82062	 -0.34024	 -0.65114	 11.02939	703.53003	 22.80	
 18.699	137.625	  8.97860	 -1.37736	  8.33442	  7.34570	 -0.69148	 -0.66539	 11.03353	703.59998	 22.80	
 18.705	132.343	  8.98757	 -1.08303	  7.88364	  7.83486	 -0.99409	 -0.67948	 11.02954	703.87000	 22.80	
 18.713	127.067	  9.00483	 -0.73987	  7.39850	  8.28774	 -1.25446	 -0.69820	 11.03340	703.67999	 22.80	
 18.700	121.794	  9.02482	 -0.36476	  6.88567	  8.67337	 -1.46923	 -0.70968	 11.02845	704.41998	 22.80	
 18.698	116.504	  9.04480	  0.04399	  6.35115	  9.02031	 -1.65695	 -0.71018	 11.02659	703.63000	 22.80	
 18.707	111.165	  9.06269	  0.50278	  5.78539	  9.32636	 -1.82063	 -0.71408	 11.03280	704.28998	 22.80	
 18.690	105.863	  9.08770	  0.98928	  5.21495	  9.56177	 -1.93741	 -0.70852	 11.03149	703.90002	 22.80	
 18.696	100.583	  9.10806	  1.50467	  4.64028	  9.74123	 -2.01667	 -0.70725	 11.03237	703.63000	 22.80	
 18.700	 95.309	  9.12928	  2.05140	  4.06379	  9.85599	 -2.07362	 -0.70635	 11.03246	704.23999	 22.80	
 18.700	 90.000	  9.14832	  2.62291	  3.49602	  9.90795	 -2.07898	 -0.70829	 11.02587	704.27002	 22.80	
 18.700	 84.691	  9.17036	  3.20724	  2.94889	  9.90457	 -2.06024	 -0.71874	 11.02808	704.32001	 22.80	
 18.696	 79.417	  9.19130	  3.80820	  2.41341	  9.83629	 -2.00863	 -0.72614	 11.02618	704.32001	 22.80	
 18.690	 74.137	  9.21335	  4.41453	  1.90916	  9.70834	 -1.91308	 -0.72076	 11.02273	704.20001	 22.80	
 18.707	 68.835	  9.23043	  5.01388	  1.42407	  9.52653	 -1.79975	 -0.71033	 11.02915	703.50000	 22.80	
 18.698	 63.496	  9.25292	  5.62217	  0.96720	  9.28050	 -1.63747	 -0.68572	 11.03072	704.34998	 22.80	
 18.700	 58.206	  9.26544	  6.19312	  0.55176	  8.97901	 -1.44243	 -0.66320	 11.02463	703.94000	 22.80	
 18.713	 52.933	  9.28107	  6.74920	  0.16530	  8.63790	 -1.22212	 -0.64739	 11.02973	704.28998	 22.80	
 18.705	 47.657	  9.29641	  7.27249	 -0.17415	  8.23705	 -0.95080	 -0.63001	 11.02971	704.31000	 22.80	
 18.699	 42.375	  9.30855	  7.76264	 -0.48373	  7.78186	 -0.63233	 -0.61871	 11.03054	704.23999	 22.80	
 18.698	 37.048	  9.32622	  8.21152	 -0.75037	  7.29083	 -0.27518	 -0.60083	 11.03481	704.31000	 22.80	
 18.704	 31.745	  9.33351	  8.60604	 -0.98600	  6.77406	  0.09958	 -0.58388	 11.03806	704.26001	 22.80	
 18.695	 26.463	  9.34168	  8.94042	 -1.17551	  6.21936	  0.52768	 -0.56206	 11.03057	704.35999	 22.80	
 18.706	 21.182	  9.35056	  9.23617	 -1.33957	  5.64346	  0.99224	 -0.54274	 11.03309	704.17999	 22.80	
 18.691	 15.915	  9.35145	  9.45379	 -1.45971	  5.06240	  1.48030	 -0.51979	 11.02962	704.28003	 22.80	
 18.703	 10.559	  9.34718	  9.61957	 -1.55138	  4.45991	  2.00624	 -0.50283	 11.02408	704.28998	 22.80	
 18.709	  5.325	  9.34783	  9.72127	 -1.60562	  3.86561	  2.55062	 -0.49474	 11.03018	704.25000	 22.80	
 18.700	  0.000	  9.34855	  9.75344	 -1.61572	  3.28531	  3.12134	 -0.47854	 11.02256	704.22998	 22.80	
 18.709	 -5.325	  9.34960	  9.73961	 -1.60589	  2.70610	  3.70717	 -0.46426	 11.02898	704.28003	 22.80	
 18.703	-10.559	  9.34928	  9.65622	 -1.55366	  2.15537	  4.30460	 -0.45188	 11.03059	704.31000	 22.80	
 18.691	-15.915	  9.34074	  9.49930	 -1.46290	  1.62967	  4.89469	 -0.43346	 11.02488	704.29999	 22.80	
 18.706	-21.182	  9.33251	  9.29394	 -1.35039	  1.12566	  5.49361	 -0.41406	 11.03365	704.15002	 22.80	
 18.695	-26.463	  9.32143	  9.02396	 -1.19314	  0.64757	  6.07255	 -0.39243	 11.02890	704.27002	 22.80	
 18.704	-31.745	  9.30902	  8.70464	 -1.00711	  0.21722	  6.62294	 -0.37053	 11.02808	704.31000	 22.80	
 18.698	-37.048	  9.28941	  8.32366	 -0.78313	 -0.18641	  7.15566	 -0.35095	 11.02926	704.26001	 22.80	
 18.699	-42.375	  9.27286	  7.89079	 -0.51531	 -0.55615	  7.66663	 -0.32691	 11.02713	704.21997	 22.80	
 18.705	-47.657	  9.25492	  7.41923	 -0.20961	 -0.87741	  8.12669	 -0.31289	 11.02860	704.26001	 22.80	
 18.713	-52.933	  9.23787	  6.90994	  0.13426	 -1.15875	  8.54313	 -0.29210	 11.02879	704.21002	 22.80	
 18.700	-58.206	  9.22477	  6.37561	  0.51372	 -1.39577	  8.91355	 -0.28429	 11.03701	703.53003	 22.80	
 18.698	-63.496	  9.19220	  5.80004	  0.92665	 -1.60576	  9.21999	 -0.26590	 11.02055	704.21997	 22.80	
 18.707	-68.835	  9.17601	  5.20718	  1.38721	 -1.77770	  9.48770	 -0.25402	 11.02991	704.26001	 22.80	
 18.690	-74.137	  9.15849	  4.61196	  1.87280	 -1.90482	  9.68461	 -0.24318	 11.03406	703.40997	 22.80	
 18.696	-79.417	  9.12999	  4.01021	  2.37384	 -2.00716	  9.82108	 -0.23802	 11.02812	703.53003	 22.80	
 18.700	-84.691	  9.10821	  3.40757	  2.90773	 -2.07302	  9.89454	 -0.23235	 11.02598	704.09998	 22.80	
 18.700	-90.000	  9.09204	  2.82511	  3.45798	 -2.09841	  9.91501	 -0.23197	 11.02767	704.13000	 22.80	
 18.700	-95.309	  9.07310	  2.25327	  4.02507	 -2.09703	  9.87378	 -0.23542	 11.02672	704.17999	 22.80	
 18.696	-100.583	  9.05913	  1.69941	  4.60184	 -2.06462	  9.77499	 -0.23113	 11.03342	704.09998	 22.80	
 18.690	-105.863	  9.04154	  1.18353	  5.17459	 -1.99433	  9.61345	 -0.22671	 11.02948	703.48999	 22.80	
 18.707	-111.165	  9.01836	  0.68376	  5.74399	 -1.89870	  9.38690	 -0.23839	 11.02504	703.44000	 22.80	
 18.698	-116.504	  9.00460	  0.21946	  6.31174	 -1.75203	  9.10255	 -0.24100	 11.02092	703.97998	 22.80	
 18.700	-121.794	  8.99784	 -0.19846	  6.85814	 -1.57723	  8.77606	 -0.25188	 11.02794	704.15997	 22.80	
 18.713	-127.067	  8.97813	 -0.58705	  7.37164	 -1.37100	  8.38957	 -0.26011	 11.02794	703.65997	 22.80	
 18.705	-132.343	  8.96866	 -0.93338	  7.85602	 -1.11966	  7.96028	 -0.27082	 11.02843	704.15997	 22.80	
 18.699	-137.625	  8.95407	 -1.24145	  8.30661	 -0.83270	  7.48789	 -0.28465	 11.02774	703.44000	 22.80	
 18.698	-142.952	  8.95002	 -1.51009	  8.71902	 -0.49763	  6.97459	 -0.29684	 11.02940	703.41998	 22.80	
 18.704	-148.255	  8.94021	 -1.74768	  9.07812	 -0.13164	  6.43346	 -0.31519	 11.02525	703.70001	 22.80	
 18.695	-153.537	  8.93321	 -1.93529	  9.37996	  0.26627	  5.87547	 -0.33449	 11.02684	703.70001	 22.80	
 18.706	-158.818	  8.92579	 -2.09935	  9.63956	  0.70549	  5.29501	 -0.35484	 11.02378	703.39001	 22.80	
 18.691	-164.085	  8.92262	 -2.22072	  9.83732	  1.18585	  4.70205	 -0.38330	 11.02387	703.42999	 22.80	
 18.703	-169.441	  8.91551	 -2.31001	  9.98526	  1.68809	  4.11464	 -0.41421	 11.02344	703.41998	 22.70	
 18.709	-174.675	  8.91641	 -2.36942	 10.07054	  2.21833	  3.53117	 -0.43838	 11.02625	703.47998	 22.80	
 18.700	180.000	  8.91774	 -2.39156	 10.10106	  2.77923	  2.94923	 -0.46719	 11.03054	704.16998	 22.80	
 20.400	180.000	  8.51135	 -2.93815	 10.34520	  2.46859	  2.65794	 -0.45317	 11.02504	704.02002	 22.80	
 20.401	-175.153	  8.50974	 -2.91252	 10.32028	  1.92108	  3.22229	 -0.43028	 11.02490	703.77002	 22.80	
 20.407	-170.264	  8.51507	 -2.86281	 10.24356	  1.39540	  3.81159	 -0.39824	 11.02550	704.19000	 22.70	
 20.410	-165.423	  8.51538	 -2.79467	 10.11678	  0.89597	  4.38425	 -0.37094	 11.02319	703.47998	 22.70	
 20.392	-160.496	  8.52413	 -2.68055	  9.93401	  0.41930	  4.97811	 -0.34612	 11.02833	704.14001	 22.80	
 20.401	-155.705	  8.52921	 -2.54663	  9.70989	 -0.01476	  5.55995	 -0.32279	 11.03214	703.54999	 22.80	
 20.405	-150.835	  8.53641	 -2.38242	  9.42485	 -0.41754	  6.12168	 -0.30002	 11.03005	703.78998	 22.70	
 20.397	-145.903	  8.54179	 -2.16973	  9.07706	 -0.79537	  6.68460	 -0.28609	 11.02265	703.59998	 22.80	
 20.392	-141.062	  8.55208	 -1.93789	  8.70266	 -1.12825	  7.20865	 -0.27538	 11.02420	704.23999	 22.70	
 20.396	-136.227	  8.56616	 -1.66628	  8.29230	 -1.41959	  7.70390	 -0.26326	 11.03014	703.44000	 22.70	
 20.408	-131.372	  8.57017	 -1.37620	  7.83459	 -1.69038	  8.16277	 -0.26118	 11.02897	703.53003	 22.70	
 20.410	-126.511	  8.58211	 -1.02824	  7.33850	 -1.92777	  8.58886	 -0.24194	 11.02799	703.90002	 22.70	
 20.400	-121.604	  8.59599	 -0.65149	  6.81508	 -2.13132	  8.97785	 -0.23519	 11.03028	703.51001	 22.80	
 20.403	-116.741	  8.60836	 -0.24241	  6.27649	 -2.30147	  9.31011	 -0.22936	 11.03201	703.90997	 22.70	
 20.413	-111.900	  8.61581	  0.19990	  5.71425	 -2.43217	  9.59204	 -0.22224	 11.02217	703.48999	 22.70	
 20.398	-107.004	  8.64871	  0.68423	  5.15218	 -2.52463	  9.82722	 -0.22414	 11.03511	703.38000	 22.80	
 20.394	-102.132	  8.66381	  1.18673	  4.57891	 -2.58853	  9.99634	 -0.22413	 11.02494	703.38000	 22.70	
 20.403	-97.332	  8.67486	  1.70859	  4.01648	 -2.63515	 10.10987	 -0.22115	 11.02489	703.39001	 22.70	
 20.392	-92.440	  8.69562	  2.27465	  3.44736	 -2.64252	 10.17566	 -0.21490	 11.02432	703.53003	 22.70	
 20.392	-87.560	  8.71727	  2.84202	  2.89190	 -2.63182	 10.18996	 -0.22285	 11.02181	704.04999	 22.70	
 20.403	-82.668	  8.73497	  3.43251	  2.35799	 -2.59844	 10.15300	 -0.22232	 11.02997	704.20001	 22.70	
 20.394	-77.868	  8.75570	  4.02001	  1.84699	 -2.52727	 10.05506	 -0.22471	 11.02712	703.40997	 22.70	
 20.398	-72.996	  8.77546	  4.60996	  1.35407	 -2.43058	  9.90568	 -0.23943	 11.02768	703.41998	 22.70	
 20.413	-68.100	  8.78865	  5.20264	  0.88141	 -2.30544	  9.70152	 -0.23840	 11.02718	703.46997	 22.70	
 20.403	-63.259	  8.80813	  5.78460	  0.44476	 -2.14568	  9.44047	 -0.24526	 11.02644	703.66998	 22.70	
 20.400	-58.396	  8.83386	  6.35391	  0.04489	 -1.94978	  9.12932	 -0.25633	 11.02841	704.21997	 22.70	
 20.410	-53.489	  8.85761	  6.90336	 -0.32135	 -1.72204	  8.76597	 -0.27453	 11.03290	703.58002	 22.70	
 20.408	-48.628	  8.87554	  7.42303	 -0.66207	 -1.45457	  8.34628	 -0.29109	 11.02958	704.27002	 22.70	
 20.396	-43.773	  8.88983	  7.90054	 -0.96403	 -1.15306	  7.89325	 -0.30124	 11.02653	703.89001	 22.70	
 20.392	-38.938	  8.91260	  8.34091	 -1.21931	 -0.81434	  7.41249	 -0.32313	 11.02867	703.91998	 22.70	
 20.397	-34.097	  8.93257	  8.73714	 -1.44601	 -0.44181	  6.89250	 -0.34353	 11.03113	703.50000	 22.70	
 20.405	-29.165	  8.94179	  9.09447	 -1.65019	 -0.02731	  6.33367	 -0.37096	 11.02616	703.40002	 22.70	
 20.401	-24.295	  8.95610	  9.39657	 -1.81376	  0.40716	  5.77343	 -0.39195	 11.03597	703.46997	 22.70	
 20.392	-19.504	  8.96708	  9.63839	 -1.94476	  0.87525	  5.20255	 -0.40845	 11.03017	704.00000	 22.70	
 20.410	-14.577	  8.96989	  9.83054	 -2.05442	  1.37665	  4.59822	 -0.42684	 11.02452	703.59998	 22.70	
 20.407	 -9.736	  8.97966	  9.96667	 -2.12153	  1.89513	  4.02223	 -0.45256	 11.02988	703.47998	 22.70	
 20.401	 -4.847	  8.98408	 10.03720	 -2.16352	  2.45590	  3.42435	 -0.47562	 11.02674	703.50000	 22.70	
 20.400	  0.000	  8.98425	 10.05873	 -2.17628	  3.01949	  2.84895	 -0.50593	 11.02474	704.03003	 22.70	
 20.401	  4.847	  8.98720	 10.02822	 -2.16171	  3.58818	  2.29989	 -0.52674	 11.03010	704.09003	 22.70	
 20.407	  9.736	  8.98028	  9.93184	 -2.11509	  4.18294	  1.74900	 -0.55687	 11.02594	704.28998	 22.70	
 20.410	 14.577	  8.97470	  9.78632	 -2.04696	  4.76950	  1.22649	 -0.58243	 11.02449	703.53998	 22.70	
 20.392	 19.504	  8.96786	  9.56951	 -1.93769	  5.36006	  0.73831	 -0.61607	 11.01915	703.48999	 22.70	
 20.401	 24.295	  8.95894	  9.31156	 -1.80684	  5.92433	  0.27426	 -0.64702	 11.02353	703.54999	 22.70	
 20.405	 29.165	  8.95603	  8.99835	 -1.63146	  6.48972	 -0.15005	 -0.66935	 11.02714	703.53998	 22.70	
 20.397	 34.097	  8.95784	  8.63140	 -1.42011	  7.03309	 -0.53983	 -0.69196	 11.03315	703.46002	 22.70	
 20.392	 38.938	  8.94239	  8.21130	 -1.17988	  7.53403	 -0.89004	 -0.71589	 11.02650	703.53998	 22.70	
 20.396	 43.773	  8.92990	  7.75848	 -0.91504	  8.01256	 -1.22011	 -0.73528	 11.02671	703.46002	 22.70	
 20.408	 48.628	  8.91431	  7.26078	 -0.62009	  8.45465	 -1.51573	 -0.75243	 11.02716	703.59003	 22.70	
 20.410	 53.489	  8.90164	  6.72959	 -0.27839	  8.84496	 -1.76475	 -0.76349	 11.02565	703.54999	 22.70	
 20.400	 58.396	  8.88712	  6.17126	  0.09224	  9.19930	 -1.98713	 -0.78836	 11.02869	703.50000	 22.70	
 20.403	 63.259	  8.86667	  5.59262	  0.49172	  9.49922	 -2.17334	 -0.80319	 11.02664	704.33002	 22.70	
 20.413	 68.100	  8.84786	  5.00242	  0.92615	  9.74981	 -2.33242	 -0.82433	 11.02880	704.22998	 22.70	
 20.398	 72.996	  8.82910	  4.39274	  1.39248	  9.93874	 -2.45189	 -0.82695	 11.02334	704.25000	 22.70	
 20.394	 77.868	  8.80996	  3.80152	  1.88560	 10.07566	 -2.53712	 -0.83799	 11.02374	703.54999	 22.70	
 20.403	 82.668	  8.78921	  3.21077	  2.39289	 10.16369	 -2.59943	 -0.83450	 11.03030	703.70001	 22.70	
 20.392	 87.560	  8.77037	  2.62140	  2.93400	 10.18981	 -2.62903	 -0.82978	 11.02926	704.27002	 22.70	
 20.392	 92.440	  8.75030	  2.04920	  3.48409	 10.16967	 -2.62993	 -0.82423	 11.03161	704.26001	 22.70	
 20.403	 97.332	  8.71858	  1.49195	  4.04822	 10.08464	 -2.60235	 -0.82351	 11.02478	703.58002	 22.70	
 20.394	102.132	  8.70429	  0.97495	  4.61434	  9.95616	 -2.54685	 -0.82639	 11.02758	704.27002	 22.70	
 20.398	107.004	  8.67452	  0.47481	  5.17786	  9.76549	 -2.47186	 -0.81757	 11.02334	704.16998	 22.70	
 20.413	111.900	  8.64941	  0.00034	  5.74735	  9.51887	 -2.35392	 -0.81855	 11.02373	703.44000	 22.70	
 20.403	116.741	  8.63980	 -0.43284	  6.31007	  9.22012	 -2.20055	 -0.80850	 11.03209	704.02002	 22.70	
 20.400	121.604	  8.62183	 -0.82716	  6.84009	  8.87155	 -2.02388	 -0.79939	 11.02383	703.46997	 22.70	
 20.410	126.511	  8.60380	 -1.19617	  7.36778	  8.46783	 -1.80489	 -0.78460	 11.02924	703.54999	 22.70	
 20.408	131.372	  8.58260	 -1.53260	  7.85528	  8.02750	 -1.56541	 -0.76548	 11.02868	703.52002	 22.70	
 20.396	136.227	  8.56831	 -1.81467	  8.30607	  7.55238	 -1.28762	 -0.74409	 11.02728	704.26001	 22.70	
 20.392	141.062	  8.56427	 -2.06015	  8.72096	  7.04362	 -0.96661	 -0.71723	 11.02654	704.31000	 22.70	
 20.397	145.903	  8.55494	 -2.27847	  9.10280	  6.50873	 -0.62874	 -0.69276	 11.03148	704.28003	 22.70	
 20.405	150.835	  8.53245	 -2.46583	  9.43225	  5.93749	 -0.24924	 -0.67038	 11.02421	703.48999	 22.70	
 20.401	155.705	  8.53055	 -2.61695	  9.71839	  5.36893	  0.16482	 -0.63289	 11.03087	703.46997	 22.70	
 20.392	160.496	  8.52236	 -2.73414	  9.93944	  4.78627	  0.60840	 -0.60242	 11.02324	703.71997	 22.70	
 20.410	165.423	  8.51359	 -2.83580	 10.12670	  4.19333	  1.07708	 -0.56641	 11.02805	703.44000	 22.70	
 20.407	170.264	  8.51374	 -2.89863	 10.24952	  3.60955	  1.58222	 -0.52920	 11.02599	704.29999	 22.70	
 20.401	175.153	  8.51289	 -2.93058	 10.32632	  3.02345	  2.11847	 -0.49050	 11.03004	704.26001	 22.70	
  0.141	 45.000	 11.02445	  4.42608	  5.12169	  4.76044	  4.66062	  0.27571	 11.03533	704.08002	 22.70	
  4.001	128.691	 10.96329	  3.46928	  5.90136	  5.68606	  3.56774	  0.18742	 11.02413	704.16998	 22.70	
  4.002	 76.995	 10.99328	  4.60482	  4.78242	  6.03376	  3.36967	  0.25944	 11.02860	704.19000	 22.70	
  4.002	 25.892	 11.00535	  5.59708	  3.92582	  5.27999	  4.06222	  0.27989	 11.02452	703.53998	 22.70	
  4.002	-25.892	 11.00447	  5.60075	  3.92676	  4.12275	  5.20716	  0.24237	 11.02550	703.72998	 22.70	
  4.002	-76.995	 10.98352	  4.63929	  4.75472	  3.38459	  5.98981	  0.19173	 11.03394	703.53998	 22.70	
  4.001	-128.691	 10.95472	  3.47688	  5.90846	  3.55844	  5.67298	  0.15622	 11.02561	703.48999	 22.70	
  4.000	180.000	 10.94809	  2.99381	  6.44339	  4.55608	  4.56817	  0.16038	 11.02746	704.26001	 22.70	
  8.000	180.000	 10.67716	  1.46425	  7.68172	  4.25748	  4.31443	 -0.04290	 11.03038	704.28998	 22.70	
  7.991	-152.370	 10.68541	  1.76911	  7.33716	  3.02693	  5.64948	 -0.05146	 11.03312	704.29999	 22.70	
  7.997	-124.550	 10.70009	  2.56735	  6.40244	  2.17652	  6.72908	 -0.04762	 11.02611	704.22998	 22.70	
  8.006	-96.837	 10.73516	  3.75598	  5.14274	  1.81911	  7.27742	 -0.04489	 11.03087	704.03998	 22.70	
  7.988	-69.228	 10.77869	  5.10022	  3.88875	  2.01358	  7.11564	 -0.01605	 11.02809	703.89001	 22.70	
  7.997	-41.563	 10.82000	  6.28212	  2.91914	  2.71625	  6.31025	  0.03157	 11.03014	704.25000	 22.70	
  8.008	-13.821	 10.84576	  6.96716	  2.38618	  3.83840	  5.07415	  0.06953	 11.03088	704.01001	 22.70	
  8.008	 13.821	 10.85105	  6.94684	  2.38279	  5.16301	  3.75119	  0.11232	 11.03475	703.53003	 22.70	
  7.997	 41.563	 10.83346	  6.22818	  2.90715	  6.38484	  2.63939	  0.10161	 11.02701	703.69000	 22.70	
  7.988	 69.228	 10.80514	  5.02540	  3.89120	  7.15646	  1.97355	  0.07122	 11.02449	704.32001	 22.70	
  8.006	 96.837	 10.76233	  3.66597	  5.14845	  7.28226	  1.81195	  0.04749	 11.02512	704.22998	 22.70	
  7.997	124.550	 10.72224	  2.48373	  6.41030	  6.70185	  2.20449	  0.00183	 11.02460	703.89001	 22.70	
  7.991	152.370	 10.68791	  1.71577	  7.33519	  5.58983	  3.08904	 -0.02255	 11.02457	703.51001	 22.70	
 12.009	161.059	 10.19685	  0.08371	  8.50856	  5.20264	  2.61636	 -0.28379	 11.02962	704.21997	 22.70	
 12.013	142.081	 10.21950	  0.58165	  7.81382	  6.51621	  1.55001	 -0.25504	 11.02667	703.46997	 22.70	
 12.006	123.113	 10.25503	  1.43424	  6.74056	  7.59250	  0.78003	 -0.25985	 11.02312	703.50000	 22.70	
 12.007	104.200	 10.30068	  2.57806	  5.45607	  8.25342	  0.36098	 -0.22298	 11.02671	703.48999	 22.70	
 11.989	 85.301	 10.35525	  3.93382	  4.11308	  8.44388	  0.28800	 -0.20783	 11.02424	703.54999	 22.70	
 12.013	 66.294	 10.39847	  5.35214	  2.86953	  8.13006	  0.55659	 -0.18901	 11.02613	703.56000	 22.70	
 12.012	 47.388	 10.42286	  6.62769	  1.85584	  7.34971	  1.16109	 -0.14193	 11.02186	703.47998	 22.70	
 11.990	 28.440	 10.44914	  7.60084	  1.16839	  6.19986	  2.13044	 -0.11588	 11.02478	703.48999	 22.70	
 11.991	  9.464	 10.46757	  8.13562	  0.82352	  4.85038	  3.36045	 -0.11012	 11.02925	703.48999	 22.70	
 11.991	 -9.464	 10.46555	  8.15399	  0.82371	  3.48220	  4.72874	 -0.16145	 11.03128	703.40997	 22.70	
 11.990	-28.440	 10.43741	  7.66273	  1.17139	  2.24389	  6.08418	 -0.18693	 11.02564	703.47998	 22.70	
 12.012	-47.388	 10.40222	  6.72789	  1.85538	  1.24615	  7.26732	 -0.22903	 11.02800	703.50000	 22.70	
 12.013	-66.294	 10.35922	  5.47194	  2.85754	  0.60224	  8.07473	 -0.23701	 11.02814	703.34003	 22.70	
 11.989	-85.301	 10.31165	  4.06579	  4.10136	  0.30560	  8.42432	 -0.23413	 11.02448	704.16998	 22.70	
 12.007	-104.200	 10.26150	  2.71184	  5.43484	  0.33919	  8.26965	 -0.24666	 11.01594	704.06000	 22.70	
 12.006	-123.113	 10.23441	  1.55293	  6.72966	  0.73268	  7.63847	 -0.24511	 11.02685	703.46997	 22.70	
 12.013	-142.081	 10.19835	  0.67292	  7.79915	  1.46156	  6.59597	 -0.26164	 11.01916	703.42999	 22.70	
 12.009	-161.059	 10.18473	  0.13838	  8.50253	  2.51883	  5.29541	 -0.26960	 11.02257	704.12000	 22.70	
 16.000	180.000	  9.49677	 -1.48604	  9.62396	  3.23727	  3.37536	 -0.42783	 11.02709	704.33002	 22.70	
 15.990	-165.604	  9.50084	 -1.35200	  9.43763	  1.94930	  4.76115	 -0.38701	 11.03075	703.45001	 22.70	
 16.002	-151.165	  9.50616	 -0.98898	  8.89010	  0.83528	  6.12870	 -0.34837	 11.02512	703.48999	 22.70	
 16.002	-136.836	  9.52311	 -0.37706	  8.01776	 -0.03759	  7.35769	 -0.30007	 11.02229	703.63000	 22.70	
 15.995	-122.439	  9.55041	  0.48113	  6.88007	 -0.67576	  8.36157	 -0.26936	 11.02152	703.51001	 22.70	
 15.993	-107.966	  9.59787	  1.59741	  5.57670	 -1.04285	  9.04893	 -0.26284	 11.02714	703.58002	 22.70	
 16.005	-93.629	  9.63298	  2.87728	  4.21900	 -1.18455	  9.36744	 -0.25669	 11.02428	703.71997	 22.70	
 15.992	-79.234	  9.67840	  4.27447	  2.91845	 -1.08721	  9.29240	 -0.26928	 11.01847	703.65002	 22.70	
 16.009	-64.774	  9.73186	  5.68264	  1.74779	 -0.76195	  8.84921	 -0.29656	 11.03062	704.15997	 22.70	
 15.997	-50.364	  9.77206	  6.96870	  0.77741	 -0.17895	  8.03038	 -0.32567	 11.02336	703.96002	 22.70	
 15.997	-36.045	  9.81287	  8.02859	  0.04905	  0.65887	  6.92548	 -0.34282	 11.02119	704.23999	 22.70	
 16.000	-21.597	  9.84650	  8.78495	 -0.43321	  1.73831	  5.61269	 -0.36882	 11.02677	704.15997	 22.70	
 16.003	 -7.169	  9.86067	  9.15867	 -0.66206	  3.00026	  4.21944	 -0.37580	 11.02264	704.34003	 22.70	
 16.003	  7.169	  9.87289	  9.14973	 -0.66268	  4.36771	  2.86324	 -0.35959	 11.03257	704.34003	 22.70	
 16.000	 21.597	  9.85666	  8.72528	 -0.41268	  5.75377	  1.61349	 -0.36945	 11.02437	704.21997	 22.70	
 15.997	 36.045	  9.83385	  7.92340	  0.07401	  7.05013	  0.55726	 -0.40100	 11.01772	704.26001	 22.70	
 15.997	 50.364	  9.81655	  6.83956	  0.80501	  8.11874	 -0.23521	 -0.42719	 11.02854	704.20001	 22.70	
 16.009	 64.774	  9.77504	  5.51505	  1.76793	  8.90718	 -0.80275	 -0.48591	 11.02607	703.71997	 22.70	
 15.992	 79.234	  9.73059	  4.09836	  2.94520	  9.32069	 -1.10456	 -0.52103	 11.02322	704.28003	 22.70	
 16.005	 93.629	  9.68190	  2.70483	  4.25444	  9.36373	 -1.17268	 -0.49847	 11.02866	704.27002	 22.70	
 15.993	107.966	  9.63153	  1.42909	  5.60331	  9.00986	 -0.99662	 -0.51525	 11.02655	704.25000	 22.70	
 15.995	122.439	  9.57963	  0.33843	  6.90596	  8.28531	 -0.58732	 -0.53018	 11.02372	704.17999	 22.70	
 16.002	136.836	  9.54528	 -0.49813	  8.03238	  7.25189	  0.06890	 -0.51288	 11.02701	704.26001	 22.70	
 16.002	151.165	  9.51454	 -1.07397	  8.90128	  5.99304	  0.95705	 -0.50912	 11.02403	704.25000	 22.70	
 15.990	165.604	  9.50005	 -1.39486	  9.43938	  4.61602	  2.08342	 -0.48227	 11.02602	704.19000	 22.70	
 20.003	168.362	  8.61451	 -2.74606	 10.15199	  3.89711	  1.47228	 -0.54813	 11.02936	704.17999	 22.70	
 20.008	156.764	  8.62143	 -2.52517	  9.72427	  5.26188	  0.36464	 -0.61682	 11.02284	704.20001	 22.70	
 20.000	145.147	  8.64587	 -2.12085	  9.00897	  6.59305	 -0.56181	 -0.68779	 11.02056	704.21002	 22.70	
 19.995	133.545	  8.67713	 -1.53661	  8.04614	  7.79980	 -1.31483	 -0.74416	 11.02659	704.21002	 22.70	
 20.009	121.926	  8.71703	 -0.74034	  6.88574	  8.80517	 -1.88401	 -0.78136	 11.02287	703.56000	 22.70	
 20.005	110.327	  8.76072	  0.25151	  5.59856	  9.54964	 -2.25757	 -0.78916	 11.02600	704.23999	 22.70	
 19.989	 98.733	  8.81074	  1.42555	  4.26867	  9.98810	 -2.46165	 -0.80114	 11.02114	704.23999	 22.70	
 19.999	 87.075	  8.86076	  2.74048	  2.95542	 10.12620	 -2.49806	 -0.80519	 11.02239	704.25000	 22.70	
 19.992	 75.457	  8.91343	  4.13837	  1.73912	  9.95664	 -2.36444	 -0.80874	 11.02620	703.48999	 22.70	
 20.009	 63.844	  8.95618	  5.53805	  0.64668	  9.48113	 -2.06844	 -0.77650	 11.02528	703.47998	 22.70	
 19.989	 52.269	  8.99999	  6.85694	 -0.24737	  8.71395	 -1.58162	 -0.73409	 11.02492	704.28003	 22.70	
 19.999	 40.602	  9.02481	  8.02670	 -0.97303	  7.68080	 -0.88975	 -0.69574	 11.02030	703.51001	 22.70	
 20.004	 29.051	  9.04726	  8.95387	 -1.50700	  6.48310	 -0.03498	 -0.65322	 11.02682	703.51001	 22.70	
 20.005	 17.433	  9.06352	  9.61129	 -1.85669	  5.13550	  1.03156	 -0.59078	 11.02932	704.32001	 22.70	
 20.006	  5.780	  9.07516	  9.94787	 -2.02305	  3.75628	  2.26516	 -0.53200	 11.02838	704.28998	 22.70	
 20.006	 -5.780	  9.06985	  9.96179	 -2.02881	  2.41784	  3.59003	 -0.47389	 11.02552	704.15997	 22.70	
 20.005	-17.433	  9.05754	  9.66731	 -1.86202	  1.17831	  4.97768	 -0.42234	 11.03570	704.31000	 22.70	
 20.004	-29.051	  9.03803	  9.05665	 -1.52400	  0.08981	  6.32832	 -0.36924	 11.03282	704.27002	 22.70	
 19.999	-40.602	  8.99210	  8.16077	 -1.02026	 -0.82233	  7.56513	 -0.31819	 11.02976	704.25000	 22.70	
 19.989	-52.269	  8.95670	  7.02446	 -0.28791	 -1.52290	  8.62104	 -0.27916	 11.02571	704.34003	 22.70	
 20.009	-63.844	  8.90690	  5.73617	  0.60765	 -2.04050	  9.42795	 -0.25579	 11.03448	703.84003	 22.70	
 19.992	-75.457	  8.85929	  4.34892	  1.70061	 -2.35084	  9.92455	 -0.23626	 11.02588	704.31000	 22.70	
 19.999	-87.075	  8.81195	  2.95908	  2.92225	 -2.50109	 10.12207	 -0.22403	 11.02488	704.29999	 22.70	
 19.989	-98.733	  8.77083	  1.64264	  4.23662	 -2.48920	 10.01965	 -0.22424	 11.02734	704.32001	 22.70	
 20.005	-110.327	  8.71844	  0.45169	  5.56274	 -2.33843	  9.61751	 -0.21903	 11.02374	704.28998	 22.70	
 20.009	-121.926	  8.68780	 -0.56633	  6.85285	 -1.99239	  8.90934	 -0.24208	 11.02279	704.23999	 22.70	
 19.995	-133.545	  8.67018	 -1.38690	  8.03021	 -1.44810	  7.94078	 -0.26292	 11.02906	704.10999	 22.70	
 20.000	-145.147	  8.63837	 -2.01036	  8.98647	 -0.72771	  6.76540	 -0.29179	 11.02112	704.03003	 22.70	
 20.008	-156.764	  8.62033	 -2.45400	  9.71210	  0.18216	  5.45382	 -0.33169	 11.02574	704.22998	 22.70	
 20.003	-168.362	  8.61175	 -2.71330	 10.14509	  1.28867	  4.08057	 -0.39721	 11.02781	704.25000	 22.70	
 20.000	180.000	  8.61175	 -2.80967	 10.29136	  2.55117	  2.72706	 -0.46465	 11.02703	704.27002	 22.70	
