FileType=PCF
NHL=14
Date=08/26/17	13:05:11
Facility=APL
Serial=16328-8
Customer=NASA
NP=6
Mach=0.100000
Calibration=1:1
CalPts=490
TstPts=95
PortNumbering=AP Standard
Units=Torr C m/s kg/m^3 deg mm 
Theta[deg]	Phi[deg]	P1[Torr]	P2[Torr]	P3[Torr]	P4[Torr]	P5[Torr]	P6[Torr]	Pt[Torr]	Ps[Abs,Torr]	Ts[C]	
  0.000	  0.000	  4.97799	  2.59785	  2.55945	  2.57744	  2.62171	  0.03931	  4.97407	710.31201	 23.50	
  1.691	128.401	  4.98577	  2.45473	  2.69457	  2.75347	  2.43889	  0.03120	  4.98278	710.17902	 23.50	
  1.692	 77.194	  4.97588	  2.64711	  2.49319	  2.79511	  2.38535	  0.03389	  4.97595	710.19598	 23.50	
  1.699	 26.182	  4.97720	  2.79997	  2.33804	  2.66944	  2.50554	  0.03249	  4.97421	710.28101	 23.50	
  1.699	-26.182	  4.97198	  2.78438	  2.34427	  2.45723	  2.70981	  0.02709	  4.96891	710.29999	 23.50	
  1.692	-77.194	  4.97350	  2.63259	  2.50161	  2.33901	  2.83903	  0.03236	  4.97164	710.24103	 23.50	
  1.691	-128.401	  4.97788	  2.44074	  2.70538	  2.38881	  2.79937	  0.03284	  4.97483	710.23499	 23.50	
  1.700	180.000	  4.96617	  2.34996	  2.78746	  2.56808	  2.61398	  0.03498	  4.96251	710.29700	 23.50	
  3.400	180.000	  4.96861	  2.08490	  3.02695	  2.53865	  2.58457	  0.01917	  4.97382	710.35602	 23.50	
  3.388	-152.325	  4.98002	  2.13726	  2.97701	  2.32840	  2.81320	  0.01957	  4.98696	710.23499	 23.50	
  3.397	-124.529	  4.97758	  2.27256	  2.81303	  2.14925	  2.99719	  0.00896	  4.98176	710.21899	 23.50	
  3.399	-96.763	  4.96573	  2.48137	  2.57173	  2.06276	  3.07762	  0.00093	  4.97051	710.19598	 23.50	
  3.394	-69.283	  4.96005	  2.71333	  2.34395	  2.08559	  3.04181	  0.00795	  4.96463	710.17401	 23.50	
  3.400	-41.398	  4.95764	  2.91842	  2.15374	  2.20543	  2.89499	  0.00808	  4.96246	710.27899	 23.50	
  3.401	-14.021	  4.96517	  3.04417	  2.05708	  2.40521	  2.69327	  0.01725	  4.96918	710.31097	 23.50	
  3.401	 14.021	  4.96998	  3.05458	  2.05641	  2.64665	  2.46166	  0.01860	  4.97556	710.28998	 23.50	
  3.400	 41.398	  4.97954	  2.95313	  2.15816	  2.87082	  2.26792	  0.01861	  4.98701	710.26398	 23.50	
  3.394	 69.283	  4.97803	  2.75016	  2.34386	  3.01258	  2.14662	  0.01376	  4.98345	710.15698	 23.50	
  3.399	 96.763	  4.96619	  2.50967	  2.56657	  3.04627	  2.11454	  0.02056	  4.97196	710.28302	 23.50	
  3.397	124.529	  4.96923	  2.29372	  2.79479	  2.96052	  2.19250	  0.01425	  4.97331	710.17700	 23.50	
  3.388	152.325	  4.96402	  2.14262	  2.95991	  2.77565	  2.35225	  0.01952	  4.96759	710.27197	 23.50	
  5.099	161.165	  4.93939	  1.83679	  3.22052	  2.76223	  2.29863	  0.00474	  4.96631	710.22400	 23.50	
  5.109	142.013	  4.93432	  1.95096	  3.08495	  2.98823	  2.08606	  0.00247	  4.96286	710.23798	 23.50	
  5.095	123.033	  4.94100	  2.13176	  2.89212	  3.16520	  1.93702	 -0.00431	  4.96848	710.20001	 23.50	
  5.105	104.191	  4.93403	  2.34874	  2.65268	  3.26318	  1.84157	 -0.00333	  4.95949	710.27600	 23.50	
  5.093	 85.207	  4.94401	  2.60286	  2.40803	  3.28560	  1.82767	 -0.00637	  4.97302	710.19299	 23.50	
  5.104	 66.290	  4.93218	  2.84108	  2.16511	  3.20909	  1.87372	 -0.00252	  4.96338	710.16602	 23.50	
  5.094	 47.331	  4.94097	  3.06113	  1.97129	  3.06282	  1.99957	 -0.00101	  4.97084	710.24200	 23.60	
  5.089	 28.397	  4.94553	  3.21898	  1.83353	  2.85943	  2.18254	  0.00160	  4.97465	710.30701	 23.50	
  5.096	  9.576	  4.94109	  3.29863	  1.75642	  2.61292	  2.40620	  0.00028	  4.97173	710.23297	 23.50	
  5.096	 -9.576	  4.94038	  3.29056	  1.75971	  2.35775	  2.66108	  0.00081	  4.97040	710.16498	 23.50	
  5.089	-28.397	  4.94407	  3.20111	  1.83876	  2.13452	  2.90038	 -0.00316	  4.97534	710.17700	 23.60	
  5.094	-47.331	  4.93961	  3.03220	  1.97954	  1.94633	  3.10681	 -0.01054	  4.96860	710.17200	 23.50	
  5.104	-66.290	  4.94033	  2.81274	  2.17905	  1.82025	  3.25725	 -0.01775	  4.97054	710.09003	 23.60	
  5.093	-85.207	  4.93800	  2.56180	  2.41753	  1.76691	  3.32319	 -0.02090	  4.96929	710.12402	 23.60	
  5.105	-104.191	  4.94801	  2.31616	  2.67757	  1.79049	  3.31017	 -0.01515	  4.97471	710.12402	 23.60	
  5.095	-123.033	  4.94132	  2.09551	  2.90746	  1.88641	  3.19920	 -0.00835	  4.96852	710.05902	 23.60	
  5.109	-142.013	  4.94993	  1.92707	  3.11168	  2.05436	  3.02281	  0.00217	  4.97532	710.11200	 23.60	
  5.099	-161.165	  4.93487	  1.81848	  3.22586	  2.26413	  2.78267	  0.00507	  4.96187	710.25598	 23.60	
  5.100	180.000	  4.94858	  1.79537	  3.27660	  2.51495	  2.54544	  0.00505	  4.97703	710.17102	 23.60	
  6.800	180.000	  4.89573	  1.48978	  3.50424	  2.46589	  2.49180	 -0.01952	  4.96093	710.08398	 23.60	
  6.796	-166.229	  4.89795	  1.51397	  3.47895	  2.22696	  2.73956	 -0.02179	  4.96664	710.13098	 23.60	
  6.808	-152.311	  4.89967	  1.58376	  3.38892	  1.99781	  2.97632	 -0.02342	  4.96845	710.16901	 23.60	
  6.795	-138.383	  4.90447	  1.71083	  3.23995	  1.79905	  3.19728	 -0.02579	  4.97238	710.09198	 23.60	
  6.792	-124.591	  4.89854	  1.87892	  3.03994	  1.63774	  3.36842	 -0.03697	  4.96548	710.06702	 23.60	
  6.787	-110.754	  4.90126	  2.08499	  2.81385	  1.53188	  3.49196	 -0.04374	  4.97265	710.10699	 23.60	
  6.800	-96.985	  4.89470	  2.31338	  2.56433	  1.47130	  3.54940	 -0.05432	  4.96677	709.94098	 23.60	
  6.800	-83.015	  4.90067	  2.57437	  2.31426	  1.47135	  3.55324	 -0.05280	  4.97338	709.97498	 23.50	
  6.787	-69.246	  4.89148	  2.81440	  2.07578	  1.51789	  3.48487	 -0.05146	  4.96618	710.02399	 23.50	
  6.792	-55.409	  4.89000	  3.04665	  1.86338	  1.61918	  3.36136	 -0.04286	  4.96710	710.04498	 23.60	
  6.795	-41.617	  4.88529	  3.24291	  1.68691	  1.76731	  3.17990	 -0.03487	  4.96014	710.03900	 23.60	
  6.808	-27.689	  4.89058	  3.40486	  1.55237	  1.96262	  2.96629	 -0.03139	  4.96802	710.07501	 23.60	
  6.796	-13.771	  4.90809	  3.51332	  1.47697	  2.19237	  2.73557	 -0.02645	  4.98206	710.14001	 23.60	
  6.800	  0.000	  4.90441	  3.54928	  1.44585	  2.43102	  2.48652	 -0.02258	  4.98061	710.10699	 23.50	
  6.796	 13.771	  4.90620	  3.52385	  1.46805	  2.68412	  2.24215	 -0.02471	  4.98205	710.07202	 23.50	
  6.808	 27.689	  4.90673	  3.43476	  1.54198	  2.92689	  2.01628	 -0.02857	  4.98062	709.98798	 23.50	
  6.795	 41.617	  4.90743	  3.28605	  1.67611	  3.13971	  1.83161	 -0.02448	  4.98138	710.10101	 23.50	
  6.792	 55.409	  4.90686	  3.09375	  1.84734	  3.32253	  1.67748	 -0.02873	  4.98119	710.07501	 23.50	
  6.787	 69.246	  4.89775	  2.86229	  2.05290	  3.44409	  1.57290	 -0.03331	  4.96984	710.06702	 23.50	
  6.800	 83.015	  4.89429	  2.61905	  2.28433	  3.51269	  1.51943	 -0.03518	  4.96646	709.98901	 23.50	
  6.800	 96.985	  4.88949	  2.36323	  2.53654	  3.51494	  1.52106	 -0.03632	  4.95865	709.93701	 23.50	
  6.787	110.754	  4.92008	  2.14420	  2.79714	  3.47384	  1.58889	 -0.03650	  4.98871	710.14001	 23.50	
  6.792	124.591	  4.90097	  1.92413	  3.01718	  3.34289	  1.68553	 -0.02942	  4.97029	710.04102	 23.50	
  6.795	138.383	  4.90541	  1.74819	  3.21920	  3.17293	  1.84085	 -0.02764	  4.97359	709.92603	 23.50	
  6.808	152.311	  4.90642	  1.61497	  3.37727	  2.96554	  2.03045	 -0.02173	  4.97365	710.18799	 23.50	
  6.796	166.229	  4.91508	  1.53522	  3.48065	  2.73047	  2.25797	 -0.01657	  4.98360	709.96600	 23.50	
  8.491	168.704	  4.84298	  1.21474	  3.70004	  2.67386	  2.18189	 -0.05086	  4.97188	710.05103	 23.50	
  8.502	157.493	  4.86297	  1.28747	  3.63474	  2.93484	  1.95806	 -0.05673	  4.99164	710.02502	 23.50	
  8.494	146.194	  4.85266	  1.40200	  3.49054	  3.16219	  1.74224	 -0.05868	  4.97979	710.07001	 23.50	
  8.495	135.039	  4.84765	  1.55083	  3.31224	  3.36368	  1.56009	 -0.06200	  4.97366	709.96899	 23.50	
  8.487	123.723	  4.85782	  1.74420	  3.10391	  3.54160	  1.41421	 -0.07226	  4.98731	709.98199	 23.50	
  8.492	112.575	  4.84077	  1.94901	  2.86044	  3.65156	  1.30169	 -0.08306	  4.96782	709.96503	 23.50	
  8.510	101.220	  4.83965	  2.18497	  2.60588	  3.72590	  1.23178	 -0.08698	  4.96680	710.09802	 23.50	
  8.500	 90.000	  4.85353	  2.44575	  2.35805	  3.75720	  1.21528	 -0.07649	  4.98419	709.92999	 23.50	
  8.510	 78.780	  4.83410	  2.69129	  2.09513	  3.71133	  1.22526	 -0.07390	  4.96280	709.95398	 23.50	
  8.492	 67.425	  4.83809	  2.94445	  1.85902	  3.63058	  1.29089	 -0.07272	  4.97433	709.96503	 23.50	
  8.487	 56.277	  4.83734	  3.17455	  1.64752	  3.50010	  1.39291	 -0.06582	  4.97391	709.83899	 23.50	
  8.495	 44.961	  4.82770	  3.37547	  1.46144	  3.31503	  1.53705	 -0.05809	  4.96445	709.98199	 23.50	
  8.494	 33.806	  4.83549	  3.54695	  1.31929	  3.10869	  1.72292	 -0.05885	  4.97420	709.96503	 23.50	
  8.502	 22.507	  4.82479	  3.65893	  1.21251	  2.86521	  1.92964	 -0.06475	  4.96126	710.09497	 23.50	
  8.491	 11.296	  4.83841	  3.74088	  1.15207	  2.62245	  2.16723	 -0.06511	  4.97701	709.93500	 23.50	
  8.500	  0.000	  4.82672	  3.75741	  1.13043	  2.35597	  2.41781	 -0.05510	  4.96525	709.92902	 23.50	
  8.491	-11.296	  4.83242	  3.72752	  1.15836	  2.11005	  2.67503	 -0.06058	  4.97090	709.93799	 23.50	
  8.502	-22.507	  4.82544	  3.63891	  1.22303	  1.87171	  2.92047	 -0.06784	  4.96504	709.94098	 23.50	
  8.494	-33.806	  4.83984	  3.51594	  1.34066	  1.66425	  3.16755	 -0.07269	  4.97845	710.00500	 23.50	
  8.495	-44.961	  4.84629	  3.34542	  1.49344	  1.48544	  3.38154	 -0.07272	  4.98640	710.07800	 23.50	
  8.487	-56.277	  4.84430	  3.13024	  1.67727	  1.34067	  3.55106	 -0.08142	  4.98284	709.97198	 23.50	
  8.492	-67.425	  4.83328	  2.88459	  1.88949	  1.23461	  3.66914	 -0.09805	  4.97285	709.98901	 23.50	
  8.510	-78.780	  4.83536	  2.63427	  2.12833	  1.16929	  3.75408	 -0.09683	  4.97016	709.95398	 23.50	
  8.500	-90.000	  4.84057	  2.37565	  2.38453	  1.15299	  3.78246	 -0.09538	  4.97544	709.90997	 23.50	
  8.510	-101.220	  4.84325	  2.12330	  2.64291	  1.17758	  3.75909	 -0.08868	  4.97586	709.98499	 23.50	
  8.492	-112.575	  4.84106	  1.88550	  2.89520	  1.25089	  3.67613	 -0.08221	  4.97329	709.95801	 23.50	
  8.487	-123.723	  4.84467	  1.68299	  3.12923	  1.36615	  3.55116	 -0.06936	  4.97342	709.90997	 23.50	
  8.495	-135.039	  4.85291	  1.50337	  3.34407	  1.51732	  3.38781	 -0.05721	  4.98354	710.11200	 23.50	
  8.494	-146.194	  4.84065	  1.36161	  3.50316	  1.70170	  3.17181	 -0.06041	  4.97007	710.03802	 23.50	
  8.502	-157.493	  4.85720	  1.26158	  3.64323	  1.92941	  2.94382	 -0.06213	  4.98331	709.99902	 23.50	
  8.491	-168.704	  4.84538	  1.20658	  3.70697	  2.16272	  2.68985	 -0.05787	  4.97106	709.94299	 23.50	
  8.500	180.000	  4.84789	  1.19043	  3.73231	  2.41722	  2.43693	 -0.04924	  4.97352	710.13800	 23.50	
 10.200	180.000	  4.77318	  0.88147	  3.94446	  2.35102	  2.36651	 -0.08314	  4.97964	710.05499	 23.50	
 10.191	-170.497	  4.76380	  0.89010	  3.91626	  2.08996	  2.61715	 -0.09336	  4.96894	710.09302	 23.50	
 10.210	-161.034	  4.76329	  0.93290	  3.85319	  1.84171	  2.86992	 -0.10499	  4.96932	710.04498	 23.50	
 10.194	-151.526	  4.76590	  1.02407	  3.74320	  1.61540	  3.12010	 -0.09738	  4.97023	710.09198	 23.50	
 10.190	-142.105	  4.77335	  1.14303	  3.60215	  1.41060	  3.35275	 -0.09028	  4.97999	710.00201	 23.50	
 10.215	-132.646	  4.77613	  1.29567	  3.42059	  1.23433	  3.55318	 -0.09192	  4.98212	710.09302	 23.50	
 10.203	-123.092	  4.76600	  1.47826	  3.19857	  1.08369	  3.71804	 -0.10091	  4.97551	710.01599	 23.50	
 10.192	-113.678	  4.75861	  1.68533	  2.95658	  0.97040	  3.84110	 -0.11501	  4.96950	710.12598	 23.50	
 10.208	-104.249	  4.76432	  1.91907	  2.70942	  0.89026	  3.93940	 -0.12298	  4.97804	710.11798	 23.50	
 10.210	-94.801	  4.75486	  2.16446	  2.44518	  0.84778	  3.97975	 -0.13309	  4.97235	709.96600	 23.50	
 10.210	-85.199	  4.75875	  2.42967	  2.18436	  0.84258	  3.98337	 -0.13839	  4.97984	710.00800	 23.50	
 10.208	-75.751	  4.75657	  2.69111	  1.93168	  0.87590	  3.93474	 -0.13477	  4.97667	710.09198	 23.50	
 10.192	-66.322	  4.75821	  2.94626	  1.69722	  0.94902	  3.84560	 -0.12860	  4.97803	710.08600	 23.50	
 10.203	-56.908	  4.74792	  3.18230	  1.47791	  1.05063	  3.70819	 -0.11902	  4.97039	709.96503	 23.50	
 10.215	-47.354	  4.74931	  3.40658	  1.28289	  1.19210	  3.53885	 -0.11146	  4.97555	709.95398	 23.50	
 10.190	-37.895	  4.74839	  3.58992	  1.12568	  1.36300	  3.33532	 -0.10632	  4.97133	709.97699	 23.50	
 10.194	-28.474	  4.74624	  3.74684	  0.99602	  1.55934	  3.10872	 -0.10559	  4.97238	710.06897	 23.50	
 10.210	-18.966	  4.76278	  3.87717	  0.90262	  1.78993	  2.86939	 -0.09960	  4.98675	710.00598	 23.50	
 10.191	 -9.503	  4.74464	  3.92846	  0.84376	  2.02405	  2.60238	 -0.09654	  4.96319	709.93402	 23.50	
 10.200	  0.000	  4.76911	  3.98156	  0.82493	  2.28987	  2.35778	 -0.08819	  4.99190	709.97998	 23.50	
 10.191	  9.503	  4.74434	  3.93992	  0.83815	  2.53989	  2.08661	 -0.09930	  4.96532	709.94098	 23.50	
 10.210	 18.966	  4.76018	  3.89351	  0.88922	  2.80499	  1.85129	 -0.10469	  4.98207	709.73700	 23.50	
 10.194	 28.474	  4.75360	  3.78226	  0.98019	  3.04982	  1.62900	 -0.10113	  4.97422	709.84998	 23.50	
 10.190	 37.895	  4.76199	  3.64214	  1.10556	  3.28718	  1.42974	 -0.09447	  4.98124	709.84198	 23.50	
 10.215	 47.354	  4.76256	  3.46539	  1.25723	  3.49538	  1.25350	 -0.10175	  4.98207	709.89203	 23.50	
 10.203	 56.908	  4.76128	  3.24903	  1.44682	  3.66477	  1.11707	 -0.10635	  4.97803	709.79401	 23.50	
 10.192	 66.322	  4.76960	  3.01785	  1.66412	  3.80424	  1.01662	 -0.11263	  4.98715	709.89801	 23.50	
 10.208	 75.751	  4.75933	  2.76405	  1.89078	  3.89134	  0.93963	 -0.12217	  4.97026	710.01300	 23.50	
 10.210	 85.199	  4.76365	  2.50856	  2.13987	  3.94617	  0.90356	 -0.12118	  4.97300	709.91998	 23.50	
 10.210	 94.801	  4.77380	  2.24783	  2.41251	  3.95689	  0.91079	 -0.13108	  4.98184	709.85400	 23.50	
 10.208	104.249	  4.76529	  1.99603	  2.66653	  3.91197	  0.94822	 -0.13507	  4.97108	709.88202	 23.50	
 10.192	113.678	  4.76125	  1.76090	  2.91568	  3.82085	  1.02516	 -0.12700	  4.96616	709.86401	 23.50	
 10.203	123.092	  4.77000	  1.54736	  3.16237	  3.70470	  1.13145	 -0.11638	  4.97410	709.83398	 23.50	
 10.215	132.646	  4.77664	  1.35466	  3.38752	  3.54641	  1.27160	 -0.10316	  4.97888	709.76099	 23.50	
 10.190	142.105	  4.77336	  1.19593	  3.57340	  3.34322	  1.44832	 -0.09502	  4.98033	709.67798	 23.50	
 10.194	151.526	  4.77842	  1.06661	  3.73121	  3.12006	  1.64912	 -0.09281	  4.98481	709.71600	 23.50	
 10.210	161.034	  4.76939	  0.96171	  3.84283	  2.87065	  1.86564	 -0.09267	  4.97437	709.86700	 23.50	
 10.191	170.497	  4.76820	  0.90629	  3.91187	  2.61408	  2.10750	 -0.08219	  4.97199	709.78900	 23.50	
 11.899	171.783	  4.67649	  0.59427	  4.10742	  2.53704	  2.02104	 -0.12125	  4.97615	709.92102	 23.50	
 11.890	163.610	  4.67255	  0.65030	  4.03842	  2.79340	  1.77836	 -0.12630	  4.96996	709.88898	 23.50	
 11.889	155.445	  4.67779	  0.73305	  3.94379	  3.04597	  1.55442	 -0.12874	  4.97684	709.87299	 23.50	
 11.909	147.299	  4.67117	  0.84146	  3.80343	  3.28230	  1.33708	 -0.13424	  4.97175	709.79401	 23.50	
 11.902	139.148	  4.67928	  0.98502	  3.63664	  3.50452	  1.15193	 -0.13674	  4.97840	709.82800	 23.50	
 11.894	130.867	  4.67846	  1.15849	  3.43349	  3.69590	  0.99041	 -0.14482	  4.97766	709.91498	 23.50	
 11.897	122.732	  4.68697	  1.34936	  3.21955	  3.86414	  0.85435	 -0.16342	  4.98625	709.90997	 23.50	
 11.903	114.597	  4.67263	  1.56179	  2.96840	  3.98392	  0.74259	 -0.17704	  4.97569	709.83600	 23.50	
 11.893	106.346	  4.67677	  1.79687	  2.71191	  4.07764	  0.66571	 -0.17947	  4.97703	709.89801	 23.50	
 11.892	 98.155	  4.68916	  2.05093	  2.45796	  4.14562	  0.61536	 -0.18204	  4.99388	709.90302	 23.50	
 11.900	 90.000	  4.68031	  2.30411	  2.19123	  4.15337	  0.59502	 -0.17523	  4.98581	709.87903	 23.50	
 11.892	 81.845	  4.67302	  2.56257	  1.93409	  4.12055	  0.61224	 -0.16509	  4.97784	709.85901	 23.50	
 11.893	 73.654	  4.66495	  2.81801	  1.68314	  4.05204	  0.65473	 -0.16019	  4.97606	709.85901	 23.50	
 11.903	 65.403	  4.66764	  3.07269	  1.44897	  3.95409	  0.72820	 -0.15408	  4.98310	709.82300	 23.50	
 11.897	 57.268	  4.66058	  3.30498	  1.23825	  3.81076	  0.83527	 -0.14494	  4.97583	709.94098	 23.50	
 11.894	 49.133	  4.66463	  3.52258	  1.05256	  3.64209	  0.97012	 -0.13829	  4.97948	709.81897	 23.50	
 11.902	 40.852	  4.64885	  3.70410	  0.88370	  3.43234	  1.12967	 -0.13249	  4.96590	709.81598	 23.50	
 11.909	 32.701	  4.66608	  3.88154	  0.75144	  3.22258	  1.32135	 -0.13726	  4.98861	709.74701	 23.50	
 11.889	 24.555	  4.65088	  3.99462	  0.64651	  2.96813	  1.53062	 -0.13894	  4.96860	709.63000	 23.50	
 11.890	 16.390	  4.64616	  4.07907	  0.57011	  2.71189	  1.75773	 -0.13544	  4.96640	709.57397	 23.50	
 11.899	  8.217	  4.65114	  4.13904	  0.52644	  2.45438	  2.00309	 -0.13161	  4.97128	709.73798	 23.50	
 11.900	  0.000	  4.65800	  4.15787	  0.51542	  2.19426	  2.26723	 -0.12401	  4.97900	709.54401	 23.50	
 11.899	 -8.217	  4.64958	  4.12898	  0.52934	  1.93555	  2.52199	 -0.12596	  4.97258	709.66101	 23.50	
 11.890	-16.390	  4.65724	  4.06924	  0.58124	  1.69354	  2.78469	 -0.13145	  4.97782	709.69501	 23.50	
 11.889	-24.555	  4.65571	  3.96701	  0.66568	  1.46284	  3.03923	 -0.13845	  4.97866	709.71301	 23.50	
 11.909	-32.701	  4.65216	  3.82918	  0.77170	  1.25116	  3.27694	 -0.13986	  4.97576	709.70898	 23.50	
 11.902	-40.852	  4.65849	  3.66302	  0.91418	  1.06698	  3.49916	 -0.14295	  4.98408	709.66998	 23.50	
 11.894	-49.133	  4.65151	  3.45431	  1.07970	  0.89893	  3.69540	 -0.14690	  4.97657	709.84198	 23.50	
 11.897	-57.268	  4.65067	  3.22868	  1.27419	  0.76392	  3.85988	 -0.15688	  4.97440	709.73798	 23.50	
 11.903	-65.403	  4.64614	  2.98405	  1.48502	  0.65860	  3.98904	 -0.16291	  4.96974	709.76099	 23.50	
 11.893	-73.654	  4.65119	  2.72864	  1.72427	  0.58732	  4.08732	 -0.16945	  4.96951	709.85602	 23.50	
 11.892	-81.845	  4.65758	  2.46411	  1.97595	  0.54172	  4.14925	 -0.18185	  4.97540	709.77399	 23.50	
 11.900	-90.000	  4.65908	  2.20648	  2.23311	  0.53451	  4.16920	 -0.17513	  4.97523	709.75800	 23.50	
 11.892	-98.155	  4.65584	  1.94813	  2.49263	  0.55417	  4.14360	 -0.16772	  4.96730	709.56403	 23.50	
 11.893	-106.346	  4.65991	  1.70496	  2.75482	  0.60685	  4.08886	 -0.15838	  4.97253	709.54602	 23.50	
 11.903	-114.597	  4.66787	  1.47462	  3.01431	  0.68716	  4.00025	 -0.14914	  4.97840	709.60498	 23.50	
 11.897	-122.732	  4.66597	  1.26718	  3.24980	  0.80030	  3.86480	 -0.13691	  4.97300	709.68402	 23.50	
 11.894	-130.867	  4.67409	  1.08632	  3.47217	  0.94723	  3.70103	 -0.12796	  4.97958	709.66400	 23.50	
 11.902	-139.148	  4.66826	  0.92264	  3.66512	  1.11490	  3.50026	 -0.12774	  4.97163	709.63000	 23.50	
 11.909	-147.299	  4.67273	  0.78887	  3.83394	  1.30654	  3.28793	 -0.13556	  4.97438	709.63000	 23.50	
 11.889	-155.445	  4.66855	  0.69322	  3.95600	  1.52255	  3.04663	 -0.14295	  4.96555	709.63300	 23.50	
 11.890	-163.610	  4.67344	  0.62564	  4.05395	  1.76551	  2.79314	 -0.14026	  4.97048	709.49799	 23.50	
 11.899	-171.783	  4.66715	  0.58306	  4.10253	  2.00799	  2.53452	 -0.13449	  4.96647	709.62799	 23.50	
 11.900	180.000	  4.68317	  0.57633	  4.13386	  2.27487	  2.28349	 -0.12234	  4.97961	709.55402	 23.50	
 13.600	180.000	  4.57091	  0.27057	  4.30634	  2.18258	  2.18790	 -0.16632	  4.98135	709.49500	 23.50	
 13.608	-172.853	  4.56429	  0.27429	  4.28815	  1.92508	  2.43625	 -0.17506	  4.97480	709.56598	 23.50	
 13.611	-165.583	  4.57362	  0.30490	  4.24929	  1.67431	  2.70469	 -0.18079	  4.98897	709.47302	 23.50	
 13.601	-158.353	  4.55128	  0.36672	  4.14542	  1.42613	  2.94774	 -0.18323	  4.96450	709.54602	 23.50	
 13.609	-151.210	  4.56001	  0.45223	  4.03962	  1.20776	  3.19741	 -0.17624	  4.97303	709.60797	 23.50	
 13.611	-143.999	  4.55649	  0.56383	  3.88806	  1.00275	  3.42520	 -0.16597	  4.97045	709.48102	 23.50	
 13.601	-136.825	  4.56501	  0.70346	  3.72074	  0.81971	  3.64822	 -0.15878	  4.98086	709.56000	 23.50	
 13.596	-129.640	  4.55729	  0.86693	  3.51141	  0.65777	  3.83236	 -0.16024	  4.97371	709.45599	 23.50	
 13.611	-122.431	  4.55579	  1.05000	  3.28910	  0.51630	  3.99754	 -0.17007	  4.97828	709.62000	 23.40	
 13.604	-115.211	  4.56389	  1.25824	  3.05778	  0.40800	  4.13902	 -0.17920	  4.98807	709.53601	 23.40	
 13.595	-108.042	  4.55585	  1.48387	  2.80033	  0.32609	  4.23261	 -0.18756	  4.98157	709.71002	 23.40	
 13.607	-100.793	  4.54350	  1.71740	  2.53166	  0.25994	  4.29538	 -0.19954	  4.97116	709.55701	 23.40	
 13.601	-93.617	  4.54579	  1.97352	  2.27347	  0.23247	  4.33226	 -0.20397	  4.97567	709.46997	 23.40	
 13.601	-86.383	  4.54243	  2.23435	  2.01183	  0.22802	  4.33310	 -0.20097	  4.97636	709.52100	 23.40	
 13.607	-79.207	  4.54479	  2.50062	  1.75714	  0.24822	  4.30332	 -0.19764	  4.98096	709.64301	 23.40	
 13.595	-71.958	  4.55270	  2.77027	  1.51463	  0.30153	  4.24094	 -0.19041	  4.99307	709.64502	 23.40	
 13.604	-64.789	  4.54091	  3.02090	  1.28035	  0.37578	  4.13335	 -0.18244	  4.98427	709.51898	 23.40	
 13.611	-57.569	  4.53335	  3.26021	  1.06441	  0.47591	  3.99523	 -0.17497	  4.97689	709.42297	 23.40	
 13.596	-50.360	  4.53168	  3.48662	  0.87011	  0.60656	  3.83011	 -0.17198	  4.97735	709.55402	 23.40	
 13.601	-43.175	  4.53847	  3.70034	  0.70077	  0.76164	  3.64300	 -0.16901	  4.98125	709.56598	 23.40	
 13.611	-36.001	  4.53652	  3.88502	  0.55198	  0.93812	  3.42843	 -0.16737	  4.98295	709.60498	 23.40	
 13.609	-28.790	  4.51605	  4.01687	  0.43145	  1.13156	  3.18177	 -0.16516	  4.95827	709.53497	 23.40	
 13.601	-21.647	  4.53682	  4.15468	  0.33752	  1.35135	  2.95007	 -0.16461	  4.98007	709.59900	 23.40	
 13.611	-14.417	  4.53660	  4.24757	  0.26460	  1.58814	  2.68846	 -0.15932	  4.97729	709.64697	 23.40	
 13.608	 -7.147	  4.52941	  4.29794	  0.22077	  1.83392	  2.42236	 -0.15345	  4.96894	709.48999	 23.40	
 13.600	  0.000	  4.53278	  4.32106	  0.20522	  2.08650	  2.16526	 -0.15593	  4.97120	709.59998	 23.40	
 13.608	  7.147	  4.52997	  4.30953	  0.21476	  2.34876	  1.90794	 -0.16024	  4.96952	709.57397	 23.40	
 13.611	 14.417	  4.53314	  4.26365	  0.25411	  2.61148	  1.66142	 -0.17223	  4.97234	709.50500	 23.40	
 13.601	 21.647	  4.53446	  4.18376	  0.32123	  2.87292	  1.42753	 -0.16834	  4.97176	709.53497	 23.40	
 13.609	 28.790	  4.53705	  4.07601	  0.40728	  3.12530	  1.20803	 -0.17060	  4.97917	709.52698	 23.40	
 13.611	 36.001	  4.54164	  3.93582	  0.52521	  3.36510	  1.00860	 -0.16871	  4.98036	709.58301	 23.40	
 13.601	 43.175	  4.53497	  3.75565	  0.66808	  3.57173	  0.83416	 -0.16962	  4.96920	709.72101	 23.40	
 13.596	 50.360	  4.54803	  3.56808	  0.83478	  3.77627	  0.68089	 -0.17300	  4.98087	709.45697	 23.40	
 13.611	 57.569	  4.54150	  3.34343	  1.01920	  3.94347	  0.54356	 -0.18389	  4.97559	709.49298	 23.40	
 13.604	 64.789	  4.54507	  3.10841	  1.23040	  4.08191	  0.44322	 -0.19070	  4.97232	709.51501	 23.40	
 13.595	 71.958	  4.55932	  2.86657	  1.46162	  4.19961	  0.37021	 -0.20012	  4.98768	709.51300	 23.40	
 13.607	 79.207	  4.56487	  2.60837	  1.70586	  4.27618	  0.31635	 -0.20596	  4.98696	709.49902	 23.40	
 13.601	 86.383	  4.55725	  2.34275	  1.95549	  4.30596	  0.29523	 -0.21560	  4.97606	709.47400	 23.40	
 13.601	 93.617	  4.56300	  2.08514	  2.21939	  4.31586	  0.29763	 -0.22455	  4.97878	709.46503	 23.40	
 13.607	100.793	  4.56148	  1.82799	  2.48168	  4.28583	  0.32357	 -0.22960	  4.97552	709.57397	 23.40	
 13.595	108.042	  4.56132	  1.58597	  2.74111	  4.22041	  0.37874	 -0.22705	  4.97300	709.48700	 23.40	
 13.604	115.211	  4.56429	  1.35690	  2.99943	  4.12709	  0.46022	 -0.21792	  4.97425	709.54901	 23.40	
 13.611	122.431	  4.55824	  1.14496	  3.23561	  3.99194	  0.56729	 -0.20564	  4.96892	709.54401	 23.40	
 13.596	129.640	  4.57032	  0.95398	  3.47256	  3.84022	  0.70184	 -0.18999	  4.98057	709.64801	 23.40	
 13.601	136.825	  4.57002	  0.77909	  3.67884	  3.64884	  0.85941	 -0.17680	  4.97859	709.68500	 23.40	
 13.611	143.999	  4.56058	  0.62714	  3.85746	  3.43704	  1.02849	 -0.16921	  4.97146	709.52899	 23.40	
 13.609	151.210	  4.56885	  0.50482	  4.01743	  3.21286	  1.23092	 -0.16441	  4.98133	709.45599	 23.40	
 13.601	158.353	  4.57338	  0.41062	  4.14094	  2.96977	  1.45032	 -0.16678	  4.98506	709.45099	 23.40	
 13.611	165.583	  4.56107	  0.33565	  4.22136	  2.70663	  1.67757	 -0.16293	  4.97267	709.53497	 23.40	
 13.608	172.853	  4.56222	  0.28679	  4.27867	  2.44355	  1.92612	 -0.16149	  4.97288	709.52698	 23.40	
 15.298	173.587	  4.42826	 -0.01302	  4.42504	  2.33874	  1.81491	 -0.19592	  4.96668	709.54303	 23.40	
 15.291	167.167	  4.43479	  0.02539	  4.38308	  2.60045	  1.57665	 -0.19796	  4.97042	709.48102	 23.40	
 15.307	160.676	  4.42836	  0.09014	  4.29708	  2.85682	  1.33756	 -0.19911	  4.96541	709.62201	 23.40	
 15.300	154.261	  4.44346	  0.17689	  4.19938	  3.11784	  1.12032	 -0.20101	  4.98440	709.60797	 23.40	
 15.288	147.854	  4.43446	  0.28872	  4.05379	  3.34805	  0.91614	 -0.20292	  4.97139	709.46399	 23.40	
 15.293	141.428	  4.43209	  0.41727	  3.88473	  3.56652	  0.72993	 -0.20591	  4.96773	709.41101	 23.40	
 15.299	134.985	  4.43694	  0.56881	  3.70029	  3.77739	  0.56162	 -0.21564	  4.97513	709.42798	 23.40	
 15.305	128.583	  4.43409	  0.73954	  3.48676	  3.95638	  0.41175	 -0.22621	  4.97241	709.56000	 23.40	
 15.309	122.142	  4.42536	  0.93270	  3.25175	  4.10814	  0.28662	 -0.24120	  4.96410	709.46399	 23.40	
 15.304	115.711	  4.45095	  1.14700	  3.02600	  4.25795	  0.18428	 -0.25276	  4.99127	709.40002	 23.40	
 15.297	109.291	  4.42476	  1.36831	  2.75613	  4.33223	  0.10810	 -0.25548	  4.96214	709.36902	 23.40	
 15.293	102.897	  4.43570	  1.60830	  2.50461	  4.41536	  0.04536	 -0.26242	  4.97548	709.38599	 23.30	
 15.293	 96.458	  4.44322	  1.86316	  2.24602	  4.46363	  0.00943	 -0.25963	  4.98475	709.45898	 23.40	
 15.300	 90.000	  4.42956	  2.11246	  1.97955	  4.46448	 -0.00569	 -0.25254	  4.97504	709.43903	 23.30	
 15.293	 83.542	  4.42660	  2.37482	  1.72166	  4.44072	  0.00695	 -0.24638	  4.97486	709.41199	 23.40	
 15.293	 77.103	  4.42372	  2.63436	  1.47419	  4.38978	  0.03896	 -0.23891	  4.97374	709.39502	 23.30	
 15.297	 70.709	  4.41480	  2.88443	  1.23600	  4.30162	  0.09380	 -0.22765	  4.96820	709.51898	 23.30	
 15.304	 64.289	  4.41502	  3.13307	  1.01485	  4.19521	  0.17115	 -0.22071	  4.97304	709.41101	 23.30	
 15.309	 57.858	  4.40644	  3.36562	  0.80436	  4.05360	  0.26556	 -0.21483	  4.97009	709.41699	 23.40	
 15.305	 51.417	  4.40274	  3.58503	  0.61805	  3.88591	  0.39150	 -0.20440	  4.96699	709.36700	 23.30	
 15.299	 45.015	  4.41151	  3.79400	  0.45696	  3.70364	  0.54189	 -0.19706	  4.98112	709.34399	 23.30	
 15.293	 38.572	  4.40572	  3.96896	  0.30992	  3.48600	  0.71124	 -0.19630	  4.97493	709.48798	 23.30	
 15.288	 32.146	  4.40098	  4.12079	  0.18715	  3.25562	  0.89541	 -0.19204	  4.97150	709.26300	 23.30	
 15.300	 25.739	  4.40622	  4.25270	  0.08369	  3.01994	  1.09798	 -0.19004	  4.97927	709.45599	 23.30	
 15.307	 19.324	  4.39844	  4.34888	  0.00335	  2.76000	  1.32005	 -0.18567	  4.97148	709.50201	 23.30	
 15.291	 12.833	  4.39509	  4.41379	 -0.04818	  2.49748	  1.55786	 -0.18071	  4.96592	709.44598	 23.30	
 15.298	  6.413	  4.39962	  4.45947	 -0.08304	  2.24005	  1.80235	 -0.17897	  4.97484	709.34601	 23.30	
 15.300	  0.000	  4.39838	  4.46899	 -0.09050	  1.97905	  2.05902	 -0.17209	  4.97098	709.37701	 23.30	
 15.298	 -6.413	  4.41259	  4.46534	 -0.07766	  1.72961	  2.32649	 -0.16848	  4.99016	709.51801	 23.30	
 15.291	-12.833	  4.40594	  4.40580	 -0.03612	  1.48503	  2.58227	 -0.17703	  4.97858	709.53497	 23.30	
 15.307	-19.324	  4.39440	  4.31723	  0.02049	  1.23955	  2.83926	 -0.18072	  4.97068	709.30499	 23.30	
 15.300	-25.739	  4.40179	  4.21370	  0.10510	  1.02363	  3.09308	 -0.18088	  4.97783	709.37500	 23.30	
 15.288	-32.146	  4.39490	  4.07036	  0.21234	  0.82084	  3.32653	 -0.18060	  4.97555	709.47900	 23.30	
 15.293	-38.572	  4.39989	  3.90822	  0.33893	  0.63159	  3.55751	 -0.18462	  4.97511	709.48999	 23.30	
 15.299	-45.015	  4.38999	  3.71248	  0.48631	  0.46075	  3.76072	 -0.18128	  4.96959	709.48700	 23.30	
 15.305	-51.417	  4.40334	  3.51057	  0.65969	  0.31959	  3.95192	 -0.18307	  4.98339	709.38898	 23.30	
 15.309	-57.858	  4.39875	  3.27564	  0.85043	  0.19589	  4.10728	 -0.18420	  4.97739	709.44000	 23.30	
 15.304	-64.289	  4.39591	  3.02895	  1.06077	  0.09811	  4.23335	 -0.18422	  4.97191	709.36298	 23.30	
 15.297	-70.709	  4.41470	  2.78389	  1.29015	  0.01708	  4.35803	 -0.18516	  4.98977	709.45398	 23.30	
 15.293	-77.103	  4.40623	  2.51791	  1.52795	 -0.03820	  4.42641	 -0.19338	  4.97984	709.41901	 23.30	
 15.293	-83.542	  4.39810	  2.24842	  1.77294	 -0.06915	  4.46035	 -0.20016	  4.96593	709.38000	 23.30	
 15.300	-90.000	  4.40904	  1.98874	  2.03622	 -0.07955	  4.48577	 -0.20573	  4.97703	709.37799	 23.30	
 15.293	-96.458	  4.41877	  1.73542	  2.30103	 -0.06123	  4.47498	 -0.21087	  4.97987	709.33899	 23.30	
 15.293	-102.897	  4.41261	  1.48423	  2.55758	 -0.02404	  4.42053	 -0.21003	  4.97111	709.25897	 23.30	
 15.297	-109.291	  4.41375	  1.25106	  2.81693	  0.04197	  4.34210	 -0.20286	  4.96513	709.34399	 23.30	
 15.304	-115.711	  4.42016	  1.03195	  3.07118	  0.12746	  4.24138	 -0.19496	  4.97106	709.29901	 23.30	
 15.309	-122.142	  4.41780	  0.82689	  3.30769	  0.23642	  4.10347	 -0.19362	  4.96905	709.17700	 23.30	
 15.305	-128.583	  4.42696	  0.64746	  3.53627	  0.36768	  3.94938	 -0.19374	  4.97537	709.17297	 23.30	
 15.299	-134.985	  4.43909	  0.48381	  3.75304	  0.52077	  3.77604	 -0.19338	  4.98805	709.13800	 23.30	
 15.293	-141.428	  4.45155	  0.34433	  3.94467	  0.70020	  3.57436	 -0.19996	  4.99566	709.23401	 23.30	
 15.288	-147.854	  4.45069	  0.22451	  4.10391	  0.89811	  3.34409	 -0.21089	  4.99364	709.30701	 23.30	
 15.300	-154.261	  4.44805	  0.12836	  4.23281	  1.10736	  3.10455	 -0.21837	  4.98937	709.17999	 23.30	
 15.307	-160.676	  4.43984	  0.05338	  4.32912	  1.32978	  2.85058	 -0.22002	  4.97732	709.29401	 23.30	
 15.291	-167.167	  4.43235	  0.00653	  4.39284	  1.57358	  2.58502	 -0.21837	  4.96828	709.37799	 23.30	
 15.298	-173.587	  4.44158	 -0.02271	  4.44502	  1.82467	  2.33339	 -0.21245	  4.97775	709.21399	 23.30	
 15.300	180.000	  4.44118	 -0.02742	  4.45344	  2.08155	  2.07757	 -0.20260	  4.97603	709.24298	 23.30	
 17.000	180.000	  4.30863	 -0.32126	  4.60148	  1.97586	  1.96572	 -0.22863	  4.99077	709.10498	 23.30	
 16.990	-174.179	  4.29397	 -0.31784	  4.57656	  1.71634	  2.21205	 -0.23583	  4.97630	709.23901	 23.30	
 17.009	-168.383	  4.29120	 -0.29750	  4.54014	  1.46834	  2.46399	 -0.24489	  4.97322	709.28998	 23.30	
 17.000	-162.596	  4.29225	 -0.25428	  4.47553	  1.22495	  2.72381	 -0.24637	  4.97688	709.45099	 23.30	
 16.990	-156.759	  4.30617	 -0.18656	  4.39397	  1.00427	  2.98396	 -0.24749	  4.99083	709.40002	 23.30	
 16.995	-150.919	  4.29934	 -0.09974	  4.26855	  0.78647	  3.22557	 -0.24139	  4.98396	709.33801	 23.30	
 16.988	-145.161	  4.29546	  0.00603	  4.12029	  0.58843	  3.45621	 -0.23285	  4.97867	709.43103	 23.30	
 17.014	-139.343	  4.28918	  0.12229	  3.95122	  0.39883	  3.67232	 -0.22475	  4.97943	709.47400	 23.30	
 17.007	-133.546	  4.28686	  0.27231	  3.75835	  0.24140	  3.86959	 -0.21740	  4.97736	709.44598	 23.30	
 17.001	-127.699	  4.29503	  0.43610	  3.55460	  0.09250	  4.06020	 -0.22018	  4.98739	709.29303	 23.30	
 17.006	-121.937	  4.28176	  0.61250	  3.32273	 -0.03499	  4.20925	 -0.21017	  4.97609	709.26001	 23.30	
 17.002	-116.134	  4.27333	  0.80932	  3.08015	 -0.14363	  4.33913	 -0.21244	  4.97359	709.26202	 23.30	
 17.001	-110.310	  4.27697	  1.02229	  2.83420	 -0.23460	  4.45607	 -0.20807	  4.98491	709.40802	 23.30	
 16.988	-104.517	  4.27844	  1.25498	  2.57981	 -0.29384	  4.53626	 -0.20747	  4.98330	709.55200	 23.30	
 17.008	-98.662	  4.26875	  1.49296	  2.31564	 -0.34293	  4.58708	 -0.19508	  4.98094	709.36700	 23.20	
 16.996	-92.909	  4.26660	  1.74219	  2.05868	 -0.36390	  4.61345	 -0.19723	  4.98036	709.38000	 23.30	
 16.996	-87.091	  4.24713	  1.99248	  1.79163	 -0.36685	  4.59483	 -0.18944	  4.95946	709.30798	 23.30	
 17.012	-81.253	  4.26261	  2.26468	  1.54565	 -0.35559	  4.59204	 -0.17920	  4.98517	709.33899	 23.20	
 16.988	-75.483	  4.24566	  2.51671	  1.29768	 -0.31461	  4.52147	 -0.16979	  4.96697	709.18298	 23.20	
 17.001	-69.690	  4.23393	  2.76793	  1.06065	 -0.26347	  4.43649	 -0.17130	  4.96122	709.33801	 23.30	
 17.002	-63.866	  4.24285	  3.02859	  0.84560	 -0.18176	  4.33903	 -0.17112	  4.96918	709.33899	 23.30	
 17.006	-58.063	  4.25197	  3.27819	  0.64298	 -0.08164	  4.21414	 -0.17614	  4.98142	709.07397	 23.30	
 17.001	-52.301	  4.24836	  3.50342	  0.45609	  0.03518	  4.05380	 -0.17803	  4.97703	709.10498	 23.20	
 17.007	-46.454	  4.24512	  3.71977	  0.28169	  0.17430	  3.86943	 -0.18442	  4.97570	709.13300	 23.30	
 17.014	-40.657	  4.23218	  3.90597	  0.12863	  0.32902	  3.66310	 -0.18059	  4.96218	709.23602	 23.30	
 16.988	-34.839	  4.24328	  4.08518	 -0.00113	  0.50771	  3.45290	 -0.18477	  4.97258	709.37701	 23.30	
 16.995	-29.081	  4.24273	  4.23726	 -0.11233	  0.69974	  3.21992	 -0.17975	  4.96793	709.35498	 23.30	
 16.990	-23.241	  4.23939	  4.35946	 -0.20832	  0.90625	  2.97071	 -0.18089	  4.96441	709.29401	 23.30	
 17.000	-17.404	  4.23960	  4.46018	 -0.28456	  1.12660	  2.71891	 -0.17878	  4.96407	709.28998	 23.20	
 17.009	-11.617	  4.24933	  4.53880	 -0.33754	  1.36194	  2.46565	 -0.18062	  4.97562	709.29401	 23.30	
 16.990	 -5.821	  4.25062	  4.58272	 -0.36502	  1.61041	  2.20933	 -0.16976	  4.97499	709.15302	 23.30	
 17.000	  0.000	  4.24443	  4.59659	 -0.37873	  1.86056	  1.94876	 -0.16971	  4.96673	709.22803	 23.30	
 16.990	  5.821	  4.25393	  4.59768	 -0.37094	  2.12439	  1.69761	 -0.17576	  4.97751	709.09399	 23.30	
 17.009	 11.617	  4.26007	  4.57112	 -0.34695	  2.38437	  1.45398	 -0.17940	  4.98646	709.17999	 23.30	
 17.000	 17.404	  4.25715	  4.50617	 -0.29741	  2.64075	  1.21989	 -0.18301	  4.98090	709.13300	 23.30	
 16.990	 23.241	  4.25162	  4.40644	 -0.22440	  2.89624	  0.99244	 -0.18779	  4.97423	709.07300	 23.30	
 16.995	 29.081	  4.25758	  4.29707	 -0.14018	  3.14508	  0.78175	 -0.19574	  4.98075	709.12402	 23.30	
 16.988	 34.839	  4.26110	  4.15927	 -0.02722	  3.38024	  0.59550	 -0.20241	  4.98177	709.13599	 23.20	
 17.014	 40.657	  4.25648	  3.99130	  0.09823	  3.60333	  0.41276	 -0.21444	  4.97658	709.17700	 23.30	
 17.007	 46.454	  4.25387	  3.80394	  0.24314	  3.80444	  0.25412	 -0.22688	  4.97206	709.24902	 23.30	
 17.001	 52.301	  4.28068	  3.61758	  0.41308	  4.01145	  0.11702	 -0.23318	  4.99737	709.20801	 23.30	
 17.006	 58.063	  4.27297	  3.38882	  0.59649	  4.16219	 -0.00066	 -0.23997	  4.98452	709.22803	 23.20	
 17.002	 63.866	  4.26646	  3.14749	  0.79320	  4.29708	 -0.10441	 -0.24595	  4.97182	709.26001	 23.30	
 17.001	 69.690	  4.25523	  2.89254	  1.00883	  4.39741	 -0.18168	 -0.25624	  4.95840	709.27002	 23.20	
 16.988	 75.483	  4.27650	  2.65132	  1.24256	  4.50204	 -0.24035	 -0.26030	  4.97898	709.15198	 23.30	
 17.012	 81.253	  4.27876	  2.39410	  1.47824	  4.56398	 -0.28764	 -0.26426	  4.97806	709.15302	 23.30	
 16.996	 87.091	  4.28183	  2.13644	  1.73069	  4.59371	 -0.29689	 -0.26524	  4.97516	709.17999	 23.30	
 16.996	 92.909	  4.28533	  1.88020	  1.98920	  4.59990	 -0.29462	 -0.26294	  4.97371	709.13501	 23.30	
 17.008	 98.662	  4.28986	  1.63266	  2.24658	  4.58212	 -0.27411	 -0.26465	  4.97715	709.09003	 23.30	
 16.988	104.517	  4.30358	  1.39478	  2.51817	  4.54127	 -0.22661	 -0.26901	  4.98827	709.07001	 23.30	
 17.001	110.310	  4.30406	  1.15925	  2.77631	  4.46550	 -0.16740	 -0.27086	  4.98870	709.10400	 23.30	
 17.002	116.134	  4.29823	  0.93698	  3.02112	  4.35540	 -0.08818	 -0.26763	  4.97917	709.07300	 23.30	
 17.006	121.937	  4.29414	  0.73035	  3.26203	  4.21805	  0.01654	 -0.26125	  4.97188	709.17297	 23.30	
 17.001	127.699	  4.30420	  0.54084	  3.50046	  4.07269	  0.13743	 -0.25561	  4.98418	709.17700	 23.30	
 17.007	133.546	  4.29174	  0.36655	  3.70567	  3.88938	  0.27282	 -0.24595	  4.97117	709.17200	 23.30	
 17.014	139.343	  4.29257	  0.20995	  3.90232	  3.69141	  0.42773	 -0.24174	  4.97397	709.19800	 23.30	
 16.988	145.161	  4.30252	  0.07957	  4.08405	  3.47889	  0.61173	 -0.23577	  4.98081	709.18701	 23.30	
 16.995	150.919	  4.30072	 -0.03950	  4.23149	  3.25026	  0.79902	 -0.23269	  4.98150	709.20398	 23.30	
 16.990	156.759	  4.29455	 -0.13598	  4.35247	  3.00350	  1.00602	 -0.23168	  4.97381	709.07300	 23.30	
 17.000	162.596	  4.28200	 -0.21305	  4.43959	  2.73922	  1.22764	 -0.23049	  4.95820	709.13800	 23.20	
 17.009	168.383	  4.28960	 -0.26783	  4.52023	  2.48776	  1.46516	 -0.22483	  4.96863	709.23700	 23.20	
 16.990	174.179	  4.28925	 -0.30434	  4.56340	  2.23077	  1.70369	 -0.22247	  4.96584	709.11603	 23.30	
 18.709	174.675	  4.13207	 -0.58781	  4.68169	  2.11263	  1.58348	 -0.24546	  4.96797	709.00702	 23.30	
 18.703	169.441	  4.13657	 -0.55101	  4.64413	  2.36768	  1.35272	 -0.24641	  4.97227	709.05603	 23.30	
 18.691	164.085	  4.12931	 -0.50126	  4.57043	  2.62059	  1.11515	 -0.24894	  4.96355	709.13599	 23.20	
 18.706	158.818	  4.12647	 -0.43601	  4.48097	  2.87198	  0.89037	 -0.25190	  4.96199	709.08502	 23.30	
 18.695	153.537	  4.12756	 -0.34763	  4.36746	  3.11250	  0.68731	 -0.25358	  4.96105	709.03400	 23.30	
 18.704	148.255	  4.14609	 -0.24686	  4.24967	  3.36426	  0.49334	 -0.25938	  4.98398	709.04199	 23.30	
 18.698	142.952	  4.13203	 -0.12999	  4.07635	  3.57710	  0.30743	 -0.26301	  4.96796	709.16699	 23.30	
 18.699	137.625	  4.13225	  0.01428	  3.89330	  3.78734	  0.14430	 -0.26357	  4.96758	709.15198	 23.30	
 18.705	132.343	  4.14367	  0.16835	  3.70639	  3.98683	 -0.00090	 -0.26869	  4.97827	709.14899	 23.30	
 18.713	127.067	  4.13274	  0.33683	  3.48255	  4.15101	 -0.13421	 -0.26892	  4.96922	709.09302	 23.30	
 18.700	121.794	  4.13835	  0.52647	  3.25586	  4.30494	 -0.24676	 -0.26763	  4.97556	709.15002	 23.30	
 18.698	116.504	  4.13784	  0.72555	  3.01526	  4.43727	 -0.34760	 -0.26074	  4.97455	709.21503	 23.30	
 18.707	111.165	  4.12322	  0.93326	  2.75481	  4.53034	 -0.43157	 -0.25863	  4.96388	709.03400	 23.30	
 18.690	105.863	  4.13990	  1.16801	  2.51278	  4.62620	 -0.48954	 -0.25653	  4.98241	709.07898	 23.30	
 18.696	100.583	  4.14297	  1.40437	  2.25633	  4.68776	 -0.53836	 -0.25660	  4.98725	708.94501	 23.30	
 18.700	 95.309	  4.13300	  1.64577	  1.99587	  4.71051	 -0.56708	 -0.25239	  4.97916	709.04199	 23.30	
 18.700	 90.000	  4.12661	  1.89440	  1.74099	  4.70992	 -0.57294	 -0.26027	  4.97319	708.91602	 23.30	
 18.700	 84.691	  4.11863	  2.15009	  1.48721	  4.68808	 -0.56537	 -0.26525	  4.96834	708.89099	 23.30	
 18.696	 79.417	  4.11395	  2.40024	  1.24470	  4.64487	 -0.54278	 -0.26842	  4.96739	708.98602	 23.30	
 18.690	 74.137	  4.11176	  2.65278	  1.01163	  4.58187	 -0.50168	 -0.26819	  4.97009	708.82300	 23.30	
 18.707	 68.835	  4.11291	  2.90637	  0.78880	  4.49974	 -0.44664	 -0.26562	  4.97934	709.00299	 23.30	
 18.698	 63.496	  4.10114	  3.14382	  0.57790	  4.37387	 -0.36394	 -0.25540	  4.97144	709.02600	 23.30	
 18.700	 58.206	  4.08731	  3.36727	  0.38116	  4.22301	 -0.26687	 -0.24973	  4.95543	708.95502	 23.30	
 18.713	 52.933	  4.08872	  3.59321	  0.20213	  4.07003	 -0.15351	 -0.24478	  4.96473	708.95599	 23.30	
 18.705	 47.657	  4.08993	  3.79890	  0.04199	  3.88972	 -0.01747	 -0.23643	  4.96935	708.87299	 23.30	
 18.699	 42.375	  4.09157	  3.98927	 -0.10389	  3.69971	  0.12502	 -0.23029	  4.97622	708.87701	 23.30	
 18.698	 37.048	  4.09033	  4.16209	 -0.23632	  3.48154	  0.29333	 -0.20985	  4.97539	708.87402	 23.30	
 18.704	 31.745	  4.09338	  4.31876	 -0.35308	  3.25297	  0.47512	 -0.19791	  4.98399	708.87598	 23.30	
 18.695	 26.463	  4.08282	  4.43252	 -0.44333	  3.00651	  0.67092	 -0.18718	  4.96955	708.82599	 23.30	
 18.706	 21.182	  4.07990	  4.53418	 -0.51999	  2.76126	  0.87779	 -0.18200	  4.96909	708.92999	 23.30	
 18.691	 15.915	  4.08494	  4.61669	 -0.58071	  2.50772	  1.10467	 -0.17623	  4.97396	708.92499	 23.30	
 18.703	 10.559	  4.07321	  4.66539	 -0.62484	  2.24308	  1.33705	 -0.17015	  4.96406	708.91302	 23.30	
 18.709	  5.325	  4.07855	  4.70335	 -0.65098	  1.99439	  1.57576	 -0.16877	  4.97247	709.07397	 23.30	
 18.700	  0.000	  4.07093	  4.69904	 -0.65416	  1.73460	  1.82552	 -0.16649	  4.95870	708.99500	 23.30	
 18.709	 -5.325	  4.08406	  4.70150	 -0.64761	  1.48996	  2.08629	 -0.16530	  4.97720	709.03101	 23.30	
 18.703	-10.559	  4.07937	  4.65456	 -0.61757	  1.25022	  2.33808	 -0.16849	  4.97100	708.98602	 23.30	
 18.691	-15.915	  4.08935	  4.59806	 -0.56942	  1.01570	  2.60398	 -0.18236	  4.98375	708.96997	 23.30	
 18.706	-21.182	  4.07207	  4.49203	 -0.50328	  0.79277	  2.84609	 -0.17567	  4.96304	709.00000	 23.30	
 18.695	-26.463	  4.08235	  4.38863	 -0.42184	  0.58840	  3.09468	 -0.18136	  4.97501	709.09698	 23.30	
 18.704	-31.745	  4.08434	  4.25681	 -0.32443	  0.39100	  3.33840	 -0.18262	  4.98125	709.15002	 23.30	
 18.698	-37.048	  4.08024	  4.09111	 -0.20363	  0.21141	  3.55871	 -0.17576	  4.97388	708.98700	 23.30	
 18.699	-42.375	  4.07705	  3.90455	 -0.06597	  0.04942	  3.76543	 -0.17824	  4.97312	708.95203	 23.30	
 18.705	-47.657	  4.07898	  3.70854	  0.08317	 -0.10001	  3.96142	 -0.17899	  4.97430	709.01099	 23.30	
 18.713	-52.933	  4.08387	  3.49885	  0.25046	 -0.23330	  4.14270	 -0.17638	  4.98388	708.97803	 23.30	
 18.700	-58.206	  4.07921	  3.25940	  0.43713	 -0.34387	  4.29063	 -0.16906	  4.97427	708.91400	 23.30	
 18.698	-63.496	  4.07914	  3.01907	  0.63602	 -0.43674	  4.41756	 -0.16277	  4.97075	708.94897	 23.30	
 18.707	-68.835	  4.09042	  2.77318	  0.85080	 -0.51711	  4.53382	 -0.15641	  4.98095	709.00098	 23.30	
 18.690	-74.137	  4.08772	  2.51491	  1.07852	 -0.57338	  4.61118	 -0.16126	  4.97540	708.90802	 23.30	
 18.696	-79.417	  4.09824	  2.25819	  1.31413	 -0.61945	  4.67997	 -0.16185	  4.98382	708.94501	 23.30	
 18.700	-84.691	  4.09248	  1.99778	  1.55807	 -0.64056	  4.70439	 -0.17125	  4.97410	708.90198	 23.30	
 18.700	-90.000	  4.10759	  1.74556	  1.81556	 -0.64790	  4.72964	 -0.17436	  4.98584	708.78302	 23.30	
 18.700	-95.309	  4.09814	  1.49029	  2.06678	 -0.63495	  4.70480	 -0.17978	  4.97356	708.86902	 23.30	
 18.696	-100.583	  4.10001	  1.25098	  2.32206	 -0.59995	  4.66557	 -0.19004	  4.96965	708.86902	 23.30	
 18.690	-105.863	  4.09998	  1.01669	  2.57639	 -0.54956	  4.60107	 -0.20119	  4.96604	708.92401	 23.30	
 18.707	-111.165	  4.11789	  0.79919	  2.83896	 -0.48857	  4.53542	 -0.21347	  4.98503	709.03400	 23.30	
 18.698	-116.504	  4.11270	  0.59084	  3.08066	 -0.39798	  4.41405	 -0.22862	  4.97239	708.90802	 23.30	
 18.700	-121.794	  4.12650	  0.39865	  3.32588	 -0.29848	  4.29593	 -0.22461	  4.98396	708.84497	 23.30	
 18.713	-127.067	  4.11239	  0.21729	  3.53864	 -0.17849	  4.12470	 -0.23689	  4.96967	708.82599	 23.30	
 18.705	-132.343	  4.12174	  0.05959	  3.75331	 -0.03633	  3.95230	 -0.25195	  4.97163	708.92401	 23.30	
 18.699	-137.625	  4.13786	 -0.07883	  3.95872	  0.12408	  3.76928	 -0.25330	  4.98831	708.79797	 23.30	
 18.698	-142.952	  4.13566	 -0.20474	  4.13119	  0.29596	  3.55458	 -0.25323	  4.98280	708.97601	 23.30	
 18.704	-148.255	  4.12430	 -0.31912	  4.27369	  0.47703	  3.31803	 -0.25526	  4.96999	708.89099	 23.30	
 18.695	-153.537	  4.12869	 -0.40987	  4.40708	  0.68042	  3.08224	 -0.25311	  4.97048	708.90997	 23.30	
 18.706	-158.818	  4.13241	 -0.48244	  4.51824	  0.89605	  2.84192	 -0.25127	  4.97467	708.86798	 23.30	
 18.691	-164.085	  4.13471	 -0.53486	  4.59870	  1.12163	  2.59672	 -0.25471	  4.97216	708.97998	 23.30	
 18.703	-169.441	  4.13110	 -0.57637	  4.65308	  1.36156	  2.33498	 -0.25261	  4.96921	708.88800	 23.30	
 18.709	-174.675	  4.12742	 -0.59615	  4.68400	  1.60253	  2.08286	 -0.24938	  4.96388	708.94397	 23.30	
 18.700	180.000	  4.14641	 -0.59925	  4.71321	  1.86277	  1.84414	 -0.24498	  4.98726	708.94702	 23.30	
 20.400	180.000	  3.95192	 -0.88994	  4.78808	  1.71657	  1.69165	 -0.23638	  4.96409	708.87701	 23.30	
 20.401	-175.153	  3.95000	 -0.89353	  4.78023	  1.47125	  1.93314	 -0.24355	  4.96438	708.92798	 23.30	
 20.407	-170.264	  3.95266	 -0.88096	  4.75660	  1.22526	  2.18398	 -0.23946	  4.96916	708.90802	 23.30	
 20.410	-165.423	  3.96115	 -0.84391	  4.71299	  0.99361	  2.44518	 -0.23475	  4.97808	709.01202	 23.30	
 20.392	-160.496	  3.96538	 -0.79371	  4.64097	  0.77005	  2.69739	 -0.23463	  4.98269	708.90198	 23.30	
 20.401	-155.705	  3.96572	 -0.73031	  4.54675	  0.55668	  2.94038	 -0.24351	  4.98465	708.76898	 23.30	
 20.405	-150.835	  3.95011	 -0.64933	  4.41334	  0.34715	  3.17282	 -0.24849	  4.96796	708.73602	 23.30	
 20.397	-145.903	  3.94711	 -0.55144	  4.26852	  0.15545	  3.40251	 -0.25883	  4.96718	708.84601	 23.30	
 20.392	-141.062	  3.96145	 -0.44362	  4.12550	 -0.01990	  3.63443	 -0.26581	  4.98813	708.78400	 23.30	
 20.396	-136.227	  3.95620	 -0.31503	  3.93976	 -0.18264	  3.83650	 -0.25585	  4.98444	708.86603	 23.30	
 20.408	-131.372	  3.95613	 -0.17048	  3.74766	 -0.33391	  4.03488	 -0.24879	  4.99240	708.85400	 23.30	
 20.410	-126.511	  3.93673	 -0.01120	  3.51808	 -0.45987	  4.18765	 -0.24004	  4.96830	708.93597	 23.30	
 20.400	-121.604	  3.94649	  0.16306	  3.30281	 -0.57802	  4.35436	 -0.22665	  4.98496	708.92999	 23.30	
 20.403	-116.741	  3.93672	  0.35010	  3.05911	 -0.67981	  4.48167	 -0.22081	  4.97785	708.90198	 23.30	
 20.413	-111.900	  3.93975	  0.54720	  2.82078	 -0.77084	  4.60083	 -0.20927	  4.98770	708.88501	 23.30	
 20.398	-107.004	  3.92814	  0.76454	  2.56224	 -0.83485	  4.68061	 -0.19781	  4.97829	708.91400	 23.30	
 20.394	-102.132	  3.92805	  0.99194	  2.30884	 -0.89007	  4.74949	 -0.18580	  4.98173	708.89001	 23.30	
 20.403	-97.332	  3.91490	  1.21958	  2.05115	 -0.92653	  4.78579	 -0.16942	  4.97401	708.99402	 23.30	
 20.392	-92.440	  3.91428	  1.46392	  1.79846	 -0.94515	  4.80839	 -0.16446	  4.97548	708.93103	 23.30	
 20.392	-87.560	  3.90584	  1.71340	  1.54085	 -0.95058	  4.80425	 -0.15698	  4.97104	708.86603	 23.30	
 20.403	-82.668	  3.89811	  1.96473	  1.29305	 -0.94009	  4.78306	 -0.15098	  4.96905	708.95898	 23.30	
 20.394	-77.868	  3.90251	  2.22217	  1.06180	 -0.90945	  4.74775	 -0.15187	  4.97366	708.95203	 23.30	
 20.398	-72.996	  3.89442	  2.47418	  0.82772	 -0.86496	  4.67584	 -0.15603	  4.96718	708.95502	 23.30	
 20.413	-68.100	  3.89635	  2.73450	  0.60651	 -0.80673	  4.59919	 -0.15348	  4.97380	709.00702	 23.30	
 20.403	-63.259	  3.90096	  2.98673	  0.40189	 -0.72686	  4.49352	 -0.15410	  4.98047	708.78900	 23.30	
 20.400	-58.396	  3.89904	  3.22733	  0.20746	 -0.63137	  4.36074	 -0.16539	  4.97707	708.82599	 23.30	
 20.410	-53.489	  3.89193	  3.45713	  0.02304	 -0.52533	  4.20576	 -0.16336	  4.97428	708.92102	 23.30	
 20.408	-48.628	  3.89270	  3.67757	 -0.14664	 -0.40485	  4.03854	 -0.16194	  4.97811	708.83698	 23.30	
 20.396	-43.773	  3.89231	  3.87968	 -0.29503	 -0.25978	  3.84630	 -0.16887	  4.97470	708.90002	 23.30	
 20.392	-38.938	  3.88656	  4.05909	 -0.42796	 -0.10122	  3.63489	 -0.16341	  4.96611	708.80402	 23.30	
 20.397	-34.097	  3.89158	  4.23348	 -0.55378	  0.05866	  3.42295	 -0.16533	  4.97410	708.92200	 23.30	
 20.405	-29.165	  3.89567	  4.38741	 -0.65952	  0.24293	  3.19427	 -0.16717	  4.97640	708.98700	 23.30	
 20.401	-24.295	  3.89719	  4.51488	 -0.74650	  0.44912	  2.94845	 -0.16691	  4.97666	708.86902	 23.30	
 20.392	-19.504	  3.90097	  4.61965	 -0.81634	  0.65363	  2.70814	 -0.16073	  4.98003	708.92798	 23.30	
 20.410	-14.577	  3.89413	  4.69566	 -0.87299	  0.87493	  2.45104	 -0.16436	  4.97309	708.86603	 23.30	
 20.407	 -9.736	  3.88801	  4.74498	 -0.91539	  1.10468	  2.18891	 -0.16528	  4.96210	708.86603	 23.30	
 20.401	 -4.847	  3.89442	  4.78741	 -0.93994	  1.34657	  1.93877	 -0.15969	  4.96924	708.99200	 23.30	
 20.400	  0.000	  3.89882	  4.80721	 -0.95323	  1.59188	  1.69225	 -0.15612	  4.97421	708.88300	 23.30	
 20.401	  4.847	  3.88917	  4.79076	 -0.94446	  1.84130	  1.44083	 -0.15631	  4.96356	708.93597	 23.30	
 20.407	  9.736	  3.90299	  4.78082	 -0.92904	  2.10006	  1.20229	 -0.15574	  4.98244	708.90802	 23.30	
 20.410	 14.577	  3.89993	  4.72713	 -0.89295	  2.35363	  0.97051	 -0.16029	  4.97868	708.84497	 23.30	
 20.392	 19.504	  3.90307	  4.65407	 -0.83388	  2.61402	  0.74288	 -0.16159	  4.97926	708.88000	 23.30	
 20.401	 24.295	  3.89926	  4.55698	 -0.76876	  2.85100	  0.53718	 -0.17526	  4.97152	708.79199	 23.30	
 20.405	 29.165	  3.90204	  4.44703	 -0.68705	  3.09686	  0.33640	 -0.17777	  4.97565	708.81799	 23.30	
 20.397	 34.097	  3.90327	  4.30734	 -0.58634	  3.33850	  0.14499	 -0.19406	  4.97597	708.74200	 23.30	
 20.392	 38.938	  3.89869	  4.14234	 -0.46679	  3.55303	 -0.02166	 -0.20887	  4.96567	708.76599	 23.30	
 20.396	 43.773	  3.90588	  3.97364	 -0.33725	  3.76467	 -0.17660	 -0.22405	  4.97047	708.93597	 23.30	
 20.408	 48.628	  3.90416	  3.77774	 -0.19227	  3.95826	 -0.32032	 -0.23554	  4.96739	708.85400	 23.30	
 20.410	 53.489	  3.90295	  3.57188	 -0.03322	  4.13751	 -0.45183	 -0.24725	  4.96608	708.91400	 23.30	
 20.400	 58.396	  3.90998	  3.34918	  0.14477	  4.29889	 -0.56002	 -0.24804	  4.96751	708.78302	 23.30	
 20.403	 63.259	  3.90201	  3.10878	  0.33232	  4.42257	 -0.65238	 -0.25653	  4.95364	708.88800	 23.30	
 20.413	 68.100	  3.92036	  2.88427	  0.53701	  4.55615	 -0.72914	 -0.25506	  4.97250	708.86603	 23.30	
 20.398	 72.996	  3.91945	  2.63351	  0.75693	  4.64335	 -0.78758	 -0.25674	  4.96627	708.86902	 23.30	
 20.394	 77.868	  3.93741	  2.38944	  0.98582	  4.73208	 -0.83703	 -0.25585	  4.98054	708.82300	 23.30	
 20.403	 82.668	  3.92785	  2.13285	  1.21634	  4.76402	 -0.86344	 -0.24862	  4.96300	708.81403	 23.30	
 20.392	 87.560	  3.94588	  1.88661	  1.46888	  4.80293	 -0.87541	 -0.24195	  4.97745	708.85901	 23.30	
 20.392	 92.440	  3.94688	  1.63460	  1.72074	  4.80681	 -0.87034	 -0.23473	  4.97470	708.96301	 23.30	
 20.403	 97.332	  3.95565	  1.39165	  1.97730	  4.79784	 -0.85591	 -0.23201	  4.98174	708.88202	 23.30	
 20.394	102.132	  3.95225	  1.15336	  2.22712	  4.75171	 -0.82029	 -0.22847	  4.97432	708.88300	 23.30	
 20.398	107.004	  3.95655	  0.92178	  2.48599	  4.69243	 -0.77132	 -0.23417	  4.97524	708.87299	 23.30	
 20.413	111.900	  3.96124	  0.70207	  2.74102	  4.61282	 -0.70636	 -0.24326	  4.97886	708.86200	 23.30	
 20.403	116.741	  3.95970	  0.49830	  2.98469	  4.50597	 -0.62920	 -0.24602	  4.97449	708.86499	 23.30	
 20.400	121.604	  3.96208	  0.29945	  3.22779	  4.38151	 -0.53575	 -0.25790	  4.97826	708.78101	 23.30	
 20.410	126.511	  3.95697	  0.10853	  3.45665	  4.22847	 -0.43090	 -0.26375	  4.97593	708.84900	 23.30	
 20.408	131.372	  3.95963	 -0.06007	  3.67715	  4.05865	 -0.30252	 -0.27045	  4.97329	708.76398	 23.30	
 20.396	136.227	  3.96049	 -0.20719	  3.87818	  3.86874	 -0.15494	 -0.26847	  4.97350	708.78101	 23.30	
 20.392	141.062	  3.95568	 -0.34175	  4.05600	  3.66538	 -0.00127	 -0.27090	  4.96370	708.67200	 23.30	
 20.397	145.903	  3.95226	 -0.46373	  4.21966	  3.44759	  0.16894	 -0.26793	  4.96130	708.69702	 23.20	
 20.405	150.835	  3.96601	 -0.57901	  4.38610	  3.22451	  0.35482	 -0.26355	  4.98082	708.65100	 23.20	
 20.401	155.705	  3.95943	 -0.66989	  4.50526	  2.98146	  0.55190	 -0.26022	  4.97308	708.72699	 23.20	
 20.392	160.496	  3.95638	 -0.74246	  4.60013	  2.73649	  0.75551	 -0.26069	  4.96657	708.73102	 23.20	
 20.410	165.423	  3.95554	 -0.81129	  4.68579	  2.47980	  0.97790	 -0.25378	  4.96935	708.73401	 23.20	
 20.407	170.264	  3.95421	 -0.84838	  4.73931	  2.22818	  1.20781	 -0.24755	  4.96638	708.68903	 23.20	
 20.401	175.153	  3.96371	 -0.88083	  4.78701	  1.97680	  1.44898	 -0.24135	  4.97871	708.61499	 23.30	
  0.141	 45.000	  4.98200	  2.61439	  2.54854	  2.59469	  2.60926	  0.03629	  4.97882	708.73297	 23.20	
  4.001	128.691	  4.96451	  2.19951	  2.87585	  3.00643	  2.13313	  0.01007	  4.97639	708.60303	 23.20	
  4.002	 76.995	  4.94251	  2.68208	  2.35918	  3.10144	  2.01838	  0.00775	  4.95271	708.68903	 23.20	
  4.002	 25.892	  4.96011	  3.09584	  1.99257	  2.77773	  2.31014	  0.01268	  4.97458	708.71301	 23.20	
  4.002	-25.892	  4.96867	  3.08533	  1.99923	  2.26724	  2.81843	  0.00984	  4.98140	708.70001	 23.20	
  4.002	-76.995	  4.96245	  2.66059	  2.37318	  1.96689	  3.15598	 -0.00402	  4.97279	708.67999	 23.30	
  4.001	-128.691	  4.94838	  2.16295	  2.87890	  2.07978	  3.02598	  0.00316	  4.95784	708.70300	 23.20	
  4.000	180.000	  4.96497	  1.98370	  3.11738	  2.53563	  2.56844	  0.01534	  4.97229	708.65399	 23.20	
  8.000	180.000	  4.87604	  1.27737	  3.67860	  2.43823	  2.46050	 -0.04052	  4.98352	708.62903	 23.20	
  7.991	-152.370	  4.86598	  1.38584	  3.52867	  1.87677	  3.02919	 -0.05046	  4.97323	708.77197	 23.20	
  7.997	-124.550	  4.87177	  1.73138	  3.12488	  1.45606	  3.49894	 -0.05856	  4.98326	708.74402	 23.20	
  8.006	-96.837	  4.86571	  2.25119	  2.55419	  1.25873	  3.71331	 -0.07840	  4.97854	708.79797	 23.20	
  7.988	-69.228	  4.84224	  2.83297	  1.96848	  1.30978	  3.61917	 -0.07980	  4.96008	708.73602	 23.20	
  7.997	-41.563	  4.85668	  3.35510	  1.51576	  1.60411	  3.28003	 -0.06178	  4.97725	708.56702	 23.20	
  8.008	-13.821	  4.85184	  3.65465	  1.25604	  2.09330	  2.73343	 -0.05019	  4.96954	708.60901	 23.20	
  8.008	 13.821	  4.85549	  3.67081	  1.24772	  2.68020	  2.14780	 -0.05134	  4.97370	708.62097	 23.20	
  7.997	 41.563	  4.85009	  3.38821	  1.49110	  3.22111	  1.65937	 -0.05004	  4.96769	708.68799	 23.20	
  7.988	 69.228	  4.86227	  2.89739	  1.94452	  3.59541	  1.36275	 -0.06406	  4.97832	708.69397	 23.20	
  8.006	 96.837	  4.85101	  2.30678	  2.51223	  3.67369	  1.30348	 -0.06892	  4.96139	708.69299	 23.20	
  7.997	124.550	  4.85982	  1.78103	  3.08528	  3.47045	  1.49447	 -0.05923	  4.97088	708.60101	 23.20	
  7.991	152.370	  4.85454	  1.41265	  3.50415	  3.00637	  1.90169	 -0.04826	  4.96361	708.56403	 23.20	
 12.009	161.059	  4.67000	  0.64922	  4.02934	  2.87452	  1.69454	 -0.13085	  4.97956	708.58197	 23.20	
 12.013	142.081	  4.65391	  0.91014	  3.69639	  3.42248	  1.19477	 -0.13689	  4.95985	708.59003	 23.20	
 12.006	123.113	  4.66183	  1.32360	  3.22094	  3.85326	  0.83964	 -0.16366	  4.96794	708.56702	 23.20	
 12.007	104.200	  4.65545	  1.84638	  2.63447	  4.09637	  0.62660	 -0.18830	  4.96352	708.59802	 23.20	
 11.989	 85.301	  4.65442	  2.44141	  2.02739	  4.13692	  0.58008	 -0.17249	  4.96738	708.64899	 23.20	
 12.013	 66.294	  4.65434	  3.04168	  1.46120	  3.97062	  0.70031	 -0.15813	  4.97308	708.52002	 23.20	
 12.012	 47.388	  4.64847	  3.56597	  0.99601	  3.59985	  0.98560	 -0.13905	  4.97474	708.57202	 23.20	
 11.990	 28.440	  4.65060	  3.94978	  0.67687	  3.09283	  1.41614	 -0.14038	  4.98076	708.65100	 23.20	
 11.991	  9.464	  4.63691	  4.13315	  0.51300	  2.48833	  1.95364	 -0.13964	  4.96501	708.58698	 23.20	
 11.991	 -9.464	  4.64732	  4.13128	  0.52327	  1.89133	  2.56216	 -0.13338	  4.97705	708.62598	 23.20	
 11.990	-28.440	  4.63189	  3.89996	  0.69597	  1.34126	  3.14689	 -0.14320	  4.96139	708.71301	 23.20	
 12.012	-47.388	  4.64834	  3.50839	  1.03062	  0.91782	  3.66455	 -0.14811	  4.98224	708.57800	 23.20	
 12.013	-66.294	  4.62761	  2.94840	  1.49708	  0.62927	  4.00015	 -0.16723	  4.95755	708.70203	 23.20	
 11.989	-85.301	  4.65481	  2.35509	  2.08088	  0.52313	  4.17188	 -0.18083	  4.97798	708.75897	 23.20	
 12.007	-104.200	  4.64795	  1.75261	  2.68456	  0.56892	  4.11502	 -0.16674	  4.96642	708.58197	 23.20	
 12.006	-123.113	  4.64919	  1.24029	  3.25872	  0.78901	  3.85472	 -0.13833	  4.96053	708.69598	 23.20	
 12.013	-142.081	  4.66899	  0.85601	  3.74189	  1.17217	  3.43255	 -0.12843	  4.97483	708.60602	 23.20	
 12.009	-161.059	  4.67497	  0.61949	  4.05035	  1.67887	  2.87729	 -0.14400	  4.98112	708.64099	 23.20	
 16.000	180.000	  4.37444	 -0.15195	  4.50583	  2.03350	  2.02525	 -0.21302	  4.96764	708.52502	 23.20	
 15.990	-165.604	  4.37592	 -0.11155	  4.43923	  1.44663	  2.62426	 -0.23323	  4.97380	708.57898	 23.20	
 16.002	-151.165	  4.37000	  0.05260	  4.20309	  0.91598	  3.20461	 -0.22919	  4.96877	708.63202	 23.20	
 16.002	-136.836	  4.36517	  0.33076	  3.82635	  0.47024	  3.72531	 -0.20808	  4.97224	708.59302	 23.20	
 15.995	-122.439	  4.36036	  0.72774	  3.32902	  0.13513	  4.13494	 -0.20217	  4.96767	708.64899	 23.20	
 15.993	-107.966	  4.34760	  1.21785	  2.74893	 -0.09078	  4.40534	 -0.20957	  4.96413	708.62402	 23.20	
 16.005	-93.629	  4.34558	  1.78352	  2.14231	 -0.19849	  4.53329	 -0.20814	  4.97262	708.61298	 23.20	
 15.992	-79.234	  4.33510	  2.38923	  1.54376	 -0.17951	  4.49120	 -0.19025	  4.96945	708.53699	 23.20	
 16.009	-64.774	  4.33330	  2.99962	  0.99707	 -0.03381	  4.29880	 -0.18290	  4.97508	708.47699	 23.20	
 15.997	-50.364	  4.32273	  3.54342	  0.53310	  0.22961	  3.94313	 -0.18581	  4.96281	708.45697	 23.20	
 15.997	-36.045	  4.33377	  4.00531	  0.17698	  0.60421	  3.48317	 -0.18774	  4.97543	708.61499	 23.20	
 16.000	-21.597	  4.33011	  4.32641	 -0.06907	  1.07716	  2.92004	 -0.18533	  4.97015	708.52399	 23.20	
 16.003	 -7.169	  4.33545	  4.50131	 -0.19482	  1.63663	  2.31557	 -0.17270	  4.97731	708.49103	 23.20	
 16.003	  7.169	  4.33079	  4.50709	 -0.20221	  2.23162	  1.71215	 -0.17600	  4.96559	708.52399	 23.20	
 16.000	 21.597	  4.33044	  4.35690	 -0.08383	  2.83715	  1.15948	 -0.19124	  4.96529	709.17700	 23.20	
 15.997	 36.045	  4.34196	  4.06953	  0.15039	  3.40777	  0.68837	 -0.19771	  4.97296	708.46600	 23.20	
 15.997	 50.364	  4.34476	  3.64079	  0.49398	  3.89171	  0.30855	 -0.21453	  4.97207	708.52399	 23.20	
 16.009	 64.774	  4.35368	  3.11377	  0.94263	  4.25374	  0.04266	 -0.23441	  4.97609	708.39301	 23.20	
 15.992	 79.234	  4.36820	  2.52333	  1.48823	  4.47213	 -0.10192	 -0.25200	  4.98088	708.39600	 23.20	
 16.005	 93.629	  4.36302	  1.91454	  2.07735	  4.51493	 -0.12776	 -0.26299	  4.96940	708.53699	 23.20	
 15.993	107.966	  4.36264	  1.34350	  2.68426	  4.40113	 -0.02873	 -0.26497	  4.95956	708.53900	 23.20	
 15.995	122.439	  4.37764	  0.83997	  3.27513	  4.14884	  0.18469	 -0.25255	  4.97166	708.45203	 23.20	
 16.002	136.836	  4.37779	  0.41737	  3.78582	  3.74572	  0.50302	 -0.22687	  4.97430	708.47699	 23.20	
 16.002	151.165	  4.38563	  0.11070	  4.18388	  3.23937	  0.93067	 -0.21749	  4.98329	708.47400	 23.20	
 15.990	165.604	  4.37450	 -0.07992	  4.41782	  2.63907	  1.44984	 -0.21104	  4.96949	708.48901	 23.20	
 20.003	168.362	  4.00306	 -0.76313	  4.70490	  2.35140	  1.16501	 -0.25104	  4.97096	708.41998	 23.20	
 20.008	156.764	  4.00790	 -0.62063	  4.51857	  2.94434	  0.65085	 -0.26309	  4.98009	708.43799	 23.20	
 20.000	145.147	  4.00150	 -0.38437	  4.19166	  3.49106	  0.19712	 -0.26957	  4.97255	708.52502	 23.20	
 19.995	133.545	  4.00596	 -0.05985	  3.76602	  3.96836	 -0.16891	 -0.27112	  4.97185	708.53601	 23.20	
 20.009	121.926	  3.99072	  0.33712	  3.24084	  4.34460	 -0.46253	 -0.25779	  4.96383	708.55902	 23.20	
 20.005	110.327	  4.00603	  0.82583	  2.68004	  4.62464	 -0.65747	 -0.24503	  4.98270	708.47198	 23.20	
 19.989	 98.733	  3.98952	  1.35897	  2.07572	  4.75265	 -0.76998	 -0.23704	  4.96443	708.48199	 23.20	
 19.999	 87.075	  3.98287	  1.93959	  1.48146	  4.77020	 -0.79665	 -0.24581	  4.96618	708.55902	 23.20	
 19.992	 75.457	  3.97993	  2.53454	  0.92571	  4.67122	 -0.73454	 -0.26541	  4.97389	708.45801	 23.20	
 20.009	 63.844	  3.97034	  3.10750	  0.42317	  4.44479	 -0.58819	 -0.25699	  4.97783	708.46899	 23.20	
 19.989	 52.269	  3.95306	  3.62419	 -0.00808	  4.08241	 -0.34506	 -0.24380	  4.96492	708.43402	 23.20	
 19.999	 40.602	  3.95815	  4.08911	 -0.35787	  3.63931	 -0.01504	 -0.21889	  4.98256	708.49902	 23.10	
 20.004	 29.051	  3.94483	  4.43079	 -0.61765	  3.10256	  0.39477	 -0.18527	  4.97318	708.47400	 23.10	
 20.005	 17.433	  3.94038	  4.65848	 -0.78727	  2.52211	  0.88370	 -0.16326	  4.96841	708.58197	 23.20	
 20.006	  5.780	  3.93613	  4.76851	 -0.87268	  1.92223	  1.43124	 -0.15500	  4.96444	708.61298	 23.10	
 20.006	 -5.780	  3.94066	  4.76263	 -0.86503	  1.34275	  2.01652	 -0.16253	  4.96852	708.49597	 23.10	
 20.005	-17.433	  3.93339	  4.62419	 -0.77057	  0.79479	  2.61340	 -0.16576	  4.96179	708.43799	 23.10	
 20.004	-29.051	  3.93054	  4.36568	 -0.59182	  0.30844	  3.18492	 -0.16919	  4.96471	708.41302	 23.10	
 19.999	-40.602	  3.92440	  3.98340	 -0.31700	 -0.09158	  3.69483	 -0.17219	  4.95292	708.37799	 23.10	
 19.989	-52.269	  3.93444	  3.51289	  0.04079	 -0.42536	  4.14775	 -0.16246	  4.96700	708.47699	 23.10	
 20.009	-63.844	  3.94138	  2.96921	  0.48104	 -0.65985	  4.48168	 -0.15591	  4.96913	708.42999	 23.10	
 19.992	-75.457	  3.94484	  2.37328	  0.99383	 -0.81058	  4.69009	 -0.16098	  4.96801	708.48798	 23.10	
 19.999	-87.075	  3.94974	  1.77770	  1.55184	 -0.86997	  4.77716	 -0.15998	  4.96641	708.51599	 23.10	
 19.989	-98.733	  3.95559	  1.19663	  2.14702	 -0.83878	  4.74465	 -0.17303	  4.96449	708.37097	 23.10	
 20.005	-110.327	  3.96843	  0.66994	  2.74388	 -0.71807	  4.59531	 -0.20696	  4.96591	708.46600	 23.20	
 20.009	-121.926	  3.98189	  0.20703	  3.31554	 -0.50499	  4.32343	 -0.23470	  4.97528	708.47400	 23.20	
 19.995	-133.545	  3.98174	 -0.17165	  3.81164	 -0.20356	  3.92457	 -0.25439	  4.96425	708.38501	 23.20	
 20.000	-145.147	  3.99363	 -0.46479	  4.23437	  0.18688	  3.44512	 -0.25922	  4.97157	708.44098	 23.20	
 20.008	-156.764	  4.00486	 -0.67584	  4.54885	  0.65233	  2.89914	 -0.24543	  4.97940	708.53601	 23.20	
 20.003	-168.362	  4.00286	 -0.79515	  4.72366	  1.18019	  2.31364	 -0.24346	  4.97532	708.47699	 23.20	
 20.000	180.000	  3.99621	 -0.82010	  4.76676	  1.75388	  1.72589	 -0.24377	  4.96604	708.62598	 23.20	
