FileType=PCF
NHL=14
Date=08/26/17	11:54:27
Facility=APL
Serial=16328-8
Customer=NASA
NP=6
Mach=0.200000
Calibration=1:1
CalPts=490
TstPts=95
PortNumbering=AP Standard
Units=Torr C m/s kg/m^3 deg mm 
Theta[deg]	Phi[deg]	P1[Torr]	P2[Torr]	P3[Torr]	P4[Torr]	P5[Torr]	P6[Torr]	Pt[Torr]	Ps[Abs,Torr]	Ts[C]	
  0.000	  0.000	 19.59974	 10.10675	  9.98921	  9.98017	 10.08801	  0.19213	 19.57246	711.00403	 25.00	
  1.691	128.401	 19.57892	  9.50968	 10.52093	 10.79086	  9.31345	  0.17796	 19.54878	710.98798	 25.10	
  1.692	 77.194	 19.56902	 10.30203	  9.72211	 10.97131	  9.11695	  0.17650	 19.54636	710.88098	 25.00	
  1.699	 26.182	 19.58909	 11.02375	  9.09081	 10.40147	  9.62282	  0.18148	 19.56685	710.91901	 25.00	
  1.699	-26.182	 19.58565	 11.00480	  9.11151	  9.46928	 10.49479	  0.17901	 19.56676	710.94800	 25.00	
  1.692	-77.194	 19.60175	 10.28425	  9.77376	  8.95951	 11.06024	  0.16846	 19.58068	710.94299	 25.00	
  1.691	-128.401	 19.58353	  9.49376	 10.55088	  9.14488	 10.87185	  0.16998	 19.56072	711.16199	 25.00	
  1.700	180.000	 19.56816	  9.14254	 10.89091	  9.93893	 10.07914	  0.17678	 19.54858	711.04602	 25.00	
  3.400	180.000	 19.59715	  8.14407	 11.91522	  9.89709	 10.04187	  0.14909	 19.59940	710.88898	 25.00	
  3.388	-152.325	 19.58787	  8.34369	 11.67472	  8.98919	 10.97583	  0.13697	 19.59936	711.03601	 25.00	
  3.397	-124.529	 19.54786	  8.91048	 10.97252	  8.29236	 11.70118	  0.12638	 19.55865	710.96399	 25.00	
  3.399	-96.763	 19.55178	  9.76324	 10.13596	  7.93528	 12.02552	  0.07164	 19.55901	711.02899	 25.00	
  3.394	-69.283	 19.56880	 10.69130	  9.24046	  8.07961	 11.92196	  0.11650	 19.58413	710.83301	 25.00	
  3.400	-41.398	 19.53931	 11.52405	  8.44605	  8.58372	 11.30657	  0.12887	 19.55776	711.05200	 25.10	
  3.401	-14.021	 19.58290	 12.01753	  8.03743	  9.33553	 10.45859	  0.12868	 19.59274	710.95599	 25.10	
  3.401	 14.021	 19.54671	 12.02173	  7.99392	 10.33513	  9.48085	  0.13290	 19.55733	711.02698	 25.10	
  3.400	 41.398	 19.53947	 11.57898	  8.40847	 11.23867	  8.68828	  0.13771	 19.56032	711.11200	 25.10	
  3.394	 69.283	 19.55166	 10.76846	  9.17305	 11.82887	  8.21222	  0.13377	 19.56993	710.97101	 25.10	
  3.399	 96.763	 19.55352	  9.80714	 10.07677	 11.97234	  8.10232	  0.13270	 19.56769	710.94800	 25.10	
  3.397	124.529	 19.53890	  8.96715	 10.92302	 11.61594	  8.41141	  0.14290	 19.55010	711.00500	 25.10	
  3.388	152.325	 19.57735	  8.36725	 11.64469	 10.89150	  9.12840	  0.15117	 19.58973	711.09900	 25.10	
  5.099	161.165	 19.46577	  7.20137	 12.64566	 10.80214	  8.95495	  0.07703	 19.56525	711.03802	 25.10	
  5.109	142.013	 19.46422	  7.64926	 12.11784	 11.72612	  8.10562	  0.04449	 19.56691	711.12000	 25.10	
  5.095	123.033	 19.50400	  8.40666	 11.34237	 12.44694	  7.47414	  0.02825	 19.60091	711.14801	 25.10	
  5.105	104.191	 19.43647	  9.24397	 10.37882	 12.83337	  7.08046	  0.05307	 19.54304	710.99597	 25.10	
  5.093	 85.207	 19.46699	 10.16640	  9.49258	 12.90253	  7.00679	  0.01638	 19.57269	710.97601	 25.10	
  5.104	 66.290	 19.46017	 11.17643	  8.53583	 12.64325	  7.20099	  0.05105	 19.57416	711.02698	 25.10	
  5.094	 47.331	 19.45207	 12.03474	  7.74057	 12.03884	  7.67146	  0.07766	 19.57198	710.98798	 25.10	
  5.089	 28.397	 19.46528	 12.66641	  7.15893	 11.19707	  8.42353	  0.03700	 19.58540	711.12299	 25.10	
  5.096	  9.576	 19.45311	 12.99990	  6.84477	 10.17941	  9.32031	  0.08401	 19.57039	710.97400	 25.10	
  5.096	 -9.576	 19.46460	 12.95725	  6.88965	  9.20535	 10.33170	  0.04404	 19.57255	711.02100	 25.10	
  5.089	-28.397	 19.45880	 12.60259	  7.19006	  8.33822	 11.28522	  0.03829	 19.57700	710.88397	 25.10	
  5.094	-47.331	 19.46509	 11.93989	  7.79403	  7.59377	 12.11986	 -0.01753	 19.58437	710.93103	 25.10	
  5.104	-66.290	 19.46109	 11.05050	  8.60838	  7.05759	 12.74444	 -0.03742	 19.58406	710.99200	 25.10	
  5.093	-85.207	 19.44680	 10.05573	  9.54691	  6.82539	 12.99972	 -0.03611	 19.55567	710.87097	 25.10	
  5.105	-104.191	 19.43953	  9.12238	 10.47336	  6.85885	 12.92723	 -0.02982	 19.55476	711.00500	 25.10	
  5.095	-123.033	 19.44664	  8.26319	 11.37323	  7.32268	 12.50185	 -0.00575	 19.54834	710.97101	 25.10	
  5.109	-142.013	 19.43834	  7.56591	 12.15974	  7.98181	 11.78453	  0.00631	 19.54195	710.99902	 25.10	
  5.099	-161.165	 19.48657	  7.17032	 12.69802	  8.84466	 10.87466	  0.05596	 19.58541	710.94000	 25.10	
  5.100	180.000	 19.49090	  7.07843	 12.84087	  9.76202	  9.91770	  0.06111	 19.58912	710.99799	 25.10	
  6.800	180.000	 19.31056	  5.84671	 13.77221	  9.58041	  9.71022	 -0.02415	 19.57592	710.90302	 25.10	
  6.796	-166.229	 19.33574	  5.90593	 13.68208	  8.69692	 10.66708	 -0.06273	 19.59968	710.91998	 25.10	
  6.808	-152.311	 19.30680	  6.18263	 13.30457	  7.78093	 11.62608	 -0.08342	 19.57427	711.01001	 25.10	
  6.795	-138.383	 19.29498	  6.70540	 12.68376	  6.96343	 12.49932	 -0.09223	 19.56860	710.98199	 25.10	
  6.792	-124.591	 19.30491	  7.39972	 11.90151	  6.33126	 13.20753	 -0.12587	 19.57956	711.13898	 25.10	
  6.787	-110.754	 19.28973	  8.23156	 10.96481	  5.87152	 13.67384	 -0.14545	 19.57269	711.00201	 25.10	
  6.800	-96.985	 19.28157	  9.15468	 10.07955	  5.60255	 13.91664	 -0.17119	 19.57414	711.06897	 25.10	
  6.800	-83.015	 19.28766	 10.06535	  9.15125	  5.57862	 13.90291	 -0.18176	 19.57095	711.01898	 25.10	
  6.787	-69.246	 19.27800	 11.02691	  8.21236	  5.84764	 13.64045	 -0.17651	 19.57269	711.08801	 25.10	
  6.792	-55.409	 19.25462	 11.95573	  7.31832	  6.25872	 13.13067	 -0.15849	 19.56039	710.96698	 25.10	
  6.795	-41.617	 19.28638	 12.78133	  6.59399	  6.88978	 12.43177	 -0.12742	 19.57945	711.05798	 25.10	
  6.808	-27.689	 19.28090	 13.41302	  6.02762	  7.66994	 11.52849	 -0.09841	 19.57872	710.99799	 25.10	
  6.796	-13.771	 19.28644	 13.80021	  5.73485	  8.55915	 10.55960	 -0.06362	 19.58116	711.02100	 25.10	
  6.800	  0.000	 19.29272	 13.95046	  5.64142	  9.47528	  9.63461	 -0.04544	 19.59241	711.03003	 25.10	
  6.796	 13.771	 19.25819	 13.83378	  5.69763	 10.42461	  8.65209	 -0.05475	 19.55155	711.08502	 25.10	
  6.808	 27.689	 19.27119	 13.49158	  5.99707	 11.42349	  7.74474	 -0.06968	 19.56889	711.18402	 25.10	
  6.795	 41.617	 19.28672	 12.92251	  6.54130	 12.30213	  6.97685	 -0.06984	 19.58132	711.08099	 25.10	
  6.792	 55.409	 19.30774	 12.16289	  7.27002	 13.04646	  6.37824	 -0.08586	 19.59418	711.09900	 25.10	
  6.787	 69.246	 19.28794	 11.24430	  8.10579	 13.54411	  5.96078	 -0.10502	 19.57055	711.11200	 25.10	
  6.800	 83.015	 19.30343	 10.28159	  9.02701	 13.82197	  5.79683	 -0.09880	 19.57806	711.15601	 25.10	
  6.800	 96.985	 19.30433	  9.27515	  9.94675	 13.83560	  5.83629	 -0.10842	 19.57746	711.20898	 25.10	
  6.787	110.754	 19.32178	  8.33334	 10.87366	 13.59428	  6.06277	 -0.11237	 19.58391	711.11200	 25.10	
  6.792	124.591	 19.29534	  7.46369	 11.78982	 13.09778	  6.49163	 -0.08066	 19.55240	711.16699	 25.10	
  6.795	138.383	 19.28530	  6.74452	 12.57969	 12.41588	  7.09924	 -0.06061	 19.54778	711.05701	 25.10	
  6.808	152.311	 19.30027	  6.18082	 13.21945	 11.57117	  7.87353	 -0.04989	 19.56090	711.13098	 25.10	
  6.796	166.229	 19.29951	  5.84683	 13.61660	 10.60482	  8.78098	 -0.03521	 19.56769	710.98700	 25.10	
  8.491	168.704	 19.08341	  4.61656	 14.51686	 10.42907	  8.55044	 -0.15961	 19.58111	711.08899	 25.10	
  8.502	157.493	 19.05309	  4.87110	 14.17639	 11.40799	  7.57261	 -0.18803	 19.55789	711.05798	 25.10	
  8.494	146.194	 19.07071	  5.32754	 13.65559	 12.34889	  6.70936	 -0.19598	 19.57035	710.99597	 25.10	
  8.495	135.039	 19.09797	  5.93714	 12.97639	 13.19006	  5.95916	 -0.21196	 19.59714	711.12299	 25.10	
  8.487	123.723	 19.05504	  6.70445	 12.08515	 13.83338	  5.38741	 -0.24268	 19.55210	711.23798	 25.10	
  8.492	112.575	 19.08092	  7.57541	 11.16040	 14.33272	  5.00397	 -0.27697	 19.57928	711.17798	 25.10	
  8.510	101.220	 19.07409	  8.53052	 10.14288	 14.64161	  4.75569	 -0.29576	 19.57185	711.23798	 25.10	
  8.500	 90.000	 19.09952	  9.55070	  9.24770	 14.73814	  4.66163	 -0.27451	 19.60116	711.26501	 25.10	
  8.510	 78.780	 19.05406	 10.56306	  8.27609	 14.59149	  4.71003	 -0.25341	 19.57584	711.21997	 25.10	
  8.492	 67.425	 19.02355	 11.53862	  7.30605	 14.23537	  4.91465	 -0.24322	 19.54876	711.25702	 25.10	
  8.487	 56.277	 19.05384	 12.48129	  6.46092	 13.74584	  5.28930	 -0.22662	 19.59409	711.10901	 25.10	
  8.495	 44.961	 19.02626	 13.28764	  5.70103	 13.01871	  5.83203	 -0.21665	 19.57157	711.28802	 25.10	
  8.494	 33.806	 19.00414	 13.93641	  5.14322	 12.15119	  6.55106	 -0.20854	 19.55310	711.17499	 25.10	
  8.502	 22.507	 19.04032	 14.45480	  4.75243	 11.22030	  7.43385	 -0.22239	 19.59700	711.04401	 25.10	
  8.491	 11.296	 19.00136	 14.70627	  4.52071	 10.17924	  8.37479	 -0.18946	 19.55259	711.09198	 25.10	
  8.500	  0.000	 19.02208	 14.80638	  4.45362	  9.21280	  9.39522	 -0.18159	 19.57490	711.04102	 25.10	
  8.491	-11.296	 19.03199	 14.67894	  4.55981	  8.25778	 10.36955	 -0.19713	 19.57728	711.12000	 25.10	
  8.502	-22.507	 19.03172	 14.35888	  4.79948	  7.33482	 11.35147	 -0.22685	 19.59311	711.23798	 25.10	
  8.494	-33.806	 19.00609	 13.80474	  5.21260	  6.43774	 12.30083	 -0.25481	 19.56688	711.11401	 25.10	
  8.495	-44.961	 19.00291	 13.10083	  5.79499	  5.68836	 13.14300	 -0.27513	 19.56082	710.99597	 25.10	
  8.487	-56.277	 19.00356	 12.23721	  6.56160	  5.10949	 13.82484	 -0.30540	 19.55873	711.11401	 25.10	
  8.492	-67.425	 19.00856	 11.30237	  7.43971	  4.67976	 14.33953	 -0.33394	 19.56224	711.14001	 25.10	
  8.510	-78.780	 19.01294	 10.28190	  8.41085	  4.40498	 14.66359	 -0.34674	 19.55315	711.04602	 25.10	
  8.500	-90.000	 19.03496	  9.25726	  9.39136	  4.35822	 14.78757	 -0.34833	 19.56713	711.22998	 25.10	
  8.510	-101.220	 19.03461	  8.26824	 10.29406	  4.47527	 14.70294	 -0.32301	 19.56791	711.17102	 25.10	
  8.492	-112.575	 19.05403	  7.34635	 11.28274	  4.76321	 14.40078	 -0.27393	 19.57319	711.14398	 25.10	
  8.487	-123.723	 19.03678	  6.49132	 12.20348	  5.19792	 13.89400	 -0.25157	 19.54908	711.19000	 25.10	
  8.495	-135.039	 19.06405	  5.75630	 13.05895	  5.81039	 13.24362	 -0.22463	 19.58336	711.15601	 25.10	
  8.494	-146.194	 19.04902	  5.17538	 13.72812	  6.59366	 12.39923	 -0.21863	 19.56288	711.19299	 25.10	
  8.502	-157.493	 19.07665	  4.78925	 14.24498	  7.50897	 11.45852	 -0.22454	 19.57761	711.15601	 25.10	
  8.491	-168.704	 19.07032	  4.57724	 14.53073	  8.44797	 10.46720	 -0.18767	 19.56000	711.13300	 25.10	
  8.500	180.000	 19.08078	  4.52026	 14.63868	  9.38902	  9.51478	 -0.14465	 19.57158	711.30499	 25.10	
 10.200	180.000	 18.78340	  3.29929	 15.46625	  9.14536	  9.22772	 -0.29614	 19.57942	711.13098	 25.10	
 10.191	-170.497	 18.78413	  3.32800	 15.38701	  8.18662	 10.21205	 -0.33853	 19.58757	711.19800	 25.10	
 10.210	-161.034	 18.76028	  3.49959	 15.11979	  7.21217	 11.21265	 -0.37413	 19.56901	711.08099	 25.10	
 10.194	-151.526	 18.76438	  3.83788	 14.68277	  6.27189	 12.20344	 -0.37386	 19.56939	711.21997	 25.10	
 10.190	-142.105	 18.75810	  4.29553	 14.09867	  5.37646	 13.09855	 -0.35994	 19.57987	711.14801	 25.10	
 10.215	-132.646	 18.77160	  4.90909	 13.38278	  4.63979	 13.91822	 -0.36449	 19.60213	711.23798	 25.10	
 10.203	-123.092	 18.73258	  5.66417	 12.49008	  4.02583	 14.55548	 -0.38347	 19.55926	711.18402	 25.10	
 10.192	-113.678	 18.73633	  6.52740	 11.55161	  3.56051	 15.07458	 -0.41769	 19.57691	711.25098	 25.10	
 10.208	-104.249	 18.73272	  7.44548	 10.55586	  3.23291	 15.43414	 -0.47335	 19.57746	711.24103	 25.10	
 10.210	-94.801	 18.71627	  8.41764	  9.62990	  3.06915	 15.59525	 -0.51964	 19.57049	711.19299	 25.10	
 10.210	-85.199	 18.70354	  9.46946	  8.61292	  3.04160	 15.59098	 -0.52863	 19.57468	711.20898	 25.10	
 10.208	-75.751	 18.69445	 10.50428	  7.61680	  3.15561	 15.40512	 -0.51657	 19.58213	711.13000	 25.10	
 10.192	-66.322	 18.68142	 11.50860	  6.65441	  3.45063	 15.02659	 -0.49459	 19.56579	711.19299	 25.10	
 10.203	-56.908	 18.68309	 12.45858	  5.78631	  3.89140	 14.49609	 -0.46810	 19.57307	711.14398	 25.10	
 10.215	-47.354	 18.68788	 13.36845	  5.04112	  4.47238	 13.82670	 -0.43324	 19.58329	711.16699	 25.10	
 10.190	-37.895	 18.68704	 14.12831	  4.40533	  5.18000	 13.01841	 -0.40614	 19.57956	711.23297	 25.10	
 10.194	-28.474	 18.66095	 14.71804	  3.88935	  6.00514	 12.08574	 -0.38916	 19.55550	711.22699	 25.10	
 10.210	-18.966	 18.66440	 15.18711	  3.51318	  6.95662	 11.07954	 -0.36464	 19.55332	711.21600	 25.10	
 10.191	 -9.503	 18.69027	 15.48524	  3.29890	  7.93744	 10.09761	 -0.33752	 19.57176	711.34497	 25.10	
 10.200	  0.000	 18.67904	 15.60049	  3.19669	  8.91232	  9.12193	 -0.32442	 19.56739	711.29401	 25.10	
 10.191	  9.503	 18.69735	 15.55465	  3.25112	  9.88873	  8.13044	 -0.34492	 19.58991	711.20099	 25.10	
 10.210	 18.966	 18.67369	 15.30341	  3.45457	 10.90858	  7.09747	 -0.37010	 19.56565	711.30499	 25.10	
 10.194	 28.474	 18.68919	 14.88362	  3.81500	 11.90843	  6.20686	 -0.36617	 19.57421	711.28198	 25.10	
 10.190	 37.895	 18.69412	 14.30731	  4.29455	 12.84513	  5.43446	 -0.35102	 19.57669	711.25098	 25.10	
 10.215	 47.354	 18.70846	 13.60334	  4.89235	 13.69352	  4.67099	 -0.35454	 19.58843	711.22998	 25.10	
 10.203	 56.908	 18.71311	 12.75099	  5.62728	 14.37343	  4.09193	 -0.38566	 19.57914	711.18201	 25.10	
 10.192	 66.322	 18.73652	 11.82632	  6.49508	 14.91743	  3.70608	 -0.40436	 19.58400	711.26300	 25.10	
 10.208	 75.751	 18.73746	 10.84172	  7.42358	 15.30069	  3.42823	 -0.42819	 19.58063	711.21198	 25.10	
 10.210	 85.199	 18.74891	  9.81897	  8.40692	 15.49035	  3.30627	 -0.44925	 19.57286	711.22699	 25.10	
 10.210	 94.801	 18.77399	  8.76970	  9.42173	 15.52344	  3.34771	 -0.49477	 19.58348	711.07397	 25.10	
 10.208	104.249	 18.77561	  7.77216	 10.37861	 15.35735	  3.51980	 -0.49033	 19.58538	711.27197	 25.10	
 10.192	113.678	 18.77242	  6.81833	 11.38365	 15.01797	  3.87970	 -0.46843	 19.57399	711.20203	 25.10	
 10.203	123.092	 18.76446	  5.94697	 12.34081	 14.52777	  4.30031	 -0.41885	 19.57227	711.17603	 25.10	
 10.215	132.646	 18.74831	  5.15574	 13.21518	 13.86935	  4.84649	 -0.37477	 19.56240	711.29602	 25.10	
 10.190	142.105	 18.77642	  4.52469	 13.98601	 13.09122	  5.52873	 -0.34930	 19.57867	711.23499	 25.10	
 10.194	151.526	 18.78077	  4.00384	 14.60585	 12.19598	  6.37561	 -0.33704	 19.58756	711.19299	 25.10	
 10.210	161.034	 18.76183	  3.60468	 15.05180	 11.19897	  7.28802	 -0.32569	 19.56823	711.13599	 25.10	
 10.191	170.497	 18.76999	  3.38179	 15.33840	 10.18097	  8.25923	 -0.30123	 19.57213	711.18402	 25.00	
 11.899	171.783	 18.40190	  2.13721	 16.15647	  9.88069	  7.87532	 -0.44335	 19.58274	711.17499	 25.10	
 11.890	163.610	 18.40671	  2.34664	 15.89851	 10.91539	  6.92232	 -0.46083	 19.58658	711.16699	 25.00	
 11.889	155.445	 18.40398	  2.67850	 15.46188	 11.91832	  5.95575	 -0.47685	 19.58089	711.23798	 25.00	
 11.909	147.299	 18.39204	  3.11947	 14.92012	 12.86952	  5.05274	 -0.48813	 19.58082	711.19501	 25.00	
 11.902	139.148	 18.43334	  3.73321	 14.26254	 13.75249	  4.32099	 -0.51421	 19.61607	711.12799	 25.00	
 11.894	130.867	 18.40481	  4.40520	 13.43541	 14.48343	  3.65069	 -0.55538	 19.58161	711.29700	 25.00	
 11.897	122.732	 18.41883	  5.18907	 12.56130	 15.13958	  3.12102	 -0.61255	 19.59272	711.21198	 25.00	
 11.903	114.597	 18.40155	  6.03879	 11.58022	 15.63614	  2.69537	 -0.66585	 19.57336	711.18701	 25.00	
 11.893	106.346	 18.38065	  6.98038	 10.54444	 15.99143	  2.38956	 -0.69510	 19.56489	711.17102	 25.00	
 11.892	 98.155	 18.38007	  7.97314	  9.54408	 16.20787	  2.19209	 -0.69648	 19.56747	711.15399	 25.00	
 11.900	 90.000	 18.39061	  8.99363	  8.57964	 16.28092	  2.08528	 -0.67549	 19.58668	711.20099	 25.00	
 11.892	 81.845	 18.35449	 10.01469	  7.55216	 16.14801	  2.13099	 -0.62707	 19.56481	711.26898	 25.00	
 11.893	 73.654	 18.35637	 11.04158	  6.57033	 15.91099	  2.29591	 -0.59952	 19.57985	711.27197	 25.00	
 11.903	 65.403	 18.34723	 12.05402	  5.63527	 15.49866	  2.59462	 -0.55776	 19.58472	711.28198	 25.00	
 11.897	 57.268	 18.32335	 12.97465	  4.82510	 14.93951	  2.98729	 -0.53309	 19.57356	711.28601	 25.00	
 11.894	 49.133	 18.30782	 13.82091	  4.09782	 14.24965	  3.53469	 -0.50477	 19.56608	711.30499	 25.00	
 11.902	 40.852	 18.29991	 14.58807	  3.42706	 13.45062	  4.19718	 -0.50052	 19.57748	711.28198	 25.00	
 11.909	 32.701	 18.31836	 15.24353	  2.85280	 12.58507	  4.99817	 -0.51683	 19.60604	711.38098	 25.00	
 11.889	 24.555	 18.30992	 15.73281	  2.40196	 11.59991	  5.88305	 -0.52591	 19.59450	711.30200	 25.00	
 11.890	 16.390	 18.28317	 16.06769	  2.09333	 10.57077	  6.79959	 -0.52093	 19.56979	711.26300	 25.00	
 11.899	  8.217	 18.27646	 16.27180	  1.91298	  9.55025	  7.74930	 -0.48037	 19.56124	711.28900	 25.00	
 11.900	  0.000	 18.27642	 16.32764	  1.85759	  8.57344	  8.76633	 -0.47640	 19.56168	711.17902	 25.00	
 11.899	 -8.217	 18.27042	 16.22487	  1.93703	  7.55994	  9.77822	 -0.48314	 19.54955	711.22400	 25.00	
 11.890	-16.390	 18.28483	 15.97992	  2.14178	  6.57389	 10.76287	 -0.50830	 19.57567	711.39001	 25.00	
 11.889	-24.555	 18.28996	 15.58218	  2.44554	  5.59258	 11.79521	 -0.51770	 19.57717	711.32800	 25.00	
 11.909	-32.701	 18.27630	 15.03106	  2.86570	  4.71657	 12.75068	 -0.53689	 19.57574	711.28601	 25.00	
 11.902	-40.852	 18.27531	 14.35763	  3.44514	  3.94250	 13.61522	 -0.54782	 19.56660	711.33301	 25.00	
 11.894	-49.133	 18.30185	 13.56382	  4.22770	  3.26899	 14.43382	 -0.58057	 19.59445	711.29401	 25.00	
 11.897	-57.268	 18.28366	 12.66232	  4.98106	  2.72568	 15.08183	 -0.60502	 19.57675	711.31702	 25.00	
 11.903	-65.403	 18.27831	 11.69617	  5.78896	  2.30993	 15.62082	 -0.63334	 19.56585	711.26099	 25.00	
 11.893	-73.654	 18.31987	 10.69910	  6.74784	  2.02619	 16.02729	 -0.64264	 19.59814	711.36700	 25.00	
 11.892	-81.845	 18.31236	  9.64005	  7.77478	  1.86073	 16.24561	 -0.66926	 19.57782	711.32501	 25.00	
 11.900	-90.000	 18.31936	  8.58761	  8.80418	  1.81451	 16.33664	 -0.66713	 19.57284	711.33301	 25.00	
 11.892	-98.155	 18.33248	  7.58557	  9.73357	  1.92359	 16.25827	 -0.65431	 19.56819	711.22699	 25.00	
 11.893	-106.346	 18.34754	  6.59457	 10.75058	  2.10144	 16.06031	 -0.61130	 19.58219	711.33698	 25.00	
 11.903	-114.597	 18.35117	  5.67229	 11.76433	  2.42215	 15.68496	 -0.55496	 19.57593	711.38898	 25.00	
 11.897	-122.732	 18.36328	  4.85971	 12.71801	  2.90356	 15.16095	 -0.51225	 19.57407	711.24298	 25.00	
 11.894	-130.867	 18.35703	  4.13376	 13.57139	  3.47872	 14.48569	 -0.49332	 19.55421	711.33698	 25.00	
 11.902	-139.148	 18.38018	  3.47052	 14.36704	  4.17033	 13.72245	 -0.50470	 19.57639	711.37500	 25.00	
 11.909	-147.299	 18.40360	  2.92893	 15.03776	  4.96745	 12.88197	 -0.51526	 19.59921	711.37598	 25.00	
 11.889	-155.445	 18.34987	  2.53751	 15.49476	  5.87504	 11.89054	 -0.53708	 19.53318	711.20697	 25.00	
 11.890	-163.610	 18.39699	  2.26894	 15.92742	  6.86444	 10.90253	 -0.52894	 19.57608	711.32501	 25.00	
 11.899	-171.783	 18.41696	  2.11528	 16.18951	  7.85990	  9.88857	 -0.49478	 19.59613	711.28802	 25.00	
 11.900	180.000	 18.39402	  2.08426	 16.23494	  8.83614	  8.87557	 -0.44790	 19.57179	711.35901	 25.00	
 13.600	180.000	 17.96163	  0.86338	 16.88183	  8.47926	  8.49181	 -0.61042	 19.57536	711.32001	 25.00	
 13.608	-172.853	 17.95541	  0.88711	 16.83243	  7.47965	  9.47763	 -0.65456	 19.57804	711.26501	 25.00	
 13.611	-165.583	 17.95693	  1.01287	 16.64909	  6.42789	 10.51901	 -0.69469	 19.58459	711.12799	 25.00	
 13.601	-158.353	 17.97806	  1.26664	 16.32812	  5.44220	 11.56175	 -0.71324	 19.60131	711.27197	 25.00	
 13.609	-151.210	 17.91693	  1.60383	 15.81664	  4.53080	 12.49047	 -0.70463	 19.54881	711.20203	 25.00	
 13.611	-143.999	 17.94050	  2.08104	 15.26543	  3.73046	 13.42505	 -0.65213	 19.57756	711.12299	 25.00	
 13.601	-136.825	 17.93430	  2.62596	 14.56524	  2.98261	 14.27966	 -0.62235	 19.57549	711.29602	 25.00	
 13.596	-129.640	 17.91734	  3.26713	 13.75507	  2.33249	 15.02597	 -0.61091	 19.56318	711.38202	 25.00	
 13.611	-122.431	 17.93343	  4.00985	 12.88809	  1.77894	 15.69583	 -0.62956	 19.60666	711.26300	 25.00	
 13.604	-115.211	 17.91964	  4.82526	 11.93086	  1.34556	 16.20729	 -0.66906	 19.59690	711.23798	 24.90	
 13.595	-108.042	 17.89812	  5.71026	 10.91584	  1.01065	 16.58971	 -0.71961	 19.57991	711.22302	 25.00	
 13.607	-100.793	 17.86981	  6.65477	  9.89008	  0.75977	 16.84607	 -0.77181	 19.56410	711.24597	 25.00	
 13.601	-93.617	 17.90170	  7.67489	  8.96073	  0.60649	 17.02887	 -0.76825	 19.62477	711.33301	 25.00	
 13.601	-86.383	 17.85081	  8.71070	  7.88400	  0.57763	 16.97889	 -0.76735	 19.57531	711.27197	 24.90	
 13.607	-79.207	 17.84128	  9.75702	  6.75147	  0.66419	 16.85350	 -0.72871	 19.58797	711.21503	 24.90	
 13.595	-71.958	 17.84527	 10.81906	  5.77706	  0.87357	 16.57860	 -0.70273	 19.59568	711.26898	 25.00	
 13.604	-64.789	 17.79573	 11.80741	  4.96704	  1.16056	 16.13964	 -0.68437	 19.56085	711.31299	 25.00	
 13.611	-57.569	 17.82689	 12.79957	  4.01981	  1.58439	 15.63709	 -0.67711	 19.59555	711.25800	 25.00	
 13.596	-50.360	 17.80551	 13.68902	  3.26005	  2.10745	 14.96269	 -0.65814	 19.57064	711.25800	 25.00	
 13.601	-43.175	 17.79468	 14.50717	  2.58717	  2.73366	 14.19014	 -0.64410	 19.56548	711.39001	 25.00	
 13.611	-36.001	 17.83117	 15.25660	  2.01655	  3.45198	 13.38149	 -0.63889	 19.60731	711.24902	 25.00	
 13.609	-28.790	 17.81476	 15.84501	  1.53567	  4.23691	 12.43683	 -0.63969	 19.57706	711.24597	 24.90	
 13.601	-21.647	 17.82509	 16.33531	  1.17069	  5.13516	 11.47315	 -0.62797	 19.58948	711.31097	 24.90	
 13.611	-14.417	 17.81860	 16.69374	  0.89437	  6.11172	 10.44750	 -0.60906	 19.57543	711.15900	 24.90	
 13.608	 -7.147	 17.80943	 16.91187	  0.70532	  7.15161	  9.43822	 -0.58977	 19.56958	711.25500	 24.90	
 13.600	  0.000	 17.81914	 17.00163	  0.64461	  8.14976	  8.42466	 -0.58364	 19.57318	711.29602	 25.00	
 13.608	  7.147	 17.81108	 16.95651	  0.69884	  9.16800	  7.35189	 -0.61335	 19.57342	711.22998	 24.90	
 13.611	 14.417	 17.84726	 16.80637	  0.86099	 10.19160	  6.37273	 -0.63406	 19.60394	711.27197	 24.90	
 13.601	 21.647	 17.85426	 16.48896	  1.12104	 11.22398	  5.49834	 -0.64870	 19.61288	711.46301	 25.00	
 13.609	 28.790	 17.82490	 16.03441	  1.46231	 12.20507	  4.49812	 -0.65699	 19.58287	711.39502	 24.90	
 13.611	 36.001	 17.81253	 15.46745	  1.89928	 13.13144	  3.70512	 -0.64214	 19.56942	711.29401	 24.90	
 13.601	 43.175	 17.87119	 14.81987	  2.46253	 14.02054	  3.06843	 -0.63202	 19.61282	711.29199	 24.90	
 13.596	 50.360	 17.83813	 14.01365	  3.14434	 14.77284	  2.39647	 -0.63869	 19.57102	711.42999	 24.90	
 13.611	 57.569	 17.86102	 13.15878	  3.94628	 15.48042	  1.83036	 -0.66823	 19.59048	711.39600	 24.90	
 13.604	 64.789	 17.85994	 12.20546	  4.76769	 16.02541	  1.42701	 -0.69479	 19.56839	711.50702	 24.90	
 13.595	 71.958	 17.88037	 11.22777	  5.62696	 16.45182	  1.14947	 -0.73397	 19.57050	711.41803	 24.90	
 13.607	 79.207	 17.91790	 10.21840	  6.59521	 16.77711	  0.94083	 -0.78079	 19.59086	711.38898	 24.90	
 13.601	 86.383	 17.91559	  9.17647	  7.62424	 16.90862	  0.86038	 -0.83868	 19.56406	711.24701	 24.90	
 13.601	 93.617	 17.92721	  8.14138	  8.66895	 16.93094	  0.88130	 -0.86411	 19.56871	711.30200	 24.90	
 13.607	100.793	 17.93506	  7.13459	  9.63133	 16.81023	  1.05026	 -0.87305	 19.55920	711.22302	 24.90	
 13.595	108.042	 17.92602	  6.15234	 10.66626	 16.54786	  1.26787	 -0.86151	 19.54757	711.30200	 24.90	
 13.604	115.211	 17.95716	  5.23808	 11.70031	 16.19191	  1.57409	 -0.83025	 19.57871	711.28601	 24.90	
 13.611	122.431	 17.96835	  4.38103	 12.68144	 15.70282	  1.98168	 -0.77716	 19.58847	711.38397	 24.90	
 13.596	129.640	 17.96853	  3.61780	 13.57890	 15.05637	  2.50667	 -0.70745	 19.58123	711.26599	 24.90	
 13.601	136.825	 17.95692	  2.93726	 14.39716	 14.29882	  3.13394	 -0.65588	 19.57121	711.21002	 24.90	
 13.611	143.999	 17.95671	  2.33172	 15.12119	 13.47769	  3.82812	 -0.63196	 19.57574	711.31897	 24.90	
 13.609	151.210	 17.96050	  1.84173	 15.73028	 12.55838	  4.62403	 -0.62098	 19.56966	711.19897	 24.90	
 13.601	158.353	 17.95934	  1.45741	 16.21933	 11.57769	  5.49981	 -0.61269	 19.57945	711.28497	 24.90	
 13.611	165.583	 17.96184	  1.13088	 16.59401	 10.55522	  6.46641	 -0.60046	 19.58414	711.44897	 24.90	
 13.608	172.853	 17.95288	  0.95133	 16.79830	  9.50455	  7.45185	 -0.58679	 19.57693	711.46802	 24.90	
 15.298	173.587	 17.46119	 -0.22679	 17.41254	  9.09759	  6.99099	 -0.72549	 19.58532	711.35797	 24.90	
 15.291	167.167	 17.47208	 -0.05635	 17.22992	 10.14030	  6.02284	 -0.73827	 19.60324	711.32300	 24.90	
 15.307	160.676	 17.46603	  0.19187	 16.91108	 11.17757	  5.06669	 -0.74815	 19.59055	711.27100	 24.90	
 15.300	154.261	 17.46075	  0.53610	 16.46052	 12.18033	  4.17143	 -0.75585	 19.58092	711.36700	 24.90	
 15.288	147.854	 17.45970	  0.97431	 15.90907	 13.11857	  3.36154	 -0.75387	 19.57085	711.40302	 24.90	
 15.293	141.428	 17.44966	  1.49396	 15.24033	 13.98878	  2.62287	 -0.76631	 19.56016	711.36700	 24.90	
 15.299	134.985	 17.46860	  2.09269	 14.50769	 14.82316	  1.94048	 -0.80960	 19.58382	711.28198	 24.90	
 15.305	128.583	 17.46143	  2.78095	 13.66224	 15.54791	  1.33909	 -0.85978	 19.58978	711.29999	 24.90	
 15.309	122.142	 17.46163	  3.55363	 12.74579	 16.17035	  0.83734	 -0.91417	 19.58127	711.36499	 24.90	
 15.304	115.711	 17.43756	  4.38626	 11.76100	 16.65228	  0.45271	 -0.93932	 19.55916	711.38702	 24.90	
 15.297	109.291	 17.44719	  5.29568	 10.76011	 17.05447	  0.13240	 -0.96009	 19.57056	711.31097	 24.90	
 15.293	102.897	 17.43928	  6.23682	  9.72579	 17.33774	 -0.11571	 -0.96834	 19.57124	711.29602	 24.90	
 15.293	 96.458	 17.42294	  7.22562	  8.73691	 17.49780	 -0.30207	 -0.96963	 19.56287	711.33600	 24.90	
 15.300	 90.000	 17.43518	  8.25968	  7.71176	 17.56035	 -0.37275	 -0.95804	 19.59607	711.38098	 24.90	
 15.293	 83.542	 17.41907	  9.29691	  6.65350	 17.46852	 -0.33353	 -0.92968	 19.58825	711.19897	 24.90	
 15.293	 77.103	 17.41563	 10.33163	  5.63890	 17.26505	 -0.18896	 -0.90117	 19.59901	711.31702	 24.90	
 15.297	 70.709	 17.37909	 11.33932	  4.76219	 16.92134	  0.02257	 -0.84498	 19.58200	711.42902	 24.90	
 15.304	 64.289	 17.35805	 12.31130	  3.79250	 16.47012	  0.34824	 -0.81285	 19.57102	711.50500	 24.90	
 15.309	 57.858	 17.32852	 13.24422	  2.98387	 15.91622	  0.75911	 -0.76769	 19.56633	711.29602	 24.90	
 15.305	 51.417	 17.32051	 14.10073	  2.25920	 15.25357	  1.26624	 -0.74674	 19.57397	711.40698	 24.90	
 15.299	 45.015	 17.32562	 14.91249	  1.61156	 14.49690	  1.86084	 -0.73794	 19.58713	711.48602	 24.90	
 15.293	 38.572	 17.31682	 15.61810	  1.05830	 13.64128	  2.54395	 -0.72476	 19.58970	711.33698	 24.90	
 15.288	 32.146	 17.31021	 16.22446	  0.60524	 12.73346	  3.29414	 -0.73241	 19.58408	711.40302	 24.90	
 15.300	 25.739	 17.30546	 16.73057	  0.18024	 11.78077	  4.07362	 -0.72562	 19.59085	711.34497	 24.90	
 15.307	 19.324	 17.30005	 17.12461	 -0.12565	 10.76186	  4.93892	 -0.70894	 19.58246	711.22302	 24.90	
 15.291	 12.833	 17.28427	 17.38911	 -0.36691	  9.72010	  5.94457	 -0.67817	 19.56998	711.32501	 24.90	
 15.298	  6.413	 17.28686	 17.55262	 -0.55626	  8.72888	  6.96355	 -0.65281	 19.57791	711.40698	 24.90	
 15.300	  0.000	 17.28906	 17.60006	 -0.63014	  7.67222	  8.01824	 -0.65197	 19.57415	711.39001	 24.90	
 15.298	 -6.413	 17.27405	 17.51111	 -0.57447	  6.63475	  9.03945	 -0.63767	 19.56256	711.21600	 24.90	
 15.291	-12.833	 17.28890	 17.31993	 -0.39459	  5.63537	 10.03506	 -0.66722	 19.57844	711.31702	 24.90	
 15.307	-19.324	 17.29472	 17.00467	 -0.09328	  4.67098	 11.03416	 -0.69301	 19.58152	711.31000	 24.90	
 15.300	-25.739	 17.30171	 16.57014	  0.26046	  3.79620	 12.03777	 -0.69257	 19.59919	711.14801	 24.90	
 15.288	-32.146	 17.26733	 15.99256	  0.69090	  2.98720	 12.96441	 -0.69037	 19.55021	711.16803	 24.90	
 15.293	-38.572	 17.29129	 15.36666	  1.18291	  2.22183	 13.89758	 -0.67919	 19.59127	711.22998	 24.90	
 15.299	-45.015	 17.26406	 14.59293	  1.77890	  1.54135	 14.71758	 -0.67121	 19.57427	711.22400	 24.90	
 15.305	-51.417	 17.27973	 13.76150	  2.46326	  0.97287	 15.45113	 -0.66147	 19.57285	711.24902	 24.90	
 15.309	-57.858	 17.28870	 12.85218	  3.20748	  0.48072	 16.07508	 -0.66047	 19.58260	711.31598	 24.90	
 15.304	-64.289	 17.27517	 11.87224	  4.00672	  0.07854	 16.59365	 -0.67182	 19.55837	711.41302	 24.90	
 15.297	-70.709	 17.28130	 10.84810	  4.85638	 -0.24354	 17.01924	 -0.68958	 19.57027	711.35901	 24.90	
 15.293	-77.103	 17.30781	  9.82920	  5.82277	 -0.46378	 17.34226	 -0.68842	 19.58484	711.23297	 24.90	
 15.293	-83.542	 17.31793	  8.83987	  6.83295	 -0.62788	 17.53512	 -0.72210	 19.58406	711.24103	 24.90	
 15.300	-90.000	 17.31579	  7.79306	  7.88444	 -0.67577	 17.60314	 -0.75728	 19.57579	711.28900	 24.90	
 15.293	-96.458	 17.32260	  6.74035	  8.94195	 -0.59916	 17.52539	 -0.77112	 19.57024	711.39899	 24.80	
 15.293	-102.897	 17.34609	  5.70743	  9.99662	 -0.41920	 17.36123	 -0.77077	 19.58021	711.32703	 24.90	
 15.297	-109.291	 17.37695	  4.77689	 10.98915	 -0.12532	 17.07419	 -0.77995	 19.58427	711.32800	 24.90	
 15.304	-115.711	 17.40770	  3.89765	 12.00926	  0.21684	 16.68258	 -0.74868	 19.61076	711.32001	 24.90	
 15.309	-122.142	 17.38731	  3.08038	 12.94178	  0.66322	 16.11573	 -0.71422	 19.56769	711.28900	 24.90	
 15.305	-128.583	 17.39719	  2.35100	 13.83398	  1.18569	 15.48077	 -0.70887	 19.56438	711.31702	 24.80	
 15.299	-134.985	 17.41897	  1.71094	 14.65977	  1.79126	 14.77487	 -0.72078	 19.58413	711.26898	 24.80	
 15.293	-141.428	 17.41111	  1.15281	 15.38624	  2.50481	 13.92372	 -0.75626	 19.55929	711.31299	 24.80	
 15.288	-147.854	 17.42840	  0.67908	 16.02740	  3.29085	 13.02376	 -0.79663	 19.56341	711.28003	 24.90	
 15.300	-154.261	 17.45946	  0.28316	 16.57413	  4.13083	 12.11093	 -0.83765	 19.60109	711.33398	 24.80	
 15.307	-160.676	 17.44966	 -0.02808	 16.97493	  5.02476	 11.11596	 -0.83845	 19.57540	711.31702	 24.90	
 15.291	-167.167	 17.46092	 -0.24042	 17.26451	  6.02917	 10.07533	 -0.82025	 19.57557	711.34100	 24.80	
 15.298	-173.587	 17.45277	 -0.37053	 17.44043	  7.03630	  9.06276	 -0.77577	 19.57996	711.44397	 24.80	
 15.300	180.000	 17.45794	 -0.39005	 17.48535	  8.06555	  8.04281	 -0.73039	 19.57754	711.36102	 24.80	
 17.000	180.000	 16.88794	 -1.55578	 18.02531	  7.60613	  7.53445	 -0.82119	 19.58714	711.26501	 24.80	
 16.990	-174.179	 16.90236	 -1.54604	 17.99710	  6.58178	  8.55970	 -0.85468	 19.59693	711.29700	 24.80	
 17.009	-168.383	 16.90086	 -1.42856	 17.85395	  5.57569	  9.57692	 -0.88368	 19.59489	711.32800	 24.80	
 17.000	-162.596	 16.87917	 -1.24173	 17.56546	  4.60099	 10.59623	 -0.90797	 19.57892	711.24103	 24.80	
 16.990	-156.759	 16.89985	 -0.98448	 17.21900	  3.69256	 11.61181	 -0.92218	 19.60416	711.28003	 24.80	
 16.995	-150.919	 16.86346	 -0.64559	 16.71133	  2.82458	 12.56860	 -0.91426	 19.57177	711.38397	 24.80	
 16.988	-145.161	 16.87429	 -0.22663	 16.15214	  2.03285	 13.50334	 -0.87940	 19.59053	711.27197	 24.80	
 17.014	-139.343	 16.85579	  0.23917	 15.48841	  1.27852	 14.37704	 -0.84569	 19.59081	711.31000	 24.80	
 17.007	-133.546	 16.85831	  0.81974	 14.73497	  0.63947	 15.17283	 -0.80628	 19.60442	711.45099	 24.80	
 17.001	-127.699	 16.81464	  1.46602	 13.86483	  0.04681	 15.86572	 -0.80229	 19.56566	711.35602	 24.80	
 17.006	-121.937	 16.80093	  2.18182	 12.96636	 -0.46244	 16.50631	 -0.79001	 19.57319	711.33600	 24.80	
 17.002	-116.134	 16.79166	  2.97188	 12.01975	 -0.89256	 17.04406	 -0.79250	 19.58235	711.33398	 24.80	
 17.001	-110.310	 16.75951	  3.82105	 11.01007	 -1.24467	 17.45698	 -0.78231	 19.56460	711.38098	 24.80	
 16.988	-104.517	 16.75717	  4.74232	 10.01993	 -1.49041	 17.76258	 -0.76296	 19.56210	711.33698	 24.80	
 17.008	-98.662	 16.74945	  5.70223	  8.99560	 -1.69863	 17.99553	 -0.74128	 19.58236	711.47900	 24.80	
 16.996	-92.909	 16.74908	  6.70062	  7.96335	 -1.79138	 18.09975	 -0.68025	 19.58583	711.37201	 24.80	
 16.996	-87.091	 16.70582	  7.76636	  6.90072	 -1.84226	 18.08726	 -0.64574	 19.56233	711.48901	 24.80	
 17.012	-81.253	 16.68286	  8.77701	  5.85501	 -1.76129	 17.96959	 -0.62268	 19.55865	711.32300	 24.80	
 16.988	-75.483	 16.71952	  9.81752	  4.91066	 -1.58277	 17.79208	 -0.62429	 19.60215	711.36499	 24.80	
 17.001	-69.690	 16.69004	 10.85110	  4.00972	 -1.37528	 17.46060	 -0.60833	 19.58623	711.52502	 24.80	
 17.002	-63.866	 16.69311	 11.87549	  3.16290	 -1.05709	 17.03800	 -0.59078	 19.60237	711.41302	 24.80	
 17.006	-58.063	 16.67652	 12.83011	  2.35045	 -0.66274	 16.50478	 -0.60022	 19.57834	711.29602	 24.80	
 17.001	-52.301	 16.69045	 13.76569	  1.60332	 -0.18761	 15.88855	 -0.62628	 19.59122	711.23297	 24.80	
 17.007	-46.454	 16.68629	 14.62374	  0.90660	  0.36971	 15.15906	 -0.63956	 19.59043	711.27197	 24.80	
 17.014	-40.657	 16.67711	 15.40458	  0.26078	  0.97706	 14.36878	 -0.65683	 19.59250	711.33600	 24.80	
 16.988	-34.839	 16.68646	 16.08931	 -0.30639	  1.69829	 13.48818	 -0.67947	 19.58714	711.38898	 24.80	
 16.995	-29.081	 16.68503	 16.67660	 -0.77348	  2.46722	 12.54756	 -0.68986	 19.57288	711.34497	 24.80	
 16.990	-23.241	 16.71634	 17.20481	 -1.15360	  3.31872	 11.58317	 -0.68717	 19.60686	711.39899	 24.80	
 17.000	-17.404	 16.68598	 17.56798	 -1.44796	  4.19862	 10.54735	 -0.68187	 19.56985	711.33600	 24.80	
 17.009	-11.617	 16.70353	 17.87940	 -1.68049	  5.15236	  9.58362	 -0.64268	 19.58378	711.30499	 24.80	
 16.990	 -5.821	 16.67810	 18.02794	 -1.83053	  6.14336	  8.57979	 -0.63183	 19.55900	711.27100	 24.80	
 17.000	  0.000	 16.66963	 18.09814	 -1.88531	  7.16754	  7.57052	 -0.60978	 19.54759	711.36499	 24.80	
 16.990	  5.821	 16.68581	 18.07432	 -1.84227	  8.23458	  6.52257	 -0.61795	 19.56524	711.24298	 24.80	
 17.009	 11.617	 16.69934	 17.95891	 -1.71233	  9.25101	  5.44877	 -0.64317	 19.59092	711.26300	 24.80	
 17.000	 17.404	 16.68871	 17.69519	 -1.49170	 10.24461	  4.50939	 -0.66933	 19.57248	711.38202	 24.80	
 16.990	 23.241	 16.70212	 17.34670	 -1.16920	 11.27543	  3.62124	 -0.70171	 19.58428	711.28198	 24.80	
 16.995	 29.081	 16.71067	 16.89957	 -0.76615	 12.26070	  2.81010	 -0.72671	 19.58041	711.30298	 24.80	
 16.988	 34.839	 16.70304	 16.33170	 -0.31074	 13.17417	  2.04347	 -0.75289	 19.55753	711.33099	 24.80	
 17.014	 40.657	 16.71603	 15.70467	  0.18577	 14.09593	  1.30841	 -0.77247	 19.58216	711.37201	 24.80	
 17.007	 46.454	 16.72985	 14.96664	  0.77706	 14.92304	  0.67292	 -0.80146	 19.59413	711.24701	 24.80	
 17.001	 52.301	 16.72398	 14.12271	  1.44324	 15.64539	  0.09825	 -0.82317	 19.55934	711.40601	 24.80	
 17.006	 58.063	 16.76440	 13.27087	  2.15620	 16.32058	 -0.39211	 -0.85740	 19.58927	711.24701	 24.80	
 17.002	 63.866	 16.75518	 12.32200	  2.92481	 16.86115	 -0.77396	 -0.90128	 19.56195	711.31702	 24.80	
 17.001	 69.690	 16.78622	 11.35393	  3.73686	 17.33985	 -1.09207	 -0.92798	 19.58387	711.32300	 24.80	
 16.988	 75.483	 16.77701	 10.31951	  4.63331	 17.66048	 -1.31773	 -0.96353	 19.54724	711.34802	 24.80	
 17.012	 81.253	 16.80355	  9.31543	  5.58893	 17.92136	 -1.48113	 -0.97240	 19.56603	711.32703	 24.80	
 16.996	 87.091	 16.84304	  8.31313	  6.65752	 18.07659	 -1.57014	 -0.96361	 19.59201	711.39801	 24.80	
 16.996	 92.909	 16.83835	  7.26947	  7.70925	 18.08881	 -1.57457	 -0.94909	 19.57752	711.39001	 24.80	
 17.008	 98.662	 16.83937	  6.26276	  8.70888	 17.99273	 -1.46310	 -0.95026	 19.56655	711.36499	 24.80	
 16.988	104.517	 16.85406	  5.29706	  9.72545	 17.77900	 -1.23499	 -0.96235	 19.54995	711.32703	 24.80	
 17.001	110.310	 16.88426	  4.36396	 10.77496	 17.50290	 -0.99491	 -0.95979	 19.58117	711.33398	 24.80	
 17.002	116.134	 16.90665	  3.48254	 11.79640	 17.10616	 -0.67387	 -0.97411	 19.60008	711.25403	 24.80	
 17.006	121.937	 16.91312	  2.65768	 12.77055	 16.59329	 -0.27561	 -0.96646	 19.60427	711.42603	 24.80	
 17.001	127.699	 16.89620	  1.90412	 13.66824	 15.97058	  0.21150	 -0.93923	 19.58436	711.46802	 24.80	
 17.007	133.546	 16.89358	  1.20139	 14.52774	 15.27339	  0.75668	 -0.91873	 19.58590	711.38898	 24.80	
 17.014	139.343	 16.91166	  0.57950	 15.32412	 14.50541	  1.38433	 -0.89231	 19.60446	711.35602	 24.80	
 16.988	145.161	 16.89558	  0.06460	 15.98325	 13.60665	  2.11653	 -0.86291	 19.55857	711.38898	 24.80	
 16.995	150.919	 16.92240	 -0.39501	 16.60959	 12.71914	  2.87891	 -0.87163	 19.60423	711.49902	 24.80	
 16.990	156.759	 16.89359	 -0.78461	 17.08717	 11.73363	  3.69821	 -0.85892	 19.57434	711.44299	 24.80	
 17.000	162.596	 16.85744	 -1.09651	 17.46032	 10.68980	  4.59473	 -0.84177	 19.53515	711.40698	 24.80	
 17.009	168.383	 16.89994	 -1.32979	 17.79760	  9.68153	  5.54695	 -0.83093	 19.59539	711.36401	 24.80	
 16.990	174.179	 16.87385	 -1.46582	 17.93380	  8.65003	  6.50687	 -0.81570	 19.56367	711.41803	 24.80	
 18.709	174.675	 16.24672	 -2.60179	 18.39746	  8.13469	  5.99220	 -0.85760	 19.55801	711.23798	 24.80	
 18.703	169.441	 16.25463	 -2.48735	 18.25407	  9.15410	  5.04923	 -0.88619	 19.56852	711.41302	 24.80	
 18.691	164.085	 16.26889	 -2.27811	 17.99712	 10.20063	  4.11755	 -0.90981	 19.56779	711.50800	 24.80	
 18.706	158.818	 16.25449	 -2.03014	 17.64303	 11.20938	  3.20837	 -0.93176	 19.57009	711.48199	 24.80	
 18.695	153.537	 16.29057	 -1.68274	 17.21740	 12.20153	  2.39664	 -0.93869	 19.59556	711.49701	 24.80	
 18.704	148.255	 16.25633	 -1.26632	 16.63135	 13.11799	  1.60659	 -0.95148	 19.55516	711.41199	 24.80	
 18.698	142.952	 16.29831	 -0.79724	 16.03252	 14.05698	  0.88187	 -0.96354	 19.60777	711.51300	 24.80	
 18.699	137.625	 16.27917	 -0.23814	 15.29013	 14.88107	  0.21772	 -0.96641	 19.58399	711.48602	 24.80	
 18.705	132.343	 16.27486	  0.37572	 14.49541	 15.62647	 -0.36438	 -0.97073	 19.57647	711.34198	 24.80	
 18.713	127.067	 16.28056	  1.04797	 13.65051	 16.33183	 -0.89457	 -0.96091	 19.59399	711.48199	 24.80	
 18.700	121.794	 16.28601	  1.79661	 12.72883	 16.93521	 -1.34816	 -0.95485	 19.59895	711.46301	 24.80	
 18.698	116.504	 16.25183	  2.59921	 11.73216	 17.42244	 -1.73729	 -0.92555	 19.56348	711.47699	 24.70	
 18.707	111.165	 16.23339	  3.45727	 10.72566	 17.83704	 -2.06066	 -0.90652	 19.56454	711.49701	 24.70	
 18.690	105.863	 16.23797	  4.36794	  9.71406	 18.16039	 -2.29454	 -0.87240	 19.56744	711.33600	 24.70	
 18.696	100.583	 16.22214	  5.32007	  8.70617	 18.37608	 -2.48338	 -0.86085	 19.57030	711.47900	 24.80	
 18.700	 95.309	 16.22774	  6.29363	  7.68392	 18.51301	 -2.58910	 -0.87415	 19.58509	711.36798	 24.70	
 18.700	 90.000	 16.21021	  7.29600	  6.64773	 18.52407	 -2.62372	 -0.90330	 19.57491	711.42700	 24.80	
 18.700	 84.691	 16.21025	  8.32582	  5.62947	 18.46778	 -2.57672	 -0.94058	 19.58320	711.37598	 24.80	
 18.696	 79.417	 16.19611	  9.34091	  4.65129	 18.29665	 -2.46703	 -0.96273	 19.58124	711.53802	 24.70	
 18.690	 74.137	 16.17010	 10.34587	  3.72613	 18.01615	 -2.30120	 -0.97819	 19.57466	711.50000	 24.70	
 18.707	 68.835	 16.14715	 11.35239	  2.86583	 17.66039	 -2.10318	 -0.97099	 19.58931	711.38098	 24.70	
 18.698	 63.496	 16.13211	 12.32835	  2.03994	 17.19763	 -1.80272	 -0.95077	 19.58052	711.33600	 24.70	
 18.700	 58.206	 16.10055	 13.23663	  1.27422	 16.61871	 -1.42529	 -0.91695	 19.56258	711.38397	 24.70	
 18.713	 52.933	 16.09208	 14.12330	  0.54237	 15.98568	 -0.97970	 -0.89248	 19.57244	711.43799	 24.70	
 18.705	 47.657	 16.08746	 14.94998	 -0.13301	 15.27157	 -0.45016	 -0.86138	 19.58014	711.43402	 24.70	
 18.699	 42.375	 16.06724	 15.68609	 -0.76023	 14.48029	  0.12528	 -0.82515	 19.57230	711.52399	 24.70	
 18.698	 37.048	 16.05151	 16.35388	 -1.29310	 13.61019	  0.79906	 -0.76477	 19.56014	711.38702	 24.70	
 18.704	 31.745	 16.04697	 16.96129	 -1.74295	 12.68219	  1.54180	 -0.72011	 19.56867	711.39899	 24.70	
 18.695	 26.463	 16.06087	 17.47567	 -2.10390	 11.73121	  2.32930	 -0.66910	 19.58717	711.45801	 24.70	
 18.706	 21.182	 16.02027	 17.84860	 -2.39334	 10.72592	  3.13969	 -0.62891	 19.55449	711.46002	 24.70	
 18.691	 15.915	 16.02768	 18.16480	 -2.60141	  9.71351	  4.02878	 -0.62079	 19.55993	711.34198	 24.80	
 18.703	 10.559	 16.02070	 18.39277	 -2.76231	  8.69666	  4.96935	 -0.58247	 19.56515	711.40601	 24.70	
 18.709	  5.325	 15.99730	 18.49716	 -2.85483	  7.68143	  5.90979	 -0.57065	 19.54060	711.53003	 24.70	
 18.700	  0.000	 16.03922	 18.56845	 -2.90094	  6.64165	  7.02729	 -0.55780	 19.58928	711.43799	 24.70	
 18.709	 -5.325	 16.02717	 18.49382	 -2.84277	  5.61506	  8.04324	 -0.57182	 19.57685	711.26099	 24.70	
 18.703	-10.559	 16.00953	 18.30990	 -2.72775	  4.64760	  9.04316	 -0.59314	 19.54057	711.42297	 24.70	
 18.691	-15.915	 16.03884	 18.06890	 -2.57160	  3.69639	 10.07226	 -0.61887	 19.57856	711.42102	 24.70	
 18.706	-21.182	 16.02184	 17.70967	 -2.32944	  2.81438	 11.03361	 -0.63749	 19.56499	711.43500	 24.70	
 18.695	-26.463	 16.02535	 17.26233	 -2.01802	  1.97989	 12.02397	 -0.64042	 19.57619	711.41803	 24.70	
 18.704	-31.745	 16.00443	 16.71108	 -1.65105	  1.18182	 12.97507	 -0.65056	 19.56714	711.36499	 24.70	
 18.698	-37.048	 16.00993	 16.07208	 -1.18433	  0.45761	 13.89262	 -0.63853	 19.57291	711.41998	 24.70	
 18.699	-42.375	 16.00635	 15.34279	 -0.64053	 -0.18738	 14.72316	 -0.64533	 19.56446	711.32703	 24.70	
 18.705	-47.657	 16.01174	 14.54601	 -0.02674	 -0.78408	 15.51238	 -0.62535	 19.57051	711.49902	 24.70	
 18.713	-52.933	 15.99660	 13.67438	  0.67230	 -1.31758	 16.20772	 -0.57648	 19.55647	711.49103	 24.70	
 18.700	-58.206	 16.01652	 12.76332	  1.43824	 -1.75642	 16.84030	 -0.54183	 19.57034	711.39203	 24.70	
 18.698	-63.496	 16.02070	 11.80184	  2.25377	 -2.11297	 17.34265	 -0.53026	 19.56670	711.32800	 24.70	
 18.707	-68.835	 16.04703	 10.81517	  3.11210	 -2.41916	 17.78864	 -0.51519	 19.58811	711.41199	 24.70	
 18.690	-74.137	 16.04990	  9.77627	  3.99804	 -2.63307	 18.10057	 -0.52187	 19.56889	711.43402	 24.70	
 18.696	-79.417	 16.05993	  8.73754	  4.90475	 -2.80063	 18.33746	 -0.55129	 19.56505	711.44299	 24.70	
 18.700	-84.691	 16.06182	  7.69712	  5.88539	 -2.89917	 18.48180	 -0.57318	 19.56461	711.28900	 24.70	
 18.700	-90.000	 16.05133	  6.66122	  6.90734	 -2.93247	 18.51155	 -0.58249	 19.54690	711.34497	 24.70	
 18.700	-95.309	 16.08462	  5.66549	  7.96733	 -2.88454	 18.49113	 -0.61664	 19.56375	711.31299	 24.70	
 18.696	-100.583	 16.09088	  4.69365	  9.00097	 -2.76031	 18.33445	 -0.66428	 19.55194	711.33600	 24.70	
 18.690	-105.863	 16.12167	  3.76899	  9.99045	 -2.55028	 18.11908	 -0.72721	 19.57670	711.36401	 24.70	
 18.707	-111.165	 16.14127	  2.87489	 11.00682	 -2.29758	 17.79536	 -0.76517	 19.58068	711.39600	 24.70	
 18.698	-116.504	 16.14800	  2.04869	 11.99132	 -1.94702	 17.34596	 -0.79624	 19.56582	711.38202	 24.70	
 18.700	-121.794	 16.16977	  1.27889	 12.94430	 -1.55092	 16.82600	 -0.83097	 19.57866	711.39600	 24.70	
 18.713	-127.067	 16.16179	  0.56863	 13.83008	 -1.07624	 16.18878	 -0.85224	 19.55065	711.42102	 24.70	
 18.705	-132.343	 16.19840	 -0.06169	 14.69538	 -0.51103	 15.50263	 -0.87745	 19.58073	711.40997	 24.70	
 18.699	-137.625	 16.20690	 -0.61775	 15.46179	  0.12337	 14.71283	 -0.90559	 19.56468	711.32800	 24.70	
 18.698	-142.952	 16.21586	 -1.11821	 16.16048	  0.79456	 13.87807	 -0.92367	 19.56164	711.33099	 24.70	
 18.704	-148.255	 16.22944	 -1.55311	 16.78609	  1.54774	 12.98651	 -0.93949	 19.58105	711.42102	 24.70	
 18.695	-153.537	 16.25551	 -1.90737	 17.32199	  2.36883	 12.03869	 -0.93046	 19.57598	711.37299	 24.70	
 18.706	-158.818	 16.28175	 -2.21148	 17.77561	  3.23091	 11.07290	 -0.92083	 19.61298	711.44098	 24.70	
 18.691	-164.085	 16.25464	 -2.41727	 18.06389	  4.12631	 10.06392	 -0.89551	 19.56742	711.33301	 24.70	
 18.703	-169.441	 16.26251	 -2.57706	 18.31464	  5.10566	  9.02702	 -0.87845	 19.58445	711.35101	 24.70	
 18.709	-174.675	 16.24563	 -2.65982	 18.43509	  6.07563	  8.00959	 -0.86379	 19.56193	711.44598	 24.70	
 18.700	180.000	 16.25042	 -2.67100	 18.46366	  7.08549	  7.00788	 -0.86443	 19.56336	711.43799	 24.80	
 20.400	180.000	 15.57422	 -3.72798	 18.84495	  6.55612	  6.45475	 -0.83237	 19.56232	711.33398	 24.70	
 20.401	-175.153	 15.57805	 -3.72729	 18.82341	  5.57804	  7.43581	 -0.82121	 19.57402	711.33698	 24.70	
 20.407	-170.264	 15.55525	 -3.65421	 18.69806	  4.58481	  8.42103	 -0.80543	 19.55990	711.41498	 24.70	
 20.410	-165.423	 15.57757	 -3.52195	 18.51051	  3.64217	  9.45487	 -0.81446	 19.58320	711.48199	 24.70	
 20.392	-160.496	 15.55541	 -3.33828	 18.17463	  2.74382	 10.43955	 -0.82293	 19.54698	711.41199	 24.70	
 20.401	-155.705	 15.57000	 -3.10322	 17.82843	  1.89941	 11.42740	 -0.84326	 19.57911	711.33099	 24.70	
 20.405	-150.835	 15.52920	 -2.79238	 17.31871	  1.07028	 12.38157	 -0.88651	 19.54998	711.36700	 24.70	
 20.397	-145.903	 15.53380	 -2.39851	 16.75128	  0.33090	 13.30641	 -0.90964	 19.55692	711.42102	 24.70	
 20.392	-141.062	 15.53097	 -1.96669	 16.11846	 -0.37255	 14.18048	 -0.91520	 19.56839	711.39203	 24.70	
 20.396	-136.227	 15.50679	 -1.46849	 15.38683	 -1.02363	 14.99220	 -0.91811	 19.55652	711.41302	 24.70	
 20.408	-131.372	 15.48907	 -0.92507	 14.60476	 -1.61954	 15.75671	 -0.89898	 19.56170	711.43402	 24.70	
 20.410	-126.511	 15.47918	 -0.30543	 13.76171	 -2.13182	 16.44218	 -0.86791	 19.55927	711.39502	 24.70	
 20.400	-121.604	 15.47253	  0.39420	 12.85726	 -2.57219	 17.05475	 -0.82428	 19.56955	711.39899	 24.70	
 20.403	-116.741	 15.45212	  1.13651	 11.90728	 -2.97708	 17.58567	 -0.77637	 19.56332	711.36102	 24.70	
 20.413	-111.900	 15.41107	  1.91418	 10.91853	 -3.31182	 18.00538	 -0.71298	 19.55000	711.32501	 24.80	
 20.398	-107.004	 15.40696	  2.77633	  9.91580	 -3.57733	 18.37017	 -0.66264	 19.55984	711.31897	 24.70	
 20.394	-102.132	 15.37143	  3.67921	  8.93401	 -3.78664	 18.60508	 -0.61233	 19.54183	711.22699	 24.80	
 20.403	-97.332	 15.35467	  4.59315	  7.90840	 -3.93431	 18.77813	 -0.56524	 19.54674	711.35101	 24.70	
 20.392	-92.440	 15.35543	  5.58321	  6.86728	 -3.99134	 18.86908	 -0.53681	 19.56160	711.39801	 24.70	
 20.392	-87.560	 15.35923	  6.59198	  5.85766	 -4.01265	 18.89108	 -0.51669	 19.57536	711.39600	 24.80	
 20.403	-82.668	 15.32433	  7.60059	  4.86282	 -3.97122	 18.79727	 -0.51883	 19.56227	711.28003	 24.80	
 20.394	-77.868	 15.31037	  8.61006	  3.94465	 -3.86078	 18.61986	 -0.51284	 19.54957	711.33698	 24.70	
 20.398	-72.996	 15.31135	  9.64898	  3.05709	 -3.68822	 18.38646	 -0.49319	 19.56668	711.24298	 24.80	
 20.413	-68.100	 15.29434	 10.66224	  2.17056	 -3.45757	 18.03436	 -0.49516	 19.55448	711.37598	 24.70	
 20.403	-63.259	 15.28076	 11.64456	  1.32099	 -3.15882	 17.59460	 -0.49548	 19.54498	711.26898	 24.80	
 20.400	-58.396	 15.31390	 12.62590	  0.53551	 -2.80030	 17.10578	 -0.52172	 19.57631	711.32300	 24.70	
 20.410	-53.489	 15.29263	 13.54885	 -0.20874	 -2.39223	 16.48486	 -0.55970	 19.56480	711.16101	 24.80	
 20.408	-48.628	 15.28414	 14.41968	 -0.87301	 -1.90818	 15.80934	 -0.56920	 19.57401	711.33600	 24.80	
 20.396	-43.773	 15.27442	 15.21054	 -1.44212	 -1.33615	 15.03199	 -0.58361	 19.54456	711.35101	 24.80	
 20.392	-38.938	 15.29306	 15.98057	 -1.96977	 -0.71966	 14.22428	 -0.58654	 19.56937	711.41498	 24.80	
 20.397	-34.097	 15.27658	 16.62965	 -2.40989	 -0.06252	 13.33871	 -0.58144	 19.54905	711.27100	 24.80	
 20.405	-29.165	 15.30527	 17.25760	 -2.77909	  0.67807	 12.42345	 -0.57698	 19.57589	711.20599	 24.80	
 20.401	-24.295	 15.29923	 17.74213	 -3.09297	  1.47250	 11.44743	 -0.57329	 19.55882	711.25500	 24.70	
 20.392	-19.504	 15.30607	 18.13605	 -3.33336	  2.30177	 10.46478	 -0.56596	 19.53979	711.22400	 24.80	
 20.410	-14.577	 15.30135	 18.46272	 -3.56025	  3.17947	  9.50742	 -0.53512	 19.54778	711.29602	 24.80	
 20.407	 -9.736	 15.31094	 18.71656	 -3.67671	  4.11829	  8.49577	 -0.52111	 19.55660	711.31000	 24.70	
 20.401	 -4.847	 15.31490	 18.85497	 -3.78341	  5.08649	  7.44503	 -0.52418	 19.55864	711.22601	 24.80	
 20.400	  0.000	 15.33666	 18.92984	 -3.81366	  6.08567	  6.41494	 -0.55295	 19.57990	711.34802	 24.80	
 20.401	  4.847	 15.29502	 18.86965	 -3.79441	  7.10502	  5.39460	 -0.51717	 19.54416	711.20203	 24.80	
 20.407	  9.736	 15.29767	 18.77373	 -3.71590	  8.11894	  4.45250	 -0.51887	 19.55921	711.26300	 24.70	
 20.410	 14.577	 15.31040	 18.58749	 -3.59358	  9.12558	  3.54030	 -0.54592	 19.55992	711.22400	 24.80	
 20.392	 19.504	 15.32096	 18.30427	 -3.42036	 10.14293	  2.64934	 -0.54410	 19.55929	711.20203	 24.70	
 20.401	 24.295	 15.32339	 17.94662	 -3.20441	 11.11385	  1.83410	 -0.58045	 19.56233	711.27802	 24.80	
 20.405	 29.165	 15.31637	 17.47625	 -2.91972	 12.08429	  1.04347	 -0.61983	 19.55127	711.25702	 24.70	
 20.397	 34.097	 15.32063	 16.92620	 -2.55531	 13.04400	  0.28415	 -0.67681	 19.55772	711.19800	 24.70	
 20.392	 38.938	 15.34218	 16.31082	 -2.10211	 13.93687	 -0.36968	 -0.74806	 19.55811	711.21802	 24.80	
 20.396	 43.773	 15.35260	 15.62160	 -1.58333	 14.75953	 -0.95541	 -0.82755	 19.54667	711.29199	 24.70	
 20.408	 48.628	 15.33436	 14.84854	 -1.02732	 15.52297	 -1.50504	 -0.88053	 19.53048	711.28497	 24.70	
 20.410	 53.489	 15.37147	 14.05091	 -0.38717	 16.25546	 -1.97446	 -0.91921	 19.55920	711.29401	 24.70	
 20.400	 58.396	 15.39190	 13.17054	  0.31647	 16.89717	 -2.40214	 -0.93650	 19.56317	711.17102	 24.80	
 20.403	 63.259	 15.40588	 12.24003	  1.09510	 17.42877	 -2.75096	 -0.96097	 19.55733	711.33398	 24.80	
 20.413	 68.100	 15.41642	 11.29398	  1.91430	 17.88314	 -3.05333	 -0.96502	 19.55191	711.28198	 24.70	
 20.398	 72.996	 15.44015	 10.30499	  2.76277	 18.26463	 -3.27252	 -0.95536	 19.55291	711.20599	 24.70	
 20.394	 77.868	 15.46271	  9.29471	  3.65830	 18.55697	 -3.45257	 -0.92584	 19.55068	711.43799	 24.70	
 20.403	 82.668	 15.47615	  8.29325	  4.58207	 18.75492	 -3.57534	 -0.89519	 19.55410	711.46802	 24.70	
 20.392	 87.560	 15.49967	  7.28807	  5.57676	 18.85795	 -3.61788	 -0.84648	 19.55669	711.43701	 24.80	
 20.392	 92.440	 15.51759	  6.28844	  6.58400	 18.88602	 -3.60731	 -0.78834	 19.56181	711.30200	 24.80	
 20.403	 97.332	 15.51003	  5.29488	  7.59009	 18.81314	 -3.53882	 -0.76702	 19.54330	711.24298	 24.70	
 20.394	102.132	 15.52217	  4.35719	  8.59770	 18.65954	 -3.42972	 -0.76873	 19.54589	711.33698	 24.70	
 20.398	107.004	 15.54973	  3.43889	  9.63269	 18.43505	 -3.27086	 -0.78791	 19.55834	711.31598	 24.80	
 20.413	111.900	 15.55807	  2.55859	 10.65999	 18.10515	 -3.05131	 -0.79712	 19.55811	711.11401	 24.80	
 20.403	116.741	 15.57595	  1.73035	 11.64811	 17.69756	 -2.75795	 -0.84992	 19.56633	711.08899	 24.80	
 20.400	121.604	 15.57427	  0.94440	 12.60434	 17.19559	 -2.39176	 -0.88277	 19.56326	711.09198	 24.80	
 20.410	126.511	 15.55564	  0.21841	 13.51484	 16.58533	 -1.95610	 -0.93452	 19.54436	711.32703	 24.80	
 20.408	131.372	 15.57845	 -0.44613	 14.40014	 15.92550	 -1.45991	 -0.97575	 19.55805	711.40302	 24.80	
 20.396	136.227	 15.57421	 -1.04407	 15.19156	 15.17187	 -0.89349	 -0.98551	 19.55093	711.29199	 24.80	
 20.392	141.062	 15.59266	 -1.59177	 15.93679	 14.38186	 -0.28590	 -0.99827	 19.55757	711.32800	 24.80	
 20.397	145.903	 15.57134	 -2.08250	 16.58108	 13.50771	  0.37281	 -0.99128	 19.54579	711.22601	 24.80	
 20.405	150.835	 15.57409	 -2.50755	 17.17552	 12.57285	  1.11695	 -0.97279	 19.54385	711.37903	 24.70	
 20.401	155.705	 15.57399	 -2.87212	 17.67831	 11.60505	  1.91047	 -0.95234	 19.54790	711.34998	 24.80	
 20.392	160.496	 15.59140	 -3.16753	 18.10683	 10.66060	  2.72150	 -0.94073	 19.58061	711.27399	 24.80	
 20.410	165.423	 15.57323	 -3.40007	 18.42822	  9.61913	  3.61157	 -0.90958	 19.56793	711.38397	 24.80	
 20.407	170.264	 15.56559	 -3.56482	 18.63964	  8.59931	  4.52355	 -0.88232	 19.54813	711.38702	 24.70	
 20.401	175.153	 15.54226	 -3.67550	 18.75518	  7.56796	  5.45737	 -0.85043	 19.52999	711.27399	 24.80	
  0.141	 45.000	 19.56882	 10.13777	  9.92943	 10.01709	 10.02809	  0.19191	 19.53487	711.37598	 24.70	
  4.001	128.691	 19.50360	  8.61119	 11.24703	 11.77486	  8.18973	  0.12981	 19.53228	711.35797	 24.80	
  4.002	 76.995	 19.53737	 10.54155	  9.30760	 12.24699	  7.79206	  0.10732	 19.56524	711.57001	 24.80	
  4.002	 25.892	 19.51277	 12.17830	  7.76969	 10.87732	  8.89292	  0.12006	 19.55044	711.40399	 24.70	
  4.002	-25.892	 19.53415	 12.14396	  7.81365	  8.83225	 10.94748	  0.11065	 19.56926	711.46600	 24.70	
  4.002	-76.995	 19.51770	 10.43359	  9.37105	  7.62243	 12.32466	  0.09369	 19.55562	711.36700	 24.70	
  4.001	-128.691	 19.54746	  8.55752	 11.31340	  8.09307	 11.88105	  0.11027	 19.57894	711.32800	 24.80	
  4.000	180.000	 19.51838	  7.75452	 12.22456	  9.83624	  9.98152	  0.12726	 19.55014	711.33600	 24.70	
  8.000	180.000	 19.14405	  4.97005	 14.38645	  9.43360	  9.55875	 -0.10711	 19.56425	711.37598	 24.80	
  7.991	-152.370	 19.11516	  5.38963	 13.81366	  7.28648	 11.79622	 -0.17134	 19.54260	711.33698	 24.80	
  7.997	-124.550	 19.11452	  6.85477	 12.17042	  5.56023	 13.66495	 -0.21611	 19.54586	711.43799	 24.70	
  8.006	-96.837	 19.10665	  8.91881	 10.01053	  4.76599	 14.52162	 -0.28065	 19.55198	711.38397	 24.70	
  7.988	-69.228	 19.09069	 11.11180	  7.78600	  4.97769	 14.19753	 -0.27961	 19.55237	711.35303	 24.70	
  7.997	-41.563	 19.06305	 13.15444	  5.88112	  6.17679	 12.76453	 -0.22451	 19.54337	711.37299	 24.80	
  8.008	-13.821	 19.08318	 14.35827	  4.93929	  8.18336	 10.57799	 -0.16083	 19.54576	711.44397	 24.80	
  8.008	 13.821	 19.08109	 14.41933	  4.88380	 10.42337	  8.30540	 -0.16028	 19.54375	711.32501	 24.70	
  7.997	 41.563	 19.05755	 13.29387	  5.78784	 12.60430	  6.28152	 -0.16376	 19.52342	711.33398	 24.80	
  7.988	 69.228	 19.08932	 11.32379	  7.63367	 14.08434	  5.18944	 -0.20565	 19.53700	711.32501	 24.70	
  8.006	 96.837	 19.10687	  9.09998	  9.80365	 14.42484	  5.01764	 -0.23119	 19.53243	711.27698	 24.80	
  7.997	124.550	 19.11737	  7.01607	 12.03795	 13.59746	  5.70679	 -0.19257	 19.54397	711.34497	 24.80	
  7.991	152.370	 19.13645	  5.50289	 13.75788	 11.76219	  7.39193	 -0.14142	 19.56449	711.35303	 24.70	
 12.009	161.059	 18.38483	  2.32485	 15.82696	 11.23149	  6.58364	 -0.47469	 19.58334	711.38397	 24.80	
 12.013	142.081	 18.34068	  3.38023	 14.50431	 13.42355	  4.48969	 -0.50576	 19.54367	711.28497	 24.80	
 12.006	123.113	 18.35063	  5.08266	 12.59000	 15.11873	  3.02659	 -0.61170	 19.55009	711.34998	 24.80	
 12.007	104.200	 18.34655	  7.26779	 10.26525	 16.11055	  2.20870	 -0.70828	 19.55717	711.37299	 24.80	
 11.989	 85.301	 18.33243	  9.55990	  7.95109	 16.25343	  2.02455	 -0.65280	 19.55337	711.39203	 24.80	
 12.013	 66.294	 18.28736	 11.91604	  5.67244	 15.55678	  2.47989	 -0.56443	 19.54030	711.42603	 24.80	
 12.012	 47.388	 18.24884	 13.99550	  3.87110	 14.08648	  3.59980	 -0.50844	 19.53314	711.41498	 24.80	
 11.990	 28.440	 18.25453	 15.50758	  2.51129	 12.06330	  5.39573	 -0.53341	 19.55831	711.38702	 24.80	
 11.991	  9.464	 18.25051	 16.29280	  1.86715	  9.68464	  7.57599	 -0.49733	 19.55220	711.44397	 24.80	
 11.991	 -9.464	 18.25354	 16.24878	  1.90052	  7.38275	  9.92693	 -0.48738	 19.55520	711.41998	 24.80	
 11.990	-28.440	 18.23870	 15.35243	  2.57188	  5.10639	 12.25837	 -0.53689	 19.54892	711.41199	 24.80	
 12.012	-47.388	 18.24904	 13.75945	  4.00228	  3.32983	 14.28597	 -0.56642	 19.56756	711.24902	 24.80	
 12.013	-66.294	 18.22327	 11.57057	  5.82371	  2.18999	 15.68285	 -0.63454	 19.53609	711.40698	 24.80	
 11.989	-85.301	 18.26665	  9.25812	  8.17140	  1.75751	 16.31032	 -0.66543	 19.53788	711.38397	 24.80	
 12.007	-104.200	 18.27898	  6.93406	 10.46592	  1.95657	 16.12977	 -0.61229	 19.53325	711.28900	 24.80	
 12.006	-123.113	 18.32393	  4.82400	 12.77224	  2.82053	 15.15091	 -0.51820	 19.56221	711.32501	 24.80	
 12.013	-142.081	 18.29471	  3.26768	 14.61202	  4.36781	 13.39532	 -0.50850	 19.51878	711.30499	 24.80	
 12.009	-161.059	 18.34921	  2.21142	 15.84972	  6.50177	 11.20780	 -0.55237	 19.55205	711.29199	 24.80	
 16.000	180.000	 17.19710	 -0.87960	 17.68310	  7.87020	  7.82266	 -0.77729	 19.53964	711.31000	 24.80	
 15.990	-165.604	 17.17572	 -0.68184	 17.37470	  5.48416	 10.18964	 -0.86732	 19.52213	711.37903	 24.80	
 16.002	-151.165	 17.18929	 -0.01725	 16.48879	  3.35866	 12.53644	 -0.86870	 19.55269	711.25800	 24.80	
 16.002	-136.836	 17.15081	  1.09067	 14.97479	  1.57274	 14.58793	 -0.77246	 19.53834	711.45099	 24.80	
 15.995	-122.439	 17.15910	  2.65693	 13.02437	  0.22976	 16.24540	 -0.75280	 19.56161	711.19299	 24.80	
 15.993	-107.966	 17.10188	  4.63308	 10.69906	 -0.66162	 17.31767	 -0.78747	 19.54703	711.43402	 24.80	
 16.005	-93.629	 17.04568	  6.92653	  8.30826	 -1.15107	 17.77805	 -0.74159	 19.53657	711.46899	 24.80	
 15.992	-79.234	 17.00417	  9.29269	  5.88196	 -1.03165	 17.58757	 -0.68844	 19.51250	711.46899	 24.80	
 16.009	-64.774	 17.01863	 11.73776	  3.75206	 -0.45415	 16.84598	 -0.66267	 19.55639	711.33301	 24.80	
 15.997	-50.364	 17.02390	 13.94767	  1.95569	  0.61188	 15.46856	 -0.66105	 19.55311	711.46002	 24.80	
 15.997	-36.045	 16.99491	 15.71860	  0.52122	  2.09665	 13.57237	 -0.67984	 19.52542	711.27399	 24.80	
 16.000	-21.597	 17.00459	 16.99561	 -0.50528	  4.00646	 11.33690	 -0.70000	 19.52261	711.30200	 24.80	
 16.003	 -7.169	 17.02911	 17.70355	 -1.14066	  6.26442	  9.02491	 -0.64300	 19.55634	711.28601	 24.80	
 16.003	  7.169	 17.02773	 17.74852	 -1.11830	  8.68942	  6.61053	 -0.65249	 19.55741	711.39801	 24.80	
 16.000	 21.597	 17.02880	 17.16384	 -0.51623	 11.05474	  4.30996	 -0.71805	 19.54784	711.42999	 24.80	
 15.997	 36.045	 17.04332	 15.99339	  0.44512	 13.31309	  2.44631	 -0.75037	 19.54898	711.22302	 24.80	
 15.997	 50.364	 17.07161	 14.30286	  1.74623	 15.24968	  0.93009	 -0.77919	 19.56452	711.32300	 24.80	
 16.009	 64.774	 17.10386	 12.19638	  3.51767	 16.69095	 -0.16537	 -0.86026	 19.55173	711.32501	 24.80	
 15.992	 79.234	 17.14869	  9.84463	  5.64517	 17.55592	 -0.77370	 -0.93386	 19.57351	711.20203	 24.80	
 16.005	 93.629	 17.14143	  7.43731	  8.08916	 17.73998	 -0.89345	 -0.97795	 19.53806	711.30798	 24.80	
 15.993	107.966	 17.20552	  5.14255	 10.47133	 17.33282	 -0.42506	 -0.97531	 19.55963	711.30298	 24.80	
 15.995	122.439	 17.23444	  3.11149	 12.81207	 16.29692	  0.42214	 -0.93831	 19.57338	711.24701	 24.80	
 16.002	136.836	 17.18234	  1.43718	 14.78597	 14.65909	  1.69795	 -0.84610	 19.52415	711.31702	 24.80	
 16.002	151.165	 17.18807	  0.21038	 16.34640	 12.63205	  3.39820	 -0.80907	 19.52777	711.14502	 24.80	
 15.990	165.604	 17.20700	 -0.53783	 17.32644	 10.28104	  5.50950	 -0.78786	 19.54070	711.32703	 24.80	
 20.003	168.362	 15.72627	 -3.25796	 18.47967	  9.07720	  4.33438	 -0.89926	 19.54804	711.43500	 24.80	
 20.008	156.764	 15.73552	 -2.70652	 17.70901	 11.44929	  2.27574	 -0.95345	 19.54827	711.35101	 24.80	
 20.000	145.147	 15.73002	 -1.77689	 16.43851	 13.65076	  0.48037	 -0.98871	 19.54232	711.29199	 24.80	
 19.995	133.545	 15.73748	 -0.49357	 14.74299	 15.55501	 -0.98085	 -0.98667	 19.53936	711.34998	 24.80	
 20.009	121.926	 15.71467	  1.08948	 12.67511	 17.08292	 -2.13196	 -0.90835	 19.54019	711.32300	 24.80	
 20.005	110.327	 15.69657	  3.00537	 10.37592	 18.11564	 -2.87934	 -0.81084	 19.51989	711.21802	 24.80	
 19.989	 98.733	 15.69660	  5.17740	  8.01493	 18.70555	 -3.28100	 -0.78473	 19.55766	711.26099	 24.80	
 19.999	 87.075	 15.67664	  7.50372	  5.62777	 18.77542	 -3.36736	 -0.85857	 19.56570	711.44598	 24.80	
 19.992	 75.457	 15.64438	  9.86452	  3.40983	 18.34132	 -3.09685	 -0.95611	 19.54812	711.31299	 24.70	
 20.009	 63.844	 15.57114	 12.15044	  1.44375	 17.40420	 -2.55343	 -0.96135	 19.53305	711.16199	 24.70	
 19.989	 52.269	 15.56534	 14.26090	 -0.32086	 16.05023	 -1.64142	 -0.91239	 19.57026	711.35602	 24.80	
 19.999	 40.602	 15.49403	 16.01835	 -1.70059	 14.20514	 -0.37244	 -0.78070	 19.52829	711.29602	 24.80	
 20.004	 29.051	 15.49029	 17.42987	 -2.68374	 12.09527	  1.27349	 -0.63010	 19.54841	711.42297	 24.80	
 20.005	 17.433	 15.49564	 18.36667	 -3.27790	  9.79411	  3.18612	 -0.55486	 19.57542	711.29401	 24.80	
 20.006	  5.780	 15.46150	 18.77937	 -3.55872	  7.41366	  5.35848	 -0.52325	 19.54647	711.39203	 24.80	
 20.006	 -5.780	 15.49113	 18.77025	 -3.55856	  5.05476	  7.76370	 -0.53619	 19.57254	711.22998	 24.80	
 20.005	-17.433	 15.47081	 18.22404	 -3.24317	  2.83667	 10.12670	 -0.56702	 19.55238	711.26501	 24.70	
 20.004	-29.051	 15.46687	 17.20052	 -2.58894	  0.90151	 12.42269	 -0.61262	 19.56113	711.24597	 24.70	
 19.999	-40.602	 15.43554	 15.67638	 -1.57672	 -0.71243	 14.46744	 -0.59507	 19.52890	711.31897	 24.80	
 19.989	-52.269	 15.45147	 13.76392	 -0.15201	 -2.02032	 16.25571	 -0.56899	 19.53871	711.20898	 24.80	
 20.009	-63.844	 15.46538	 11.59034	  1.63277	 -2.93703	 17.58572	 -0.49655	 19.54942	711.35303	 24.80	
 19.992	-75.457	 15.49034	  9.22882	  3.66759	 -3.51281	 18.41581	 -0.49708	 19.54367	711.27100	 24.80	
 19.999	-87.075	 15.52959	  6.83576	  5.89259	 -3.73985	 18.78245	 -0.51899	 19.55711	711.32501	 24.70	
 19.989	-98.733	 15.55810	  4.50822	  8.32692	 -3.63049	 18.67782	 -0.56879	 19.56376	711.28802	 24.70	
 20.005	-110.327	 15.57693	  2.39384	 10.64610	 -3.14685	 18.05425	 -0.72745	 19.54190	711.28802	 24.80	
 20.009	-121.926	 15.61945	  0.56984	 12.90551	 -2.31021	 16.95677	 -0.81602	 19.54701	711.38202	 24.70	
 19.995	-133.545	 15.67803	 -0.93884	 14.94962	 -1.13175	 15.41032	 -0.91790	 19.56323	711.31000	 24.70	
 20.000	-145.147	 15.69871	 -2.08867	 16.60296	  0.41419	 13.47408	 -0.91880	 19.55801	711.31897	 24.70	
 20.008	-156.764	 15.70654	 -2.90854	 17.81092	  2.26384	 11.24957	 -0.86251	 19.53692	711.35797	 24.70	
 20.003	-168.362	 15.70105	 -3.34425	 18.50995	  4.37419	  8.91645	 -0.83262	 19.52466	711.23499	 24.70	
 20.000	180.000	 15.71888	 -3.49086	 18.74123	  6.68346	  6.56916	 -0.84012	 19.55074	711.19800	 24.70	
