FileType=PCF
NHL=14
Date=08/26/17	12:30:32
Facility=APL
Serial=16328-8
Customer=NASA
NP=6
Mach=0.150000
Calibration=1:1
CalPts=490
TstPts=95
PortNumbering=AP Standard
Units=Torr C m/s kg/m^3 deg mm 
Theta[deg]	Phi[deg]	P1[Torr]	P2[Torr]	P3[Torr]	P4[Torr]	P5[Torr]	P6[Torr]	Pt[Torr]	Ps[Abs,Torr]	Ts[C]	
  0.000	  0.000	 10.97976	  5.65942	  5.57090	  5.60240	  5.70612	  0.09383	 10.96865	711.19897	 24.80	
  1.691	128.401	 11.00035	  5.32369	  5.91431	  6.05279	  5.27274	  0.08926	 10.99288	711.18402	 24.80	
  1.692	 77.194	 10.98056	  5.78803	  5.42559	  6.14046	  5.15506	  0.09131	 10.97228	711.21997	 24.80	
  1.699	 26.182	 10.98254	  6.16173	  5.05753	  5.83967	  5.43901	  0.08994	 10.97061	711.22400	 24.80	
  1.699	-26.182	 10.98532	  6.14850	  5.06476	  5.33947	  5.93823	  0.08254	 10.97254	711.27698	 24.80	
  1.692	-77.194	 10.98839	  5.76256	  5.44649	  5.05346	  6.24290	  0.08230	 10.97606	711.19000	 24.80	
  1.691	-128.401	 11.00256	  5.30243	  5.92858	  5.16803	  6.15233	  0.08737	 10.99026	711.20599	 24.80	
  1.700	180.000	 10.97719	  5.08801	  6.12690	  5.59431	  5.70248	  0.08778	 10.96816	711.21600	 24.80	
  3.400	180.000	 10.98623	  4.52973	  6.66787	  5.57278	  5.68083	  0.06063	 10.99076	711.28497	 24.80	
  3.388	-152.325	 10.96953	  4.63664	  6.53588	  5.05793	  6.17949	  0.05739	 10.97254	711.31702	 24.80	
  3.397	-124.529	 10.96663	  4.95846	  6.17969	  4.66502	  6.58907	  0.06088	 10.97250	711.17102	 24.80	
  3.399	-96.763	 10.97105	  5.44259	  5.65131	  4.47201	  6.76902	  0.02470	 10.97982	711.27100	 24.80	
  3.394	-69.283	 10.99522	  5.98808	  5.14631	  4.53800	  6.71640	  0.03147	 11.00413	711.21503	 24.80	
  3.400	-41.398	 10.97913	  6.44940	  4.69615	  4.82663	  6.37166	  0.03518	 10.98932	711.25702	 24.80	
  3.401	-14.021	 10.98028	  6.70540	  4.47054	  5.26382	  5.91561	  0.04509	 10.98643	711.09100	 24.80	
  3.401	 14.021	 10.96973	  6.72648	  4.45867	  5.81094	  5.36644	  0.07336	 10.97947	711.14502	 24.80	
  3.400	 41.398	 10.96677	  6.47704	  4.68892	  6.29707	  4.91418	  0.06644	 10.97673	711.21600	 24.80	
  3.394	 69.283	 10.98245	  6.04394	  5.11752	  6.62591	  4.64789	  0.06708	 10.99605	711.13702	 24.80	
  3.399	 96.763	 10.97551	  5.51195	  5.63121	  6.70020	  4.58431	  0.06502	 10.98337	711.16699	 24.80	
  3.397	124.529	 10.98479	  5.02017	  6.15457	  6.51995	  4.76943	  0.07128	 10.99199	711.18402	 24.80	
  3.388	152.325	 10.99231	  4.67097	  6.53652	  6.11327	  5.16330	  0.07566	 10.99714	711.26099	 24.80	
  5.099	161.165	 10.91464	  3.99476	  7.09249	  6.06080	  5.03293	  0.02751	 10.96975	711.08301	 24.80	
  5.109	142.013	 10.92738	  4.26098	  6.80822	  6.58068	  4.56432	  0.01826	 10.98470	711.24103	 24.80	
  5.095	123.033	 10.93460	  4.66693	  6.36826	  6.96320	  4.22187	  0.01695	 10.98783	711.23499	 24.80	
  5.105	104.191	 10.91254	  5.16167	  5.82784	  7.18400	  3.99911	  0.00798	 10.97033	711.35797	 24.80	
  5.093	 85.207	 10.93595	  5.72581	  5.28076	  7.23133	  3.96627	  0.00629	 10.99705	711.18402	 24.80	
  5.104	 66.290	 10.90569	  6.25794	  4.73693	  7.05991	  4.07302	  0.00992	 10.96530	711.02698	 24.80	
  5.094	 47.331	 10.92126	  6.73909	  4.30162	  6.73659	  4.35689	  0.00741	 10.98707	711.18201	 24.80	
  5.089	 28.397	 10.92101	  7.08285	  3.98529	  6.27801	  4.76233	  0.01180	 10.98386	711.25500	 24.80	
  5.096	  9.576	 10.90698	  7.26061	  3.81374	  5.72193	  5.26980	  0.02151	 10.96780	711.26501	 24.80	
  5.096	 -9.576	 10.91483	  7.24679	  3.82101	  5.15786	  5.83637	  0.01519	 10.97781	711.28900	 24.80	
  5.089	-28.397	 10.91577	  7.04475	  3.99310	  4.65346	  6.36697	 -0.00094	 10.98071	711.37201	 24.80	
  5.094	-47.331	 10.91730	  6.67670	  4.31254	  4.23512	  6.83144	 -0.01536	 10.98056	711.32001	 24.80	
  5.104	-66.290	 10.93645	  6.19086	  4.76796	  3.94716	  7.18009	 -0.02885	 11.00253	711.27698	 24.80	
  5.093	-85.207	 10.90862	  5.62044	  5.29398	  3.82293	  7.31293	 -0.03155	 10.96911	711.19800	 24.80	
  5.105	-104.191	 10.90882	  5.05497	  5.86691	  3.87077	  7.27110	 -0.02226	 10.96969	711.19800	 24.80	
  5.095	-123.033	 10.92265	  4.57141	  6.40342	  4.09682	  7.04221	 -0.01471	 10.98122	711.21802	 24.80	
  5.109	-142.013	 10.94456	  4.20106	  6.85100	  4.47017	  6.65918	  0.00471	 11.00062	711.17499	 24.80	
  5.099	-161.165	 10.93240	  3.96088	  7.12592	  4.95622	  6.13573	  0.01715	 10.98776	711.26599	 24.80	
  5.100	180.000	 10.93409	  3.90260	  7.20844	  5.49733	  5.59208	  0.02572	 10.98963	711.16699	 24.80	
  6.800	180.000	 10.83170	  3.23787	  7.72703	  5.40137	  5.48074	 -0.02496	 10.98140	711.21802	 24.80	
  6.796	-166.229	 10.82978	  3.27986	  7.66429	  4.85510	  6.02750	 -0.04063	 10.97761	711.23999	 24.80	
  6.808	-152.311	 10.83858	  3.43972	  7.47095	  4.34960	  6.56248	 -0.05173	 10.98671	711.17902	 24.80	
  6.795	-138.383	 10.83744	  3.72302	  7.13158	  3.90098	  7.04657	 -0.06190	 10.98558	711.19202	 24.80	
  6.792	-124.591	 10.82288	  4.09588	  6.68673	  3.54406	  7.42187	 -0.07557	 10.97624	711.20697	 24.80	
  6.787	-110.754	 10.84416	  4.56980	  6.19113	  3.31354	  7.70306	 -0.08906	 10.99808	711.23999	 24.80	
  6.800	-96.985	 10.85043	  5.08793	  5.64738	  3.18199	  7.84648	 -0.10380	 11.00974	711.16998	 24.80	
  6.800	-83.015	 10.82692	  5.64351	  5.06848	  3.16801	  7.82634	 -0.11671	 10.98776	711.13300	 24.80	
  6.787	-69.246	 10.83241	  6.19717	  4.54544	  3.28060	  7.68767	 -0.11203	 10.99818	711.26300	 24.80	
  6.792	-55.409	 10.82835	  6.71218	  4.06898	  3.50539	  7.41188	 -0.09866	 10.99288	711.15302	 24.80	
  6.795	-41.617	 10.83143	  7.15966	  3.67353	  3.84379	  7.02198	 -0.08262	 11.00132	711.25800	 24.80	
  6.808	-27.689	 10.81097	  7.49726	  3.36411	  4.27086	  6.51877	 -0.06952	 10.97696	711.18402	 24.80	
  6.796	-13.771	 10.82543	  7.72280	  3.18587	  4.77504	  5.99065	 -0.05444	 10.98974	711.09198	 24.80	
  6.800	  0.000	 10.82747	  7.80880	  3.11889	  5.31739	  5.43956	 -0.04305	 10.99325	711.01202	 24.80	
  6.796	 13.771	 10.84696	  7.76749	  3.17789	  5.88826	  4.90604	 -0.04428	 11.01255	711.06598	 24.80	
  6.808	 27.689	 10.81879	  7.55318	  3.33699	  6.41340	  4.39438	 -0.04814	 10.98216	711.21198	 24.80	
  6.795	 41.617	 10.82227	  7.22748	  3.63152	  6.89539	  3.97009	 -0.04546	 10.98588	711.17902	 24.80	
  6.792	 55.409	 10.82173	  6.79822	  4.01845	  7.28932	  3.63479	 -0.05632	 10.98308	711.27197	 24.80	
  6.787	 69.246	 10.84738	  6.31192	  4.49755	  7.59220	  3.41554	 -0.06390	 11.00544	711.21600	 24.80	
  6.800	 83.015	 10.83271	  5.76128	  5.01158	  7.73955	  3.29222	 -0.06671	 10.98783	711.22302	 24.80	
  6.800	 96.985	 10.83998	  5.20439	  5.57955	  7.75364	  3.30481	 -0.07226	 10.99325	711.23499	 24.80	
  6.787	110.754	 10.82599	  4.67350	  6.12059	  7.60749	  3.43261	 -0.07089	 10.97558	711.43500	 24.80	
  6.792	124.591	 10.82341	  4.20123	  6.63128	  7.34228	  3.67018	 -0.05581	 10.97335	711.29401	 24.80	
  6.795	138.383	 10.83155	  3.81071	  7.07618	  6.96532	  4.01420	 -0.04448	 10.97868	711.20203	 24.80	
  6.808	152.311	 10.84031	  3.50317	  7.43508	  6.50486	  4.43769	 -0.04346	 10.98844	711.23297	 24.80	
  6.796	166.229	 10.82521	  3.30936	  7.64273	  5.95980	  4.93443	 -0.02872	 10.96871	711.13599	 24.80	
  8.491	168.704	 10.71236	  2.62667	  8.15551	  5.86594	  4.79052	 -0.09906	 10.99016	711.24701	 24.80	
  8.502	157.493	 10.70321	  2.77573	  7.97069	  6.41438	  4.26691	 -0.11232	 10.98217	711.21600	 24.80	
  8.494	146.194	 10.69749	  3.03115	  7.66795	  6.92791	  3.79413	 -0.11740	 10.97638	711.21198	 24.80	
  8.495	135.039	 10.69953	  3.36215	  7.28153	  7.38436	  3.38260	 -0.12554	 10.98143	711.19202	 24.80	
  8.487	123.723	 10.70117	  3.78411	  6.80772	  7.76152	  3.05321	 -0.14855	 10.97863	711.28601	 24.80	
  8.492	112.575	 10.69417	  4.26060	  6.28208	  8.02702	  2.81018	 -0.16771	 10.97641	711.22699	 24.80	
  8.510	101.220	 10.71195	  4.80108	  5.72657	  8.21136	  2.65538	 -0.17666	 10.99396	711.23999	 24.80	
  8.500	 90.000	 10.71376	  5.36458	  5.15498	  8.25699	  2.60505	 -0.16474	 10.99902	711.35303	 24.80	
  8.510	 78.780	 10.69201	  5.92419	  4.58189	  8.17248	  2.63658	 -0.15392	 10.98051	711.32501	 24.80	
  8.492	 67.425	 10.70342	  6.48834	  4.05799	  7.99001	  2.78473	 -0.14889	 10.99808	711.40601	 24.80	
  8.487	 56.277	 10.68098	  6.98082	  3.58016	  7.68670	  3.00774	 -0.13506	 10.98116	711.23297	 24.80	
  8.495	 44.961	 10.67891	  7.44160	  3.16440	  7.29642	  3.33340	 -0.12636	 10.98010	711.22601	 24.80	
  8.494	 33.806	 10.67051	  7.80145	  2.83951	  6.81961	  3.73704	 -0.12637	 10.97886	711.24298	 24.80	
  8.502	 22.507	 10.66674	  8.07593	  2.59858	  6.29158	  4.20107	 -0.13153	 10.97709	711.26300	 24.80	
  8.491	 11.296	 10.66964	  8.23688	  2.46503	  5.73696	  4.72446	 -0.12254	 10.97824	711.10498	 24.80	
  8.500	  0.000	 10.66486	  8.28177	  2.41764	  5.15107	  5.28852	 -0.11995	 10.97558	711.26898	 24.80	
  8.491	-11.296	 10.66816	  8.21160	  2.47695	  4.59490	  5.86185	 -0.12168	 10.97483	711.20898	 24.80	
  8.502	-22.507	 10.68061	  8.03702	  2.63147	  4.07781	  6.42345	 -0.14414	 10.98908	711.25800	 24.80	
  8.494	-33.806	 10.66824	  7.72953	  2.87987	  3.59572	  6.94749	 -0.15846	 10.97753	711.27197	 24.80	
  8.495	-44.961	 10.68310	  7.35252	  3.21553	  3.19350	  7.42591	 -0.16815	 10.99786	711.26501	 24.80	
  8.487	-56.277	 10.67407	  6.87078	  3.63929	  2.88063	  7.79763	 -0.18250	 10.98666	711.34198	 24.80	
  8.492	-67.425	 10.65903	  6.33795	  4.11054	  2.64246	  8.06872	 -0.20108	 10.96780	711.25800	 24.80	
  8.510	-78.780	 10.68777	  5.78345	  4.65576	  2.50091	  8.27667	 -0.21265	 10.99236	711.37500	 24.80	
  8.500	-90.000	 10.68888	  5.20964	  5.22284	  2.46662	  8.33316	 -0.20756	 10.98645	711.23199	 24.80	
  8.510	-101.220	 10.68224	  4.64415	  5.79197	  2.51814	  8.27554	 -0.19076	 10.97866	711.28802	 24.80	
  8.492	-112.575	 10.70417	  4.12805	  6.36578	  2.68919	  8.11230	 -0.16855	 10.99633	711.36798	 24.80	
  8.487	-123.723	 10.69026	  3.66019	  6.87140	  2.93347	  7.81958	 -0.14897	 10.97453	711.35797	 24.80	
  8.495	-135.039	 10.71224	  3.26525	  7.34998	  3.27134	  7.46389	 -0.13386	 10.99785	711.20203	 24.80	
  8.494	-146.194	 10.69883	  2.94919	  7.71457	  3.68821	  6.99273	 -0.13068	 10.98075	711.17603	 24.80	
  8.502	-157.493	 10.70934	  2.72326	  8.00479	  4.18516	  6.47037	 -0.13594	 10.98889	711.17102	 24.80	
  8.491	-168.704	 10.70266	  2.59490	  8.16524	  4.71388	  5.91552	 -0.11481	 10.98220	711.25800	 24.80	
  8.500	180.000	 10.70609	  2.56053	  8.22045	  5.28013	  5.35144	 -0.09432	 10.98190	711.25500	 24.80	
 10.200	180.000	 10.52460	  1.87212	  8.66609	  5.12645	  5.18503	 -0.17731	 10.97308	711.22699	 24.80	
 10.191	-170.497	 10.52697	  1.89358	  8.63254	  4.55440	  5.75769	 -0.19923	 10.97692	711.17499	 24.80	
 10.210	-161.034	 10.53652	  1.99962	  8.50098	  4.01134	  6.32932	 -0.22253	 10.99022	711.23199	 24.80	
 10.194	-151.526	 10.52304	  2.19009	  8.24284	  3.48994	  6.87270	 -0.22147	 10.97636	711.24701	 24.80	
 10.190	-142.105	 10.53603	  2.45945	  7.92632	  3.03884	  7.38349	 -0.20863	 10.99125	711.23199	 24.80	
 10.215	-132.646	 10.52241	  2.78949	  7.51345	  2.63663	  7.81748	 -0.21124	 10.98363	711.13098	 24.80	
 10.203	-123.092	 10.51211	  3.20138	  7.02613	  2.30585	  8.18526	 -0.22329	 10.97524	711.24103	 24.80	
 10.192	-113.678	 10.51296	  3.66977	  6.49993	  2.05233	  8.47761	 -0.24735	 10.98030	711.31897	 24.80	
 10.208	-104.249	 10.51473	  4.18532	  5.94218	  1.86910	  8.68464	 -0.27751	 10.99703	711.31097	 24.80	
 10.210	-94.801	 10.50008	  4.73216	  5.35886	  1.77322	  8.77402	 -0.30442	 10.98208	711.27197	 24.80	
 10.210	-85.199	 10.49985	  5.32034	  4.76911	  1.76162	  8.77523	 -0.31533	 10.98811	711.21503	 24.80	
 10.208	-75.751	 10.48256	  5.89428	  4.20376	  1.83398	  8.66285	 -0.30892	 10.97700	711.19897	 24.80	
 10.192	-66.322	 10.48820	  6.46294	  3.67886	  1.99596	  8.46338	 -0.29355	 10.97870	711.21503	 24.80	
 10.203	-56.908	 10.47656	  6.99491	  3.19421	  2.23261	  8.16068	 -0.27447	 10.97174	711.28198	 24.80	
 10.215	-47.354	 10.48539	  7.49603	  2.76087	  2.54635	  7.78797	 -0.25639	 10.98895	711.22400	 24.80	
 10.190	-37.895	 10.49306	  7.91856	  2.40960	  2.93165	  7.34261	 -0.24502	 10.99298	711.06799	 24.80	
 10.194	-28.474	 10.48786	  8.25339	  2.12162	  3.37150	  6.83395	 -0.23359	 10.98202	711.21600	 24.80	
 10.210	-18.966	 10.48835	  8.51489	  1.90496	  3.87286	  6.27670	 -0.22118	 10.98290	711.24701	 24.80	
 10.191	 -9.503	 10.49265	  8.67562	  1.78140	  4.41605	  5.70638	 -0.20631	 10.98369	711.12201	 24.80	
 10.200	  0.000	 10.48016	  8.73126	  1.72951	  4.97548	  5.12760	 -0.19988	 10.97261	711.20697	 24.80	
 10.191	  9.503	 10.48760	  8.70035	  1.76372	  5.56460	  4.55418	 -0.21471	 10.98212	711.22400	 24.80	
 10.210	 18.966	 10.48063	  8.56230	  1.87312	  6.13188	  4.01311	 -0.22468	 10.97343	711.16101	 24.80	
 10.194	 28.474	 10.49742	  8.33668	  2.08340	  6.69392	  3.52405	 -0.21759	 10.98729	711.19202	 24.80	
 10.190	 37.895	 10.48838	  8.00628	  2.35518	  7.20370	  3.07356	 -0.20872	 10.97356	711.23499	 24.80	
 10.215	 47.354	 10.47896	  7.60645	  2.69194	  7.65670	  2.68541	 -0.21158	 10.96775	711.19800	 24.80	
 10.203	 56.908	 10.48448	  7.13685	  3.11660	  8.03891	  2.37781	 -0.23135	 10.96948	711.15302	 24.80	
 10.192	 66.322	 10.49750	  6.62118	  3.59895	  8.33839	  2.15231	 -0.24432	 10.96934	711.11200	 24.80	
 10.208	 75.751	 10.51694	  6.07704	  4.12433	  8.56581	  1.99324	 -0.25550	 10.98524	711.25098	 24.80	
 10.210	 85.199	 10.51034	  5.50031	  4.67626	  8.67080	  1.92201	 -0.26977	 10.97173	711.22302	 24.80	
 10.210	 94.801	 10.52827	  4.92277	  5.27325	  8.69703	  1.92889	 -0.29068	 10.99014	711.11401	 24.80	
 10.208	104.249	 10.54231	  4.37272	  5.85833	  8.61599	  2.02351	 -0.29065	 10.99775	711.17102	 24.80	
 10.192	113.678	 10.52832	  3.84775	  6.41154	  8.41023	  2.19804	 -0.27985	 10.97695	711.13300	 24.80	
 10.203	123.092	 10.53369	  3.36109	  6.95106	  8.13974	  2.43488	 -0.25143	 10.98058	711.15302	 24.80	
 10.215	132.646	 10.52609	  2.92558	  7.43514	  7.77742	  2.74203	 -0.21988	 10.97988	710.98102	 24.80	
 10.190	142.105	 10.52928	  2.56790	  7.85598	  7.33310	  3.13667	 -0.20581	 10.98249	711.09998	 24.80	
 10.194	151.526	 10.53362	  2.28292	  8.20034	  6.83556	  3.58589	 -0.19687	 10.98286	711.17798	 24.80	
 10.210	161.034	 10.52397	  2.05328	  8.45331	  6.28173	  4.07645	 -0.19557	 10.97422	711.28198	 24.80	
 10.191	170.497	 10.51013	  1.92893	  8.59312	  5.70918	  4.60769	 -0.17742	 10.96045	711.07501	 24.80	
 11.899	171.783	 10.32565	  1.24024	  9.04694	  5.55286	  4.42545	 -0.26746	 10.98624	711.20599	 24.80	
 11.890	163.610	 10.33204	  1.35719	  8.91248	  6.12983	  3.88868	 -0.27905	 10.99407	711.20898	 24.80	
 11.889	155.445	 10.31923	  1.53910	  8.67611	  6.67782	  3.37065	 -0.28324	 10.97829	711.10498	 24.80	
 11.909	147.299	 10.30298	  1.78197	  8.36592	  7.20077	  2.89104	 -0.28788	 10.96404	711.04602	 24.80	
 11.902	139.148	 10.30908	  2.10536	  7.98945	  7.68542	  2.47745	 -0.29442	 10.97122	711.09698	 24.80	
 11.894	130.867	 10.32040	  2.49164	  7.54852	  8.11251	  2.12303	 -0.32016	 10.97667	711.10602	 24.80	
 11.897	122.732	 10.31741	  2.91422	  7.05343	  8.47215	  1.80973	 -0.35418	 10.97558	711.17499	 24.80	
 11.903	114.597	 10.30424	  3.39059	  6.51032	  8.74846	  1.56619	 -0.38538	 10.96442	711.23499	 24.80	
 11.893	106.346	 10.33793	  3.92948	  5.95708	  8.98379	  1.39339	 -0.39915	 11.00302	711.21802	 24.80	
 11.892	 98.155	 10.32870	  4.47594	  5.37025	  9.09999	  1.27437	 -0.40866	 10.99544	711.18701	 24.80	
 11.900	 90.000	 10.30104	  5.03755	  4.77583	  9.10900	  1.23405	 -0.39046	 10.97288	711.08099	 24.80	
 11.892	 81.845	 10.29964	  5.61530	  4.20319	  9.05048	  1.26138	 -0.36750	 10.97435	711.06403	 24.80	
 11.893	 73.654	 10.28852	  6.18101	  3.65432	  8.90193	  1.35931	 -0.35776	 10.97158	711.00201	 24.80	
 11.903	 65.403	 10.28258	  6.74401	  3.13192	  8.67415	  1.52688	 -0.32777	 10.97387	711.06799	 24.80	
 11.897	 57.268	 10.28810	  7.26899	  2.66764	  8.37294	  1.77013	 -0.31330	 10.98443	711.07202	 24.80	
 11.894	 49.133	 10.28111	  7.74449	  2.24699	  7.98927	  2.06620	 -0.29811	 10.98196	711.14801	 24.80	
 11.902	 40.852	 10.26295	  8.16004	  1.87529	  7.54155	  2.41144	 -0.29725	 10.97115	710.87402	 24.80	
 11.909	 32.701	 10.26017	  8.51525	  1.57210	  7.04884	  2.82792	 -0.30140	 10.97128	711.17902	 24.80	
 11.889	 24.555	 10.26980	  8.79941	  1.34894	  6.51060	  3.31204	 -0.30952	 10.98343	711.09900	 24.80	
 11.890	 16.390	 10.26562	  8.99810	  1.17679	  5.94572	  3.81939	 -0.31142	 10.98367	711.06403	 24.80	
 11.899	  8.217	 10.27794	  9.12560	  1.07690	  5.37680	  4.36289	 -0.29961	 10.99547	711.18500	 24.80	
 11.900	  0.000	 10.26796	  9.15280	  1.04575	  4.78152	  4.93891	 -0.28237	 10.98461	710.99597	 24.80	
 11.899	 -8.217	 10.26818	  9.09416	  1.08608	  4.21434	  5.51252	 -0.29132	 10.98065	711.07397	 24.80	
 11.890	-16.390	 10.27437	  8.95963	  1.20017	  3.67113	  6.09699	 -0.29528	 10.98933	711.22302	 24.80	
 11.889	-24.555	 10.26791	  8.72889	  1.38002	  3.15132	  6.66446	 -0.30942	 10.98684	711.13098	 24.80	
 11.909	-32.701	 10.27501	  8.43828	  1.62224	  2.68320	  7.20342	 -0.32110	 10.99839	711.18701	 24.80	
 11.902	-40.852	 10.25946	  8.04858	  1.93261	  2.27070	  7.67469	 -0.32883	 10.98243	711.15900	 24.80	
 11.894	-49.133	 10.25706	  7.59566	  2.31214	  1.90304	  8.11849	 -0.33838	 10.97518	711.14697	 24.80	
 11.897	-57.268	 10.27624	  7.11057	  2.74233	  1.60100	  8.50483	 -0.35941	 10.99717	711.22400	 24.80	
 11.903	-65.403	 10.28345	  6.57545	  3.22568	  1.36460	  8.81181	 -0.36927	 11.00480	711.12500	 24.80	
 11.893	-73.654	 10.27417	  5.99547	  3.75015	  1.19919	  9.01638	 -0.38220	 10.98857	711.17499	 24.80	
 11.892	-81.845	 10.28755	  5.41488	  4.31230	  1.10758	  9.15184	 -0.39999	 10.99395	711.21997	 24.80	
 11.900	-90.000	 10.29466	  4.83380	  4.88898	  1.08227	  9.20203	 -0.39769	 10.99999	711.25098	 24.80	
 11.892	-98.155	 10.29985	  4.26073	  5.47457	  1.13187	  9.15835	 -0.38607	 10.99349	711.23297	 24.80	
 11.893	-106.346	 10.31363	  3.71961	  6.05940	  1.24101	  9.04312	 -0.35850	 11.00732	711.27197	 24.80	
 11.903	-114.597	 10.30649	  3.19905	  6.62052	  1.41903	  8.82653	 -0.32703	 10.99260	711.17499	 24.80	
 11.897	-122.732	 10.30602	  2.73398	  7.14842	  1.67607	  8.52495	 -0.29654	 10.98486	711.22601	 24.80	
 11.894	-130.867	 10.29637	  2.32131	  7.62371	  1.99771	  8.14355	 -0.29484	 10.96753	711.11603	 24.80	
 11.902	-139.148	 10.33176	  1.97311	  8.08601	  2.38740	  7.73328	 -0.29138	 11.00260	711.14801	 24.80	
 11.909	-147.299	 10.31206	  1.67940	  8.43219	  2.81056	  7.23753	 -0.30549	 10.97341	711.16803	 24.80	
 11.889	-155.445	 10.33084	  1.46363	  8.73144	  3.30258	  6.71896	 -0.31162	 10.99142	711.31897	 24.80	
 11.890	-163.610	 10.32103	  1.30646	  8.92885	  3.82864	  6.14729	 -0.30857	 10.97923	711.33398	 24.80	
 11.899	-171.783	 10.33221	  1.21633	  9.06506	  4.38352	  5.58272	 -0.28756	 10.99078	711.13098	 24.80	
 11.900	180.000	 10.32115	  1.18812	  9.09551	  4.95283	  5.00185	 -0.26573	 10.98574	711.43402	 24.80	
 13.600	180.000	 10.08639	  0.51448	  9.48541	  4.75756	  4.79056	 -0.35523	 10.99495	711.15601	 24.70	
 13.608	-172.853	 10.06434	  0.52069	  9.43997	  4.17696	  5.34749	 -0.37921	 10.97529	711.21997	 24.80	
 13.611	-165.583	 10.08720	  0.59382	  9.35605	  3.62337	  5.94033	 -0.39689	 11.00253	711.35602	 24.70	
 13.601	-158.353	 10.07930	  0.73078	  9.15855	  3.08091	  6.50987	 -0.41074	 10.98714	711.23798	 24.70	
 13.609	-151.210	 10.08230	  0.91857	  8.91137	  2.58654	  7.05678	 -0.40551	 11.00305	711.31299	 24.70	
 13.611	-143.999	 10.05895	  1.17048	  8.56587	  2.12949	  7.55288	 -0.38503	 10.97537	711.23297	 24.70	
 13.601	-136.825	 10.07194	  1.47939	  8.18645	  1.71822	  8.04063	 -0.36381	 10.99763	711.25403	 24.70	
 13.596	-129.640	 10.06552	  1.84104	  7.73436	  1.35442	  8.46161	 -0.35847	 10.99613	711.05200	 24.70	
 13.611	-122.431	 10.04966	  2.24936	  7.23255	  1.04529	  8.81644	 -0.36377	 10.97873	711.22699	 24.70	
 13.604	-115.211	 10.03260	  2.70529	  6.69104	  0.80037	  9.09366	 -0.38863	 10.97350	711.32300	 24.70	
 13.595	-108.042	 10.04776	  3.21290	  6.14326	  0.61468	  9.33508	 -0.41993	 10.98875	711.25403	 24.70	
 13.607	-100.793	 10.02336	  3.74053	  5.55088	  0.47634	  9.47147	 -0.44470	 10.97677	711.12201	 24.70	
 13.601	-93.617	 10.03931	  4.31035	  4.97688	  0.40920	  9.56544	 -0.45059	 10.99964	711.13098	 24.70	
 13.601	-86.383	 10.01703	  4.88901	  4.38095	  0.39442	  9.55106	 -0.44683	 10.98380	711.23297	 24.70	
 13.607	-79.207	 10.01189	  5.47312	  3.81370	  0.44347	  9.47671	 -0.43427	 10.99045	711.18500	 24.70	
 13.595	-71.958	 10.00923	  6.05975	  3.26653	  0.55624	  9.32286	 -0.42050	 10.98829	711.17798	 24.70	
 13.604	-64.789	  9.99139	  6.61995	  2.74351	  0.72110	  9.08737	 -0.40589	 10.97705	711.27100	 24.70	
 13.611	-57.569	 10.01539	  7.18263	  2.27226	  0.95309	  8.81114	 -0.40146	 11.00557	711.25702	 24.70	
 13.596	-50.360	 10.00717	  7.67987	  1.84321	  1.24220	  8.44044	 -0.38752	 10.99668	711.24597	 24.70	
 13.601	-43.175	 10.01840	  8.14859	  1.46535	  1.58999	  8.02102	 -0.38565	 11.00988	711.08899	 24.70	
 13.611	-36.001	  9.98889	  8.53184	  1.13144	  1.98080	  7.51855	 -0.38216	 10.97613	711.20203	 24.70	
 13.609	-28.790	  9.99713	  8.87874	  0.85972	  2.42211	  7.00804	 -0.37355	 10.98280	711.15399	 24.70	
 13.601	-21.647	 10.02899	  9.17415	  0.65116	  2.91186	  6.48014	 -0.36957	 11.01626	711.13000	 24.70	
 13.611	-14.417	 10.00647	  9.35277	  0.49468	  3.42997	  5.88814	 -0.36364	 10.98981	711.19000	 24.70	
 13.608	 -7.147	  9.99634	  9.46692	  0.39821	  3.98325	  5.29247	 -0.35294	 10.97313	711.10498	 24.60	
 13.600	  0.000	 10.00089	  9.51832	  0.36899	  4.54893	  4.72329	 -0.34772	 10.98000	711.11401	 24.60	
 13.608	  7.147	 10.00626	  9.50437	  0.38410	  5.13517	  4.14883	 -0.36137	 10.99014	711.14801	 24.60	
 13.611	 14.417	 10.00503	  9.40235	  0.46701	  5.71958	  3.59505	 -0.36858	 10.98982	711.15100	 24.60	
 13.601	 21.647	 10.00139	  9.21676	  0.61940	  6.29254	  3.07908	 -0.38008	 10.97659	711.09900	 24.60	
 13.609	 28.790	 10.01862	  8.98414	  0.81224	  6.86303	  2.58455	 -0.38648	 11.00299	711.04303	 24.60	
 13.611	 36.001	 10.00872	  8.66120	  1.07245	  7.37450	  2.14567	 -0.37376	 10.98697	711.23798	 24.60	
 13.601	 43.175	 10.01519	  8.27995	  1.39396	  7.85093	  1.76123	 -0.36577	 10.98227	711.21198	 24.60	
 13.596	 50.360	 10.03118	  7.85270	  1.76223	  8.29673	  1.41527	 -0.37777	 10.99393	711.10498	 24.60	
 13.611	 57.569	 10.02271	  7.36126	  2.17090	  8.67245	  1.11700	 -0.39393	 10.98526	711.13300	 24.60	
 13.604	 64.789	 10.02965	  6.83448	  2.64104	  8.98344	  0.88422	 -0.41208	 10.98672	711.12201	 24.60	
 13.595	 71.958	 10.05186	  6.28883	  3.15345	  9.23083	  0.71329	 -0.43635	 10.99505	711.20898	 24.60	
 13.607	 79.207	 10.04524	  5.70841	  3.69141	  9.38582	  0.60137	 -0.45236	 10.98191	711.13000	 24.60	
 13.601	 86.383	 10.04732	  5.13312	  4.25344	  9.46453	  0.55973	 -0.48048	 10.97360	711.17603	 24.60	
 13.601	 93.617	 10.06770	  4.55877	  4.84992	  9.49242	  0.57170	 -0.49577	 10.98510	711.19202	 24.60	
 13.607	100.793	 10.06936	  3.99549	  5.43499	  9.43108	  0.63488	 -0.50489	 10.99003	711.16998	 24.60	
 13.595	108.042	 10.05145	  3.44173	  6.00439	  9.26766	  0.75933	 -0.49587	 10.96191	711.14502	 24.60	
 13.604	115.211	 10.08186	  2.93812	  6.58988	  9.08358	  0.93794	 -0.48061	 10.99446	711.19897	 24.60	
 13.611	122.431	 10.07956	  2.46243	  7.12882	  8.79578	  1.17422	 -0.45274	 10.98929	711.15601	 24.60	
 13.596	129.640	 10.06790	  2.03093	  7.62498	  8.42115	  1.47793	 -0.41860	 10.97076	711.25500	 24.60	
 13.601	136.825	 10.06149	  1.64374	  8.08301	  8.00097	  1.82510	 -0.38671	 10.96285	711.11603	 24.60	
 13.611	143.999	 10.07195	  1.30502	  8.49910	  7.55502	  2.20568	 -0.37574	 10.98263	711.03601	 24.60	
 13.609	151.210	 10.07334	  1.03608	  8.83561	  7.04327	  2.65416	 -0.36134	 10.98214	711.29602	 24.60	
 13.601	158.353	 10.08069	  0.81880	  9.11194	  6.50180	  3.14270	 -0.36135	 10.99045	711.19299	 24.60	
 13.611	165.583	 10.07894	  0.65622	  9.31287	  5.92854	  3.66300	 -0.35848	 10.99295	711.06403	 24.60	
 13.608	172.853	 10.07760	  0.55229	  9.43500	  5.34179	  4.21322	 -0.34985	 10.98658	711.20599	 24.60	
 15.298	173.587	  9.78253	 -0.11907	  9.76056	  5.10684	  3.96751	 -0.42849	 10.97084	711.26300	 24.60	
 15.291	167.167	  9.80984	 -0.02863	  9.68261	  5.70094	  3.43533	 -0.43178	 10.99669	711.14502	 24.60	
 15.307	160.676	  9.79702	  0.10833	  9.49282	  6.27061	  2.90025	 -0.44293	 10.99106	711.08301	 24.60	
 15.300	154.261	  9.80170	  0.29988	  9.25051	  6.83520	  2.40270	 -0.43748	 10.99671	711.01898	 24.50	
 15.288	147.854	  9.79558	  0.54345	  8.93578	  7.35465	  1.95176	 -0.44370	 10.98638	711.19299	 24.50	
 15.293	141.428	  9.77747	  0.83962	  8.55287	  7.83395	  1.53663	 -0.45347	 10.96206	711.05402	 24.50	
 15.299	134.985	  9.79796	  1.17705	  8.14664	  8.30928	  1.15892	 -0.47500	 10.98516	710.97400	 24.50	
 15.305	128.583	  9.78019	  1.56318	  7.66401	  8.70118	  0.82504	 -0.49852	 10.97042	711.05402	 24.50	
 15.309	122.142	  9.79469	  1.99209	  7.16541	  9.06235	  0.54284	 -0.52701	 10.98700	711.04999	 24.50	
 15.304	115.711	  9.80163	  2.46085	  6.63168	  9.35065	  0.32152	 -0.55318	 10.99458	711.14398	 24.50	
 15.297	109.291	  9.79631	  2.97002	  6.06317	  9.56648	  0.14470	 -0.56194	 10.98852	711.11200	 24.50	
 15.293	102.897	  9.79244	  3.49724	  5.48569	  9.72274	  0.01239	 -0.56423	 10.98607	711.13300	 24.50	
 15.293	 96.458	  9.77612	  4.04338	  4.89541	  9.80298	 -0.07817	 -0.56913	 10.97913	711.20203	 24.50	
 15.300	 90.000	  9.78010	  4.62109	  4.31201	  9.83317	 -0.11024	 -0.55896	 10.98777	711.01202	 24.50	
 15.293	 83.542	  9.75584	  5.19089	  3.73100	  9.76572	 -0.08901	 -0.54405	 10.96667	711.10797	 24.50	
 15.293	 77.103	  9.77848	  5.78728	  3.18764	  9.67754	 -0.01773	 -0.51897	 10.99796	711.10797	 24.50	
 15.297	 70.709	  9.75235	  6.33705	  2.65677	  9.47943	  0.10107	 -0.50365	 10.98426	711.10602	 24.50	
 15.304	 64.289	  9.74138	  6.89093	  2.15642	  9.23034	  0.27897	 -0.47346	 10.98361	711.10498	 24.50	
 15.309	 57.858	  9.73893	  7.42024	  1.69206	  8.93275	  0.49290	 -0.46335	 10.99429	711.10199	 24.50	
 15.305	 51.417	  9.73146	  7.90659	  1.27708	  8.56222	  0.76074	 -0.44565	 10.99323	711.07202	 24.50	
 15.299	 45.015	  9.70508	  8.33144	  0.90765	  8.11598	  1.09095	 -0.43818	 10.96816	711.17798	 24.50	
 15.293	 38.572	  9.72568	  8.75615	  0.58619	  7.65537	  1.48076	 -0.42654	 10.99468	711.15900	 24.50	
 15.288	 32.146	  9.71045	  9.08430	  0.31288	  7.14264	  1.89024	 -0.42592	 10.98281	711.28497	 24.50	
 15.300	 25.739	  9.70904	  9.37179	  0.08356	  6.60985	  2.34070	 -0.41881	 10.98878	711.14001	 24.50	
 15.307	 19.324	  9.70393	  9.58874	 -0.08808	  6.04183	  2.83611	 -0.41589	 10.98224	711.20203	 24.50	
 15.291	 12.833	  9.69304	  9.72938	 -0.20654	  5.45291	  3.36597	 -0.40002	 10.96471	711.13300	 24.50	
 15.298	  6.413	  9.70091	  9.83230	 -0.28594	  4.88294	  3.90881	 -0.39013	 10.98372	711.14801	 24.50	
 15.300	  0.000	  9.69435	  9.84621	 -0.30261	  4.29480	  4.48216	 -0.38046	 10.96928	711.08301	 24.50	
 15.298	 -6.413	  9.68909	  9.79838	 -0.27499	  3.73075	  5.06076	 -0.38280	 10.96423	711.16699	 24.50	
 15.291	-12.833	  9.70317	  9.70244	 -0.19413	  3.18710	  5.64683	 -0.39141	 10.98177	711.26300	 24.50	
 15.307	-19.324	  9.70683	  9.52687	 -0.05905	  2.65259	  6.23648	 -0.40492	 10.99168	711.26898	 24.40	
 15.300	-25.739	  9.70984	  9.28563	  0.12659	  2.16634	  6.79618	 -0.41018	 10.99508	711.23499	 24.40	
 15.288	-32.146	  9.68676	  8.95707	  0.36641	  1.71215	  7.31115	 -0.40684	 10.97139	711.24103	 24.40	
 15.293	-38.572	  9.68739	  8.59313	  0.64942	  1.29089	  7.81964	 -0.40567	 10.97303	711.24597	 24.40	
 15.299	-45.015	  9.69730	  8.18048	  0.98261	  0.91166	  8.29360	 -0.40248	 10.99156	711.09698	 24.40	
 15.305	-51.417	  9.69201	  7.70547	  1.36587	  0.59689	  8.68392	 -0.40174	 10.97822	711.15601	 24.40	
 15.309	-57.858	  9.70557	  7.20745	  1.79109	  0.32048	  9.05257	 -0.39904	 10.99227	711.21002	 24.40	
 15.304	-64.289	  9.68785	  6.64890	  2.25743	  0.09647	  9.33331	 -0.39824	 10.96843	711.19800	 24.40	
 15.297	-70.709	  9.71769	  6.09922	  2.76959	 -0.07619	  9.59127	 -0.41637	 10.99783	711.13098	 24.40	
 15.293	-77.103	  9.71398	  5.51562	  3.29865	 -0.19872	  9.75523	 -0.41749	 10.98849	711.10602	 24.40	
 15.293	-83.542	  9.71451	  4.92282	  3.85574	 -0.27097	  9.85425	 -0.43596	 10.98355	711.11700	 24.40	
 15.300	-90.000	  9.71425	  4.33130	  4.43087	 -0.29264	  9.88842	 -0.45415	 10.97688	711.14502	 24.40	
 15.293	-96.458	  9.75376	  3.77419	  5.03497	 -0.25386	  9.88541	 -0.46861	 11.00909	711.19897	 24.40	
 15.293	-102.897	  9.74590	  3.21652	  5.61282	 -0.16484	  9.76900	 -0.46966	 10.99604	711.20697	 24.40	
 15.297	-109.291	  9.76157	  2.69761	  6.19328	 -0.02195	  9.61152	 -0.45504	 11.00063	711.20203	 24.40	
 15.304	-115.711	  9.75889	  2.20499	  6.74851	  0.17146	  9.37029	 -0.44064	 10.99117	711.19202	 24.40	
 15.309	-122.142	  9.75507	  1.75574	  7.27482	  0.41690	  9.06287	 -0.42601	 10.97752	711.12799	 24.40	
 15.305	-128.583	  9.76686	  1.34546	  7.77972	  0.71428	  8.70594	 -0.41158	 10.98321	711.24103	 24.40	
 15.299	-134.985	  9.77475	  0.98654	  8.23854	  1.04766	  8.30898	 -0.42175	 10.98574	711.23798	 24.40	
 15.293	-141.428	  9.79258	  0.66942	  8.66091	  1.44076	  7.85704	 -0.45280	 10.99957	711.14001	 24.40	
 15.288	-147.854	  9.79500	  0.41255	  9.01161	  1.88200	  7.34904	 -0.47589	 10.99228	711.01801	 24.40	
 15.300	-154.261	  9.79137	  0.19079	  9.30252	  2.34741	  6.81698	 -0.48795	 10.98304	711.04999	 24.40	
 15.307	-160.676	  9.78767	  0.02672	  9.53064	  2.84988	  6.26258	 -0.49048	 10.98408	711.09399	 24.40	
 15.291	-167.167	  9.79951	 -0.07914	  9.69505	  3.40216	  5.68729	 -0.47666	 10.98501	711.06403	 24.40	
 15.298	-173.587	  9.79580	 -0.14706	  9.78967	  3.95374	  5.11135	 -0.45749	 10.98619	711.12500	 24.40	
 15.300	180.000	  9.80610	 -0.16015	  9.82532	  4.52673	  4.54828	 -0.43632	 10.99635	711.19501	 24.40	
 17.000	180.000	  9.47658	 -0.81461	 10.11450	  4.27174	  4.27643	 -0.49829	 10.98695	711.22699	 24.40	
 16.990	-174.179	  9.47436	 -0.81049	 10.09428	  3.70448	  4.83785	 -0.51425	 10.98157	711.08801	 24.40	
 17.009	-168.383	  9.48346	 -0.76120	 10.02294	  3.15346	  5.41119	 -0.52665	 10.99674	711.08502	 24.40	
 17.000	-162.596	  9.46833	 -0.66219	  9.86389	  2.61039	  5.97697	 -0.54386	 10.98380	711.11200	 24.40	
 16.990	-156.759	  9.45752	 -0.51338	  9.64154	  2.10116	  6.53159	 -0.54776	 10.96861	711.12299	 24.40	
 16.995	-150.919	  9.46479	 -0.32970	  9.38680	  1.62233	  7.08077	 -0.54268	 10.98208	711.11700	 24.40	
 16.988	-145.161	  9.45440	 -0.09534	  9.06044	  1.18063	  7.59428	 -0.51841	 10.97446	711.19897	 24.30	
 17.014	-139.343	  9.45485	  0.16797	  8.69490	  0.75979	  8.09233	 -0.50645	 10.99060	711.23798	 24.40	
 17.007	-133.546	  9.44958	  0.48876	  8.26974	  0.40517	  8.52548	 -0.47959	 10.98454	711.21002	 24.40	
 17.001	-127.699	  9.45388	  0.85574	  7.80678	  0.07624	  8.94165	 -0.47828	 10.99543	711.15900	 24.30	
 17.006	-121.937	  9.44014	  1.25294	  7.29831	 -0.20987	  9.29185	 -0.47133	 10.99225	711.21997	 24.40	
 17.002	-116.134	  9.43136	  1.69656	  6.76347	 -0.44744	  9.58934	 -0.46323	 10.99144	711.20599	 24.30	
 17.001	-110.310	  9.41425	  2.16683	  6.19833	 -0.64511	  9.82102	 -0.46887	 10.98680	711.06000	 24.30	
 16.988	-104.517	  9.42619	  2.68615	  5.63767	 -0.78131	 10.01127	 -0.46640	 11.00318	711.23999	 24.30	
 17.008	-98.662	  9.40308	  3.22094	  5.04329	 -0.88586	 10.11776	 -0.44248	 10.98354	711.22998	 24.30	
 16.996	-92.909	  9.38837	  3.76748	  4.46800	 -0.93788	 10.16397	 -0.43937	 10.97565	711.11700	 24.30	
 16.996	-87.091	  9.38620	  4.34611	  3.89393	 -0.94610	 10.16778	 -0.40644	 10.98150	711.16699	 24.30	
 17.012	-81.253	  9.37677	  4.92968	  3.32306	 -0.92156	 10.11599	 -0.38736	 10.98561	711.17499	 24.30	
 16.988	-75.483	  9.36731	  5.50660	  2.78928	 -0.83240	  9.98860	 -0.37610	 10.97823	711.24298	 24.30	
 17.001	-69.690	  9.35056	  6.07212	  2.26048	 -0.71393	  9.80412	 -0.35760	 10.97011	711.20697	 24.30	
 17.002	-63.866	  9.35822	  6.64680	  1.77093	 -0.53638	  9.57305	 -0.36044	 10.97962	711.28497	 24.30	
 17.006	-58.063	  9.35164	  7.18565	  1.31444	 -0.31780	  9.27360	 -0.37372	 10.97754	711.13702	 24.30	
 17.001	-52.301	  9.35822	  7.70260	  0.89457	 -0.05041	  8.93002	 -0.37941	 10.98179	711.12000	 24.30	
 17.007	-46.454	  9.36896	  8.19710	  0.51316	  0.25920	  8.54014	 -0.39248	 10.99539	711.19800	 24.30	
 17.014	-40.657	  9.36472	  8.63174	  0.16947	  0.59611	  8.10023	 -0.39866	 10.99953	711.19501	 24.30	
 16.988	-34.839	  9.37172	  9.02184	 -0.12192	  0.99856	  7.60978	 -0.40132	 10.99960	711.07202	 24.30	
 16.995	-29.081	  9.35101	  9.33344	 -0.37125	  1.42351	  7.07111	 -0.40922	 10.96921	711.15601	 24.30	
 16.990	-23.241	  9.38343	  9.64438	 -0.57978	  1.89758	  6.54057	 -0.41230	 11.00321	711.09900	 24.30	
 17.000	-17.404	  9.37188	  9.85550	 -0.74371	  2.39070	  5.96791	 -0.39237	 10.99112	711.07202	 24.30	
 17.009	-11.617	  9.36238	 10.00139	 -0.85844	  2.91444	  5.38083	 -0.38410	 10.97847	711.12201	 24.30	
 16.990	 -5.821	  9.38318	 10.11711	 -0.92115	  3.46975	  4.81800	 -0.38247	 10.99959	711.16803	 24.30	
 17.000	  0.000	  9.37147	 10.15077	 -0.95630	  4.02925	  4.23721	 -0.37733	 10.98410	711.11700	 24.30	
 16.990	  5.821	  9.37083	 10.12888	 -0.93653	  4.61154	  3.66435	 -0.37827	 10.98486	711.19299	 24.30	
 17.009	 11.617	  9.37582	 10.06312	 -0.88336	  5.18562	  3.11765	 -0.39181	 10.99506	711.14697	 24.30	
 17.000	 17.404	  9.39501	  9.94163	 -0.77685	  5.77358	  2.59713	 -0.40634	 11.01074	711.32001	 24.30	
 16.990	 23.241	  9.36612	  9.71023	 -0.61563	  6.32899	  2.08637	 -0.41681	 10.97693	711.18402	 24.30	
 16.995	 29.081	  9.38980	  9.47240	 -0.41990	  6.89110	  1.62535	 -0.43147	 10.99463	710.96503	 24.30	
 16.988	 34.839	  9.39715	  9.16878	 -0.18011	  7.41496	  1.20182	 -0.44523	 11.00258	711.15601	 24.30	
 17.014	 40.657	  9.38302	  8.79335	  0.09135	  7.90868	  0.78936	 -0.46481	 10.99141	711.06799	 24.30	
 17.007	 46.454	  9.37298	  8.36930	  0.42033	  8.34967	  0.44163	 -0.47693	 10.97006	711.20203	 24.20	
 17.001	 52.301	  9.39108	  7.92070	  0.79789	  8.77185	  0.13699	 -0.49380	 10.98139	711.23199	 24.20	
 17.006	 58.063	  9.40349	  7.43572	  1.20597	  9.13972	 -0.12430	 -0.51509	 10.98834	711.21997	 24.20	
 17.002	 63.866	  9.41443	  6.91842	  1.65017	  9.45972	 -0.34769	 -0.53200	 10.99039	711.18701	 24.20	
 17.001	 69.690	  9.40191	  6.35639	  2.12975	  9.69693	 -0.52613	 -0.54941	 10.96558	711.31897	 24.20	
 16.988	 75.483	  9.41198	  5.79461	  2.64392	  9.89204	 -0.65883	 -0.56224	 10.96781	711.15900	 24.20	
 17.012	 81.253	  9.44633	  5.24054	  3.18693	 10.06124	 -0.74744	 -0.57662	 11.00225	711.09998	 24.20	
 16.996	 87.091	  9.44790	  4.66272	  3.75115	 10.11805	 -0.77140	 -0.58099	 10.98786	711.36102	 24.20	
 16.996	 92.909	  9.46124	  4.09316	  4.33063	 10.13585	 -0.76122	 -0.59270	 10.99255	711.26898	 24.20	
 17.008	 98.662	  9.45771	  3.52752	  4.90407	 10.08591	 -0.71904	 -0.57913	 10.98585	711.23499	 24.20	
 16.988	104.517	  9.47812	  2.99903	  5.49487	  9.98465	 -0.61199	 -0.57554	 10.99730	711.19501	 24.20	
 17.001	110.310	  9.47244	  2.47219	  6.06655	  9.81149	 -0.47724	 -0.57766	 10.98727	711.24103	 24.20	
 17.002	116.134	  9.46942	  1.97920	  6.62354	  9.56778	 -0.29232	 -0.58095	 10.97910	711.21503	 24.20	
 17.006	121.937	  9.48607	  1.52230	  7.17615	  9.29527	 -0.06605	 -0.57849	 10.99601	711.19202	 24.20	
 17.001	127.699	  9.48253	  1.10163	  7.68297	  8.95166	  0.19972	 -0.56107	 10.98901	711.16699	 24.20	
 17.007	133.546	  9.47476	  0.70907	  8.15827	  8.55624	  0.50118	 -0.55032	 10.98618	711.16699	 24.20	
 17.014	139.343	  9.47767	  0.36110	  8.59831	  8.12004	  0.85341	 -0.53240	 10.99117	711.20697	 24.20	
 16.988	145.161	  9.48353	  0.06893	  8.98523	  7.63339	  1.25910	 -0.51567	 10.98711	711.18701	 24.20	
 16.995	150.919	  9.47748	 -0.18808	  9.31382	  7.12408	  1.67787	 -0.51357	 10.98185	711.30200	 24.20	
 16.990	156.759	  9.48369	 -0.40249	  9.60003	  6.58485	  2.14666	 -0.50701	 10.98933	711.28900	 24.20	
 17.000	162.596	  9.47714	 -0.57835	  9.82075	  6.00838	  2.64953	 -0.50125	 10.98041	711.23499	 24.20	
 17.009	168.383	  9.47487	 -0.71078	  9.98499	  5.43775	  3.16037	 -0.49971	 10.98839	711.12299	 24.20	
 16.990	174.179	  9.48917	 -0.78038	 10.08878	  4.86772	  3.71211	 -0.49769	 11.00094	711.27197	 24.20	
 18.709	174.675	  9.12083	 -1.42292	 10.33738	  4.58255	  3.41866	 -0.53123	 10.98296	711.22699	 24.20	
 18.703	169.441	  9.14364	 -1.35760	 10.27288	  5.15870	  2.90085	 -0.54232	 11.00870	711.30200	 24.20	
 18.691	164.085	  9.14096	 -1.23932	 10.12264	  5.73941	  2.37834	 -0.54717	 10.99811	711.14697	 24.20	
 18.706	158.818	  9.13616	 -1.09375	  9.91961	  6.30468	  1.87584	 -0.55603	 10.99753	711.16199	 24.20	
 18.695	153.537	  9.13042	 -0.90324	  9.65820	  6.84052	  1.41686	 -0.56539	 10.99014	711.14502	 24.20	
 18.704	148.255	  9.11930	 -0.67824	  9.34482	  7.35839	  0.97790	 -0.56640	 10.97556	711.15900	 24.20	
 18.698	142.952	  9.13780	 -0.40580	  9.00189	  7.87825	  0.57159	 -0.57754	 10.99903	711.09698	 24.20	
 18.699	137.625	  9.14473	 -0.10079	  8.60321	  8.35297	  0.20286	 -0.57911	 11.00440	711.01300	 24.20	
 18.705	132.343	  9.13548	  0.24815	  8.15124	  8.76274	 -0.11336	 -0.58408	 10.99169	710.99500	 24.20	
 18.713	127.067	  9.13052	  0.62449	  7.66666	  9.14667	 -0.41343	 -0.58900	 10.98747	711.07501	 24.20	
 18.700	121.794	  9.13524	  1.04001	  7.15678	  9.48924	 -0.67458	 -0.58064	 10.99763	711.02899	 24.20	
 18.698	116.504	  9.12527	  1.48219	  6.61144	  9.77140	 -0.89511	 -0.57230	 10.99138	711.04102	 24.20	
 18.707	111.165	  9.11929	  1.96854	  6.04811	 10.00390	 -1.07055	 -0.54706	 10.98540	711.08301	 24.20	
 18.690	105.863	  9.11361	  2.47700	  5.47527	 10.17758	 -1.20751	 -0.54371	 10.98350	711.13300	 24.20	
 18.696	100.583	  9.11930	  3.00894	  4.90885	 10.30901	 -1.30609	 -0.53528	 10.99317	711.11200	 24.20	
 18.700	 95.309	  9.10007	  3.54303	  4.33111	 10.36178	 -1.37027	 -0.53714	 10.97707	711.13098	 24.20	
 18.700	 90.000	  9.09400	  4.10647	  3.75513	 10.37355	 -1.39512	 -0.55554	 10.97581	711.11401	 24.20	
 18.700	 84.691	  9.09745	  4.68122	  3.19986	 10.34683	 -1.38676	 -0.56260	 10.98840	710.98401	 24.20	
 18.696	 79.417	  9.11236	  5.26196	  2.66431	 10.27858	 -1.33926	 -0.58246	 11.02147	711.04303	 24.20	
 18.690	 74.137	  9.08904	  5.81898	  2.13737	 10.11661	 -1.24408	 -0.58137	 11.00394	711.03302	 24.20	
 18.707	 68.835	  9.04709	  6.35779	  1.62483	  9.88612	 -1.11460	 -0.57568	 10.97353	710.99799	 24.20	
 18.698	 63.496	  9.05236	  6.90785	  1.15486	  9.63941	 -0.94493	 -0.56333	 10.98956	711.04602	 24.20	
 18.700	 58.206	  9.03389	  7.41848	  0.71857	  9.31553	 -0.72853	 -0.53558	 10.97717	710.90002	 24.20	
 18.713	 52.933	  9.03775	  7.92490	  0.31319	  8.96495	 -0.47872	 -0.52794	 10.99001	711.03802	 24.20	
 18.705	 47.657	  9.04895	  8.39329	 -0.04745	  8.57406	 -0.17837	 -0.51342	 11.00675	710.91901	 24.20	
 18.699	 42.375	  9.01430	  8.78987	 -0.37301	  8.10777	  0.14741	 -0.48047	 10.97880	710.94000	 24.20	
 18.698	 37.048	  9.01344	  9.17197	 -0.66283	  7.63177	  0.51812	 -0.45032	 10.98279	710.94702	 24.10	
 18.704	 31.745	  9.02469	  9.52011	 -0.91648	  7.12890	  0.92085	 -0.43335	 10.99938	711.00702	 24.20	
 18.695	 26.463	  9.00202	  9.78014	 -1.12157	  6.57142	  1.36558	 -0.39178	 10.97588	710.96399	 24.20	
 18.706	 21.182	  9.00354	 10.01586	 -1.29140	  6.03025	  1.82808	 -0.37616	 10.98571	710.96503	 24.10	
 18.691	 15.915	  9.02370	 10.21004	 -1.42168	  5.47147	  2.33693	 -0.37359	 11.00647	711.01801	 24.10	
 18.703	 10.559	  9.00214	 10.31216	 -1.50893	  4.88006	  2.86238	 -0.35192	 10.98220	711.04901	 24.10	
 18.709	  5.325	  9.00906	 10.39107	 -1.56604	  4.31895	  3.39402	 -0.35363	 10.99641	710.97601	 24.10	
 18.700	  0.000	  9.01733	 10.41402	 -1.57992	  3.74241	  3.96535	 -0.35961	 11.00335	710.94702	 24.10	
 18.709	 -5.325	  9.00594	 10.36981	 -1.55847	  3.18149	  4.53070	 -0.35073	 10.99047	711.01001	 24.10	
 18.703	-10.559	  8.99264	 10.26766	 -1.49767	  2.64143	  5.09087	 -0.36127	 10.97245	711.04602	 24.10	
 18.691	-15.915	  9.01401	 10.13902	 -1.39002	  2.11458	  5.68658	 -0.37980	 10.99431	711.09998	 24.10	
 18.706	-21.182	  9.00086	  9.93573	 -1.25798	  1.61981	  6.23986	 -0.38504	 10.99003	711.01001	 24.10	
 18.695	-26.463	  9.00200	  9.68224	 -1.07658	  1.15407	  6.79182	 -0.38769	 10.99439	710.98999	 24.10	
 18.704	-31.745	  8.98021	  9.36135	 -0.85974	  0.70910	  7.31403	 -0.38758	 10.97262	711.04999	 24.10	
 18.698	-37.048	  8.98901	  9.00958	 -0.59429	  0.31012	  7.82347	 -0.38911	 10.98303	711.06897	 24.10	
 18.699	-42.375	  8.99080	  8.60682	 -0.29741	 -0.05358	  8.29689	 -0.38525	 10.98502	711.09900	 24.10	
 18.705	-47.657	  8.99267	  8.16469	  0.03742	 -0.38600	  8.73367	 -0.37668	 10.99100	711.04102	 24.10	
 18.713	-52.933	  8.99920	  7.68557	  0.41164	 -0.68082	  9.13484	 -0.36152	 10.99810	711.00201	 24.10	
 18.700	-58.206	  8.99752	  7.16510	  0.82466	 -0.92862	  9.47238	 -0.34595	 10.99016	710.98102	 24.10	
 18.698	-63.496	  9.01089	  6.63427	  1.27400	 -1.13259	  9.76610	 -0.33013	 11.00211	710.84900	 24.10	
 18.707	-68.835	  9.01208	  6.07117	  1.75146	 -1.30655	 10.00577	 -0.32688	 10.99320	710.88397	 24.10	
 18.690	-74.137	  9.00769	  5.49179	  2.26472	 -1.41911	 10.17451	 -0.32390	 10.97987	710.92499	 24.10	
 18.696	-79.417	  9.01589	  4.91588	  2.79315	 -1.51436	 10.31123	 -0.33631	 10.98142	710.94000	 24.10	
 18.700	-84.691	  9.02338	  4.33949	  3.33798	 -1.57477	 10.39697	 -0.35057	 10.98810	710.99597	 24.10	
 18.700	-90.000	  9.03564	  3.75911	  3.90658	 -1.58886	 10.43102	 -0.36076	 10.99507	710.99597	 24.10	
 18.700	-95.309	  9.02472	  3.19722	  4.46954	 -1.55334	 10.37990	 -0.37943	 10.96701	710.92499	 24.10	
 18.696	-100.583	  9.03398	  2.65968	  5.04516	 -1.48006	 10.30305	 -0.41767	 10.96884	710.97302	 24.10	
 18.690	-105.863	  9.07113	  2.15064	  5.63625	 -1.37747	 10.19950	 -0.44507	 11.00279	710.84900	 24.10	
 18.707	-111.165	  9.07134	  1.64665	  6.20351	 -1.23171	 10.00978	 -0.46570	 11.00007	710.95898	 24.10	
 18.698	-116.504	  9.09110	  1.18325	  6.76502	 -1.04101	  9.77392	 -0.47952	 11.01025	710.96399	 24.10	
 18.700	-121.794	  9.07161	  0.75119	  7.27513	 -0.81582	  9.45602	 -0.48860	 10.97774	710.96399	 24.10	
 18.713	-127.067	  9.08164	  0.35742	  7.78233	 -0.55441	  9.11631	 -0.51457	 10.98712	710.90503	 24.10	
 18.705	-132.343	  9.10245	  0.00652	  8.26245	 -0.23562	  8.72671	 -0.52145	 10.99146	710.96503	 24.10	
 18.699	-137.625	  9.10010	 -0.30904	  8.68450	  0.11507	  8.28152	 -0.54555	 10.97973	710.84399	 24.10	
 18.698	-142.952	  9.09031	 -0.58437	  9.06247	  0.49553	  7.80069	 -0.55222	 10.96342	710.82898	 24.10	
 18.704	-148.255	  9.10511	 -0.83431	  9.42254	  0.90995	  7.30761	 -0.56298	 10.97749	711.07397	 24.10	
 18.695	-153.537	  9.11922	 -1.02776	  9.72161	  1.37067	  6.78213	 -0.55706	 10.97926	710.95697	 24.10	
 18.706	-158.818	  9.12538	 -1.19380	  9.96554	  1.84947	  6.24284	 -0.54829	 10.98729	710.93903	 24.10	
 18.691	-164.085	  9.14988	 -1.31591	 10.17009	  2.35845	  5.70100	 -0.53480	 11.01132	710.98999	 24.10	
 18.703	-169.441	  9.14378	 -1.40358	 10.29674	  2.89785	  5.11619	 -0.53057	 11.00718	711.06598	 24.10	
 18.709	-174.675	  9.12220	 -1.44709	 10.34789	  3.43472	  4.54182	 -0.53228	 10.97747	711.00702	 24.10	
 18.700	180.000	  9.12703	 -1.45303	 10.37090	  4.00048	  3.98033	 -0.52708	 10.98660	710.99200	 24.00	
 20.400	180.000	  8.72258	 -2.05071	 10.55312	  3.69904	  3.66729	 -0.51284	 10.95296	710.93402	 24.00	
 20.401	-175.153	  8.74316	 -2.06359	 10.56977	  3.15541	  4.22170	 -0.50862	 10.98555	710.99200	 24.10	
 20.407	-170.264	  8.73533	 -2.02507	 10.49992	  2.60895	  4.77800	 -0.49890	 10.98003	710.88599	 24.00	
 20.410	-165.423	  8.74678	 -1.96336	 10.39875	  2.08239	  5.34819	 -0.50273	 10.99567	710.97400	 24.00	
 20.392	-160.496	  8.74802	 -1.84295	 10.22309	  1.58683	  5.91132	 -0.50878	 10.99066	710.99799	 24.00	
 20.401	-155.705	  8.74012	 -1.70185	 10.00867	  1.10677	  6.44778	 -0.51596	 10.98693	711.03302	 24.00	
 20.405	-150.835	  8.72446	 -1.52612	  9.72902	  0.64906	  6.98126	 -0.52702	 10.97773	710.94299	 24.00	
 20.397	-145.903	  8.71197	 -1.30855	  9.40035	  0.22367	  7.49114	 -0.54086	 10.96493	710.97601	 24.00	
 20.392	-141.062	  8.71263	 -1.06686	  9.04975	 -0.16391	  7.97833	 -0.55654	 10.97569	710.98798	 24.00	
 20.396	-136.227	  8.70696	 -0.78586	  8.65059	 -0.52151	  8.43707	 -0.54890	 10.97411	711.03003	 24.00	
 20.408	-131.372	  8.72261	 -0.48307	  8.23422	 -0.86107	  8.89286	 -0.53731	 11.01301	710.98700	 24.00	
 20.410	-126.511	  8.69613	 -0.13198	  7.74056	 -1.14269	  9.25335	 -0.52703	 10.98624	710.90503	 24.00	
 20.400	-121.604	  8.71073	  0.25704	  7.25145	 -1.39830	  9.61519	 -0.49456	 11.00806	711.05200	 24.00	
 20.403	-116.741	  8.68137	  0.67616	  6.70428	 -1.61798	  9.88987	 -0.47104	 10.98442	710.95599	 24.00	
 20.413	-111.900	  8.67791	  1.11247	  6.16746	 -1.80854	 10.14932	 -0.43790	 10.99983	710.99500	 24.00	
 20.398	-107.004	  8.67147	  1.59702	  5.60366	 -1.96184	 10.34924	 -0.40702	 11.00171	711.09100	 24.00	
 20.394	-102.132	  8.64128	  2.09802	  5.01901	 -2.06556	 10.46526	 -0.38069	 10.96812	710.88800	 24.00	
 20.403	-97.332	  8.65534	  2.61773	  4.46671	 -2.15956	 10.59230	 -0.36831	 11.00723	711.06000	 24.00	
 20.392	-92.440	  8.65388	  3.16617	  3.89863	 -2.19617	 10.64085	 -0.34219	 11.00804	711.09900	 24.00	
 20.392	-87.560	  8.61657	  3.71841	  3.31843	 -2.20286	 10.60887	 -0.32225	 10.97536	710.87201	 24.00	
 20.403	-82.668	  8.60126	  4.28111	  2.76041	 -2.18161	 10.56298	 -0.32062	 10.97589	711.03497	 24.00	
 20.394	-77.868	  8.61897	  4.85947	  2.25140	 -2.11841	 10.49832	 -0.30935	 11.00445	710.95599	 24.00	
 20.398	-72.996	  8.60606	  5.42900	  1.73552	 -2.02691	 10.34757	 -0.30950	 10.99349	711.04999	 24.00	
 20.413	-68.100	  8.59715	  5.99570	  1.24198	 -1.89565	 10.15140	 -0.30847	 10.98849	711.04303	 24.00	
 20.403	-63.259	  8.61642	  6.56176	  0.78706	 -1.72422	  9.93019	 -0.31266	 11.00720	710.93298	 24.00	
 20.400	-58.396	  8.59802	  7.08933	  0.35168	 -1.51470	  9.61922	 -0.32748	 10.98915	710.92798	 24.00	
 20.410	-53.489	  8.59654	  7.60815	 -0.06002	 -1.29131	  9.28738	 -0.34018	 10.99422	711.01300	 24.00	
 20.408	-48.628	  8.59598	  8.10127	 -0.43432	 -1.02332	  8.91402	 -0.35649	 11.00463	710.99200	 24.00	
 20.396	-43.773	  8.59400	  8.54924	 -0.75734	 -0.70179	  8.48400	 -0.35750	 10.99162	710.93298	 24.00	
 20.392	-38.938	  8.60480	  8.97880	 -1.05548	 -0.35811	  8.03347	 -0.36739	 11.00512	710.96399	 24.00	
 20.397	-34.097	  8.58791	  9.33481	 -1.32058	  0.01252	  7.53553	 -0.36507	 10.98778	710.85303	 24.00	
 20.405	-29.165	  8.59373	  9.67378	 -1.55097	  0.42371	  7.01599	 -0.36169	 10.98648	710.90900	 24.00	
 20.401	-24.295	  8.61331	  9.97373	 -1.74212	  0.87053	  6.48098	 -0.34872	 11.00774	711.05200	 24.00	
 20.392	-19.504	  8.61082	 10.19246	 -1.89322	  1.33459	  5.93318	 -0.35120	 10.99572	710.86298	 24.00	
 20.410	-14.577	  8.59776	 10.36229	 -2.01773	  1.82341	  5.35758	 -0.33323	 10.98196	710.76202	 24.00	
 20.407	 -9.736	  8.60431	 10.49906	 -2.10215	  2.34503	  4.78838	 -0.33741	 10.98762	710.87097	 24.00	
 20.401	 -4.847	  8.59777	 10.56991	 -2.15965	  2.87615	  4.21913	 -0.32203	 10.97999	710.82098	 24.00	
 20.400	  0.000	  8.60752	 10.61291	 -2.17617	  3.42484	  3.66477	 -0.32572	 10.98957	710.85699	 24.00	
 20.401	  4.847	  8.59756	 10.58876	 -2.16844	  3.98994	  3.10731	 -0.33160	 10.97923	710.78400	 24.00	
 20.407	  9.736	  8.59766	 10.53241	 -2.12709	  4.55281	  2.57418	 -0.32451	 10.98446	710.90002	 24.00	
 20.410	 14.577	  8.59232	 10.41931	 -2.05195	  5.11650	  2.05355	 -0.32745	 10.97852	710.73199	 24.00	
 20.392	 19.504	  8.60242	 10.26377	 -1.93368	  5.69886	  1.55176	 -0.34179	 10.98124	710.61902	 23.90	
 20.401	 24.295	  8.61162	 10.06822	 -1.78876	  6.24135	  1.10307	 -0.34794	 10.99181	710.80701	 23.90	
 20.405	 29.165	  8.61915	  9.81988	 -1.61078	  6.79557	  0.65250	 -0.36781	 10.99994	710.77002	 23.90	
 20.397	 34.097	  8.62598	  9.50795	 -1.38349	  7.33212	  0.23308	 -0.41541	 10.99973	710.80798	 23.90	
 20.392	 38.938	  8.59555	  9.12763	 -1.12784	  7.79322	 -0.14100	 -0.45013	 10.95523	710.82898	 23.90	
 20.396	 43.773	  8.63914	  8.77822	 -0.83899	  8.29259	 -0.47873	 -0.48935	 10.99554	710.79401	 23.90	
 20.408	 48.628	  8.63372	  8.34672	 -0.52197	  8.72302	 -0.80316	 -0.51217	 10.99098	710.83899	 23.90	
 20.410	 53.489	  8.63388	  7.88089	 -0.16663	  9.11961	 -1.08858	 -0.53470	 10.98879	710.91901	 23.90	
 20.400	 58.396	  8.63642	  7.37946	  0.22804	  9.46715	 -1.32899	 -0.54892	 10.97738	710.74799	 23.90	
 20.403	 63.259	  8.65238	  6.86884	  0.65165	  9.77874	 -1.52639	 -0.55755	 10.98236	710.84698	 23.90	
 20.413	 68.100	  8.65235	  6.33593	  1.10004	 10.02748	 -1.68809	 -0.56034	 10.97126	710.88898	 23.90	
 20.398	 72.996	  8.67863	  5.79149	  1.58732	 10.25545	 -1.82608	 -0.54926	 10.99304	710.89697	 23.90	
 20.394	 77.868	  8.68869	  5.22635	  2.09963	 10.41589	 -1.92922	 -0.54771	 10.99198	710.95898	 23.90	
 20.403	 82.668	  8.68687	  4.66861	  2.61200	 10.51068	 -1.98646	 -0.53037	 10.97633	710.97302	 23.90	
 20.392	 87.560	  8.72213	  4.11382	  3.17316	 10.59465	 -2.00696	 -0.51152	 11.00382	710.94000	 23.90	
 20.392	 92.440	  8.72815	  3.55362	  3.73293	 10.60615	 -2.00406	 -0.48992	 11.00148	710.82898	 23.90	
 20.403	 97.332	  8.72124	  2.99648	  4.29260	 10.56180	 -1.96528	 -0.47907	 10.98638	710.73700	 23.90	
 20.394	102.132	  8.73390	  2.48158	  4.86120	 10.47702	 -1.88370	 -0.47026	 10.98989	710.68298	 23.90	
 20.398	107.004	  8.74660	  1.96096	  5.44301	 10.35192	 -1.78331	 -0.49523	 10.99657	710.91901	 23.90	
 20.413	111.900	  8.73543	  1.46567	  5.99992	 10.15047	 -1.64065	 -0.50472	 10.97954	710.80499	 23.90	
 20.403	116.741	  8.74466	  1.00702	  6.55054	  9.92283	 -1.47009	 -0.52806	 10.98254	710.95001	 23.90	
 20.400	121.604	  8.75905	  0.57010	  7.09839	  9.65879	 -1.27180	 -0.54467	 11.00471	710.89697	 23.90	
 20.410	126.511	  8.77070	  0.15756	  7.62583	  9.33707	 -1.02826	 -0.56673	 11.01885	711.01202	 23.90	
 20.408	131.372	  8.75620	 -0.21710	  8.09953	  8.94216	 -0.74315	 -0.57870	 10.99391	710.86102	 23.90	
 20.396	136.227	  8.74970	 -0.54914	  8.54211	  8.51190	 -0.42323	 -0.59450	 10.98397	710.77002	 23.90	
 20.392	141.062	  8.76042	 -0.85783	  8.96331	  8.07565	 -0.08654	 -0.59148	 10.99777	710.95099	 23.80	
 20.397	145.903	  8.76078	 -1.13654	  9.33528	  7.59528	  0.27965	 -0.59483	 11.00096	710.84399	 23.80	
 20.405	150.835	  8.75080	 -1.37765	  9.66058	  7.06410	  0.69718	 -0.58195	 10.98874	710.84900	 23.80	
 20.401	155.705	  8.77645	 -1.57935	  9.96583	  6.54797	  1.14396	 -0.57660	 11.01443	710.99597	 23.80	
 20.392	160.496	  8.75871	 -1.74030	 10.17132	  5.99517	  1.59680	 -0.56769	 10.99527	710.91101	 23.80	
 20.410	165.423	  8.74576	 -1.87462	 10.34617	  5.41287	  2.09349	 -0.54987	 10.98104	710.81500	 23.80	
 20.407	170.264	  8.73455	 -1.96785	 10.45986	  4.84152	  2.59836	 -0.53490	 10.96804	710.86603	 23.80	
 20.401	175.153	  8.73525	 -2.02696	 10.53407	  4.27617	  3.11799	 -0.51673	 10.97117	710.76801	 23.80	
  0.141	 45.000	 11.00900	  5.70787	  5.55352	  5.64750	  5.69083	  0.09529	 10.99351	710.83801	 23.80	
  4.001	128.691	 10.96172	  4.80618	  6.32245	  6.60279	  4.63713	  0.04104	 10.97954	710.77600	 23.80	
  4.002	 76.995	 10.97447	  5.93011	  5.19136	  6.86165	  4.40186	  0.05754	 10.99661	710.93298	 23.80	
  4.002	 25.892	 10.97317	  6.82031	  4.33829	  6.11168	  5.05127	  0.04441	 10.99523	710.78699	 23.80	
  4.002	-25.892	 10.99182	  6.80656	  4.35027	  4.95657	  6.21321	  0.03423	 11.01360	710.76202	 23.80	
  4.002	-76.995	 10.95662	  5.84930	  5.19578	  4.27095	  6.93784	  0.01748	 10.97638	710.74799	 23.80	
  4.001	-128.691	 10.96626	  4.75442	  6.36045	  4.54299	  6.69063	  0.04817	 10.98042	710.81598	 23.80	
  4.000	180.000	 10.97198	  4.31292	  6.85855	  5.55108	  5.65130	  0.04890	 10.98756	710.75598	 23.80	
  8.000	180.000	 10.73961	  2.75687	  8.07053	  5.31282	  5.38613	 -0.07787	 10.97160	710.78400	 23.80	
  7.991	-152.370	 10.74442	  3.00101	  7.75942	  4.07354	  6.66402	 -0.10715	 10.97494	710.75098	 23.80	
  7.997	-124.550	 10.76028	  3.77284	  6.86415	  3.13483	  7.70854	 -0.12549	 11.00172	710.68402	 23.80	
  8.006	-96.837	 10.74495	  4.93668	  5.59485	  2.69290	  8.18318	 -0.16508	 10.98914	710.73102	 23.80	
  7.988	-69.228	 10.72357	  6.24034	  4.30184	  2.80966	  7.99385	 -0.17529	 10.98132	710.78400	 23.80	
  7.997	-41.563	 10.72410	  7.38380	  3.27043	  3.46214	  7.21197	 -0.13942	 10.98734	710.62097	 23.80	
  8.008	-13.821	 10.72879	  8.06057	  2.69990	  4.56430	  5.99625	 -0.10577	 10.98582	710.69202	 23.80	
  8.008	 13.821	 10.72972	  8.09078	  2.68178	  5.87547	  4.68997	 -0.10142	 10.98775	710.77002	 23.80	
  7.997	 41.563	 10.72238	  7.46440	  3.21919	  7.08185	  3.59908	 -0.09921	 10.97973	710.74597	 23.80	
  7.988	 69.228	 10.73882	  6.36947	  4.23458	  7.89767	  2.93522	 -0.12642	 10.98490	710.80103	 23.80	
  8.006	 96.837	 10.73521	  5.06745	  5.51024	  8.09228	  2.80907	 -0.14350	 10.97894	710.71399	 23.80	
  7.997	124.550	 10.74134	  3.88282	  6.78143	  7.62670	  3.24023	 -0.11928	 10.97405	710.80798	 23.80	
  7.991	152.370	 10.74095	  3.06960	  7.71658	  6.60354	  4.16405	 -0.09199	 10.97337	710.71198	 23.70	
 12.009	161.059	 10.31754	  1.36808	  8.86933	  6.30258	  3.69872	 -0.28559	 10.99319	710.54602	 23.70	
 12.013	142.081	 10.30825	  1.94834	  8.15767	  7.53840	  2.58933	 -0.29614	 10.98241	710.63300	 23.70	
 12.006	123.113	 10.32619	  2.87395	  7.09587	  8.49405	  1.78788	 -0.35837	 10.99901	710.62201	 23.70	
 12.007	104.200	 10.29479	  4.04039	  5.78192	  9.02284	  1.30691	 -0.41223	 10.96973	710.69501	 23.70	
 11.989	 85.301	 10.31730	  5.37764	  4.43744	  9.13273	  1.20353	 -0.38587	 11.00363	710.64899	 23.70	
 12.013	 66.294	 10.28318	  6.69542	  3.16260	  8.73452	  1.46525	 -0.33952	 10.98322	710.76001	 23.70	
 12.012	 47.388	 10.29745	  7.87652	  2.13369	  7.93443	  2.10775	 -0.30389	 11.00906	710.75098	 23.70	
 11.990	 28.440	 10.26649	  8.70078	  1.41001	  6.78103	  3.05440	 -0.31488	 10.98928	710.75299	 23.70	
 11.991	  9.464	 10.26251	  9.13283	  1.05085	  5.45662	  4.26140	 -0.30365	 10.98970	710.83301	 23.70	
 11.991	 -9.464	 10.24875	  9.09453	  1.05826	  4.10765	  5.59276	 -0.29214	 10.97559	710.79303	 23.70	
 11.990	-28.440	 10.23987	  8.60279	  1.44496	  2.88709	  6.91821	 -0.31629	 10.96828	710.80200	 23.70	
 12.012	-47.388	 10.26370	  7.72193	  2.19532	  1.93707	  8.06236	 -0.34102	 10.99879	710.78198	 23.70	
 12.013	-66.294	 10.24494	  6.50343	  3.24539	  1.29890	  8.83871	 -0.37306	 10.97694	710.72198	 23.70	
 11.989	-85.301	 10.27107	  5.15617	  4.53418	  1.05420	  9.19434	 -0.40175	 10.98555	710.81500	 23.70	
 12.007	-104.200	 10.29222	  3.83656	  5.90061	  1.16335	  9.10287	 -0.37192	 10.99955	710.76202	 23.70	
 12.006	-123.113	 10.29518	  2.68734	  7.17722	  1.64812	  8.53263	 -0.30069	 10.98723	710.63000	 23.70	
 12.013	-142.081	 10.30130	  1.82226	  8.22356	  2.50186	  7.55925	 -0.29472	 10.97779	710.58698	 23.70	
 12.009	-161.059	 10.31473	  1.30132	  8.90469	  3.63433	  6.33017	 -0.31513	 10.98442	710.66602	 23.70	
 16.000	180.000	  9.66945	 -0.42720	  9.94125	  4.42200	  4.43412	 -0.46398	 10.98092	710.59302	 23.70	
 15.990	-165.604	  9.65978	 -0.33574	  9.77761	  3.10836	  5.76090	 -0.51150	 10.97396	710.57001	 23.70	
 16.002	-151.165	  9.65948	  0.02279	  9.26857	  1.92134	  7.06335	 -0.51063	 10.98207	710.62500	 23.70	
 16.002	-136.836	  9.64678	  0.64667	  8.42865	  0.92587	  8.22609	 -0.46197	 10.98355	710.67401	 23.70	
 15.995	-122.439	  9.63297	  1.52377	  7.32044	  0.18185	  9.13142	 -0.44042	 10.97882	710.66101	 23.70	
 15.993	-107.966	  9.61909	  2.62265	  6.03361	 -0.32603	  9.75311	 -0.46604	 10.98870	710.58197	 23.70	
 16.005	-93.629	  9.59914	  3.88423	  4.67632	 -0.56035	 10.01711	 -0.45375	 10.98870	710.69202	 23.70	
 15.992	-79.234	  9.58375	  5.24180	  3.34048	 -0.51749	  9.92947	 -0.41062	 10.99654	710.58002	 23.70	
 16.009	-64.774	  9.56460	  6.59320	  2.10936	 -0.20480	  9.48774	 -0.38900	 10.98493	710.62903	 23.70	
 15.997	-50.364	  9.56559	  7.82292	  1.08393	  0.39635	  8.70986	 -0.39116	 10.98121	710.67200	 23.70	
 15.997	-36.045	  9.55797	  8.82887	  0.28104	  1.22368	  7.66467	 -0.41367	 10.98171	710.62201	 23.70	
 16.000	-21.597	  9.56846	  9.54834	 -0.25852	  2.28565	  6.41847	 -0.40937	 10.98313	710.57703	 23.70	
 16.003	 -7.169	  9.54882	  9.90398	 -0.54139	  3.52290	  5.04561	 -0.38541	 10.95560	710.59601	 23.70	
 16.003	  7.169	  9.57332	  9.95449	 -0.55285	  4.86776	  3.71728	 -0.39134	 10.98319	710.65302	 23.70	
 16.000	 21.597	  9.59002	  9.63829	 -0.29584	  6.23295	  2.47366	 -0.43374	 10.99957	710.55902	 23.70	
 15.997	 36.045	  9.59415	  8.98529	  0.21822	  7.48730	  1.42143	 -0.44296	 10.99729	710.60199	 23.70	
 15.997	 50.364	  9.60592	  8.03233	  0.98921	  8.56766	  0.57275	 -0.46679	 10.99512	710.67200	 23.70	
 16.009	 64.774	  9.61348	  6.84841	  1.99532	  9.36343	 -0.01042	 -0.50502	 10.98524	710.57898	 23.70	
 15.992	 79.234	  9.62881	  5.52711	  3.20317	  9.83682	 -0.33871	 -0.54784	 10.97929	710.72302	 23.70	
 16.005	 93.629	  9.64775	  4.18557	  4.53442	  9.95788	 -0.38054	 -0.57495	 10.98411	710.66400	 23.70	
 15.993	107.966	  9.67910	  2.91935	  5.90271	  9.73750	 -0.16352	 -0.57542	 10.99898	710.56201	 23.60	
 15.995	122.439	  9.69954	  1.77916	  7.22003	  9.16254	  0.30832	 -0.55551	 11.01396	710.56299	 23.60	
 16.002	136.836	  9.68346	  0.84376	  8.34184	  8.25229	  1.02711	 -0.49561	 10.99880	710.57703	 23.70	
 16.002	151.165	  9.68413	  0.16049	  9.21128	  7.10896	  1.98038	 -0.47374	 10.99973	710.48401	 23.60	
 15.990	165.604	  9.67629	 -0.26557	  9.74905	  5.78262	  3.14836	 -0.46218	 10.98610	710.46997	 23.70	
 20.003	168.362	  8.83898	 -1.79338	 10.38395	  5.11847	  2.49908	 -0.54885	 10.98327	710.45203	 23.70	
 20.008	156.764	  8.84235	 -1.48275	  9.95754	  6.43653	  1.34506	 -0.57141	 10.98350	710.62903	 23.60	
 20.000	145.147	  8.84647	 -0.96178	  9.24611	  7.66890	  0.34205	 -0.60223	 10.98708	710.48102	 23.70	
 19.995	133.545	  8.84350	 -0.23936	  8.28627	  8.72893	 -0.47088	 -0.60675	 10.98300	710.47803	 23.60	
 20.009	121.926	  8.84192	  0.64680	  7.14131	  9.59638	 -1.12215	 -0.56854	 10.99448	710.35901	 23.60	
 20.005	110.327	  8.84340	  1.72943	  5.86299	 10.19023	 -1.54612	 -0.50127	 10.99764	710.42999	 23.60	
 19.989	 98.733	  8.83082	  2.93515	  4.52948	 10.50210	 -1.79279	 -0.49184	 10.99932	710.45502	 23.60	
 19.999	 87.075	  8.81475	  4.23281	  3.19798	 10.53908	 -1.86051	 -0.52343	 10.99527	710.52002	 23.60	
 19.992	 75.457	  8.78419	  5.54537	  1.95293	 10.28884	 -1.72652	 -0.55486	 10.98197	710.47803	 23.60	
 20.009	 63.844	  8.77013	  6.83725	  0.82934	  9.79269	 -1.40568	 -0.55487	 11.00149	710.63800	 23.60	
 19.989	 52.269	  8.74619	  8.00505	 -0.12567	  9.00286	 -0.87016	 -0.53364	 10.99395	710.46301	 23.60	
 19.999	 40.602	  8.71946	  9.00099	 -0.90097	  7.97684	 -0.13582	 -0.47167	 10.98131	710.47998	 23.60	
 20.004	 29.051	  8.73231	  9.80431	 -1.47523	  6.80973	  0.78147	 -0.38242	 11.01245	710.48700	 23.60	
 20.005	 17.433	  8.71747	 10.31278	 -1.84514	  5.50997	  1.86912	 -0.34466	 11.00337	710.55902	 23.60	
 20.006	  5.780	  8.70410	 10.55176	 -2.02864	  4.16833	  3.08464	 -0.33009	 10.99217	710.47803	 23.60	
 20.006	 -5.780	  8.69926	 10.52121	 -2.01525	  2.85891	  4.38810	 -0.33263	 10.98119	710.37097	 23.60	
 20.005	-17.433	  8.69478	 10.22335	 -1.81651	  1.63303	  5.72751	 -0.34987	 10.98282	710.32001	 23.60	
 20.004	-29.051	  8.69296	  9.65659	 -1.42931	  0.54794	  7.01521	 -0.36508	 10.99127	710.50000	 23.60	
 19.999	-40.602	  8.69197	  8.81301	 -0.82793	 -0.34904	  8.17655	 -0.37006	 10.99106	710.39697	 23.60	
 19.989	-52.269	  8.67970	  7.72617	 -0.02917	 -1.08282	  9.15622	 -0.34673	 10.97464	710.33398	 23.60	
 20.009	-63.844	  8.68960	  6.51181	  0.94454	 -1.59944	  9.89195	 -0.32169	 10.97625	710.33698	 23.60	
 19.992	-75.457	  8.73449	  5.21075	  2.09512	 -1.92328	 10.39756	 -0.31843	 11.01288	710.52600	 23.60	
 19.999	-87.075	  8.73040	  3.86091	  3.34670	 -2.04922	 10.57426	 -0.32765	 10.98788	710.36603	 23.60	
 19.989	-98.733	  8.74414	  2.55711	  4.67980	 -1.98436	 10.50517	 -0.37855	 10.98368	710.27502	 23.60	
 20.005	-110.327	  8.77376	  1.37745	  6.01698	 -1.72195	 10.18096	 -0.44149	 10.99569	710.32599	 23.60	
 20.009	-121.926	  8.78436	  0.35341	  7.27397	 -1.24904	  9.54873	 -0.49616	 10.98251	710.31500	 23.50	
 19.995	-133.545	  8.82564	 -0.49008	  8.42019	 -0.58482	  8.69419	 -0.54778	 11.00583	710.35101	 23.50	
 20.000	-145.147	  8.82216	 -1.13482	  9.33513	  0.28201	  7.59521	 -0.55059	 10.98803	710.39001	 23.50	
 20.008	-156.764	  8.84224	 -1.61111	 10.03390	  1.31597	  6.36432	 -0.52514	 11.00273	710.36200	 23.50	
 20.003	-168.362	  8.83932	 -1.86602	 10.42294	  2.49104	  5.05550	 -0.51600	 10.99143	710.35101	 23.50	
 20.000	180.000	  8.84290	 -1.91685	 10.53754	  3.78173	  3.75258	 -0.52882	 10.98448	710.30298	 23.50	
