FileType=PCF
NHL=14
Date=03/07/19	15:39:42
Facility=APL
Serial=16071-10
Customer=NASA
NP=6
Mach=0.150000
Calibration=1:1
CalPts=490
TstPts=95
PortNumbering=AP Standard
Units=Torr C m/s kg/m^3 deg mm 
Theta[deg]	Phi[deg]	P1[Torr]	P2[Torr]	P3[Torr]	P4[Torr]	P5[Torr]	P6[Torr]	Pt[Torr]	Ps[Abs,Torr]	Ts[C]	
  0.000	  0.000	 10.97620	  4.62751	  4.67475	  4.81213	  4.44179	  0.24881	 10.96221	710.59998	 33.10	
  1.691	128.401	 10.96411	  4.29890	  4.97403	  5.27308	  3.96204	  0.23031	 10.95653	710.73999	 33.10	
  1.692	 77.194	 10.96358	  4.77228	  4.48903	  5.34447	  3.88579	  0.24926	 10.95576	710.72998	 33.10	
  1.699	 26.182	 10.96824	  5.13900	  4.14045	  5.00757	  4.21638	  0.26095	 10.95684	710.78998	 33.10	
  1.699	-26.182	 10.96857	  5.10909	  4.18929	  4.51625	  4.71729	  0.25540	 10.95398	710.71002	 33.10	
  1.692	-77.194	 10.97313	  4.70787	  4.59011	  4.24961	  5.00186	  0.23803	 10.96233	710.77002	 33.10	
  1.691	-128.401	 10.97050	  4.23984	  5.05850	  4.39667	  4.84603	  0.22353	 10.95886	710.70001	 33.00	
  1.700	180.000	 10.96781	  4.05187	  5.24328	  4.84628	  4.38536	  0.21874	 10.95575	710.72998	 33.00	
  3.400	180.000	 10.94386	  3.46294	  5.81327	  4.83769	  4.29506	  0.17404	 10.95915	710.67999	 33.00	
  3.388	-152.325	 10.94367	  3.56742	  5.71411	  4.32449	  4.82190	  0.17644	 10.95193	710.72998	 33.00	
  3.397	-124.529	 10.95436	  3.89045	  5.37587	  3.90574	  5.29087	  0.18417	 10.95566	710.70001	 33.00	
  3.399	-96.763	 10.95958	  4.37292	  4.87190	  3.68651	  5.54860	  0.19758	 10.95772	710.72998	 33.00	
  3.394	-69.283	 10.96182	  4.89283	  4.34224	  3.70413	  5.52688	  0.21327	 10.96126	710.67999	 33.00	
  3.400	-41.398	 10.95727	  5.35893	  3.87703	  3.95856	  5.21259	  0.21833	 10.95286	710.63000	 33.00	
  3.401	-14.021	 10.95924	  5.68513	  3.57702	  4.40142	  4.73226	  0.24279	 10.95916	710.59003	 32.90	
  3.401	 14.021	 10.95203	  5.70983	  3.52842	  4.92113	  4.18964	  0.24283	 10.95896	710.71002	 32.90	
  3.400	 41.398	 10.94272	  5.47704	  3.72323	  5.43890	  3.69760	  0.24599	 10.95276	710.79999	 32.90	
  3.394	 69.283	 10.94220	  5.03005	  4.14382	  5.80283	  3.37169	  0.22538	 10.95651	710.77002	 32.90	
  3.399	 96.763	 10.93425	  4.50014	  4.65280	  5.93856	  3.26774	  0.21928	 10.95455	710.71997	 32.90	
  3.397	124.529	 10.94175	  4.00266	  5.17714	  5.78259	  3.41124	  0.19960	 10.96346	710.75000	 32.90	
  3.388	152.325	 10.93910	  3.63281	  5.59735	  5.35148	  3.79405	  0.16815	 10.95827	709.90002	 32.80	
  5.099	161.165	 10.88049	  2.96210	  6.19899	  5.35379	  3.64380	  0.09593	 10.95452	710.59003	 32.80	
  5.109	142.013	 10.87709	  3.24343	  5.84712	  5.88050	  3.15475	  0.10278	 10.95940	710.71997	 32.80	
  5.095	123.033	 10.87489	  3.65297	  5.37949	  6.25307	  2.83809	  0.12199	 10.95981	710.67999	 32.80	
  5.105	104.191	 10.87223	  4.17178	  4.81052	  6.45974	  2.66314	  0.15980	 10.95522	710.67999	 32.80	
  5.093	 85.207	 10.87758	  4.73450	  4.23930	  6.45891	  2.65945	  0.16828	 10.96037	710.71002	 32.80	
  5.104	 66.290	 10.87738	  5.29590	  3.72009	  6.25807	  2.81287	  0.17472	 10.95733	710.65997	 32.80	
  5.094	 47.331	 10.88980	  5.77298	  3.29425	  5.88291	  3.13742	  0.21176	 10.96043	710.59003	 32.70	
  5.089	 28.397	 10.89852	  6.12162	  3.01926	  5.36760	  3.59830	  0.20059	 10.95679	710.20001	 32.70	
  5.096	  9.576	 10.90285	  6.29624	  2.89123	  4.79893	  4.13512	  0.20273	 10.95727	709.90002	 32.70	
  5.096	 -9.576	 10.91083	  6.25048	  2.95027	  4.26346	  4.69358	  0.19835	 10.95932	710.65002	 32.70	
  5.089	-28.397	 10.91633	  6.00288	  3.17188	  3.75493	  5.26482	  0.18441	 10.95650	710.63000	 32.70	
  5.094	-47.331	 10.91527	  5.59470	  3.52913	  3.35769	  5.71283	  0.18141	 10.95547	710.62000	 32.70	
  5.104	-66.290	 10.92008	  5.08576	  4.02113	  3.13234	  6.01386	  0.14225	 10.95754	710.60999	 32.60	
  5.093	-85.207	 10.91788	  4.52293	  4.58212	  3.06172	  6.11363	  0.13104	 10.95814	710.63000	 32.60	
  5.105	-104.191	 10.91151	  3.98092	  5.13194	  3.13939	  6.02477	  0.12278	 10.95439	710.28998	 32.60	
  5.095	-123.033	 10.91108	  3.48862	  5.66670	  3.39132	  5.71469	  0.10170	 10.95918	710.40002	 32.60	
  5.109	-142.013	 10.90107	  3.13326	  6.06416	  3.76761	  5.28203	  0.09448	 10.95373	710.65002	 32.60	
  5.099	-161.165	 10.89214	  2.91907	  6.31463	  4.26892	  4.73441	  0.10959	 10.95389	710.71002	 32.60	
  5.100	180.000	 10.88847	  2.85977	  6.35179	  4.82017	  4.17006	  0.09012	 10.95466	710.76001	 32.60	
  6.800	180.000	 10.78909	  2.20486	  6.88726	  4.74588	  4.00443	  0.00063	 10.95474	710.17999	 32.60	
  6.796	-166.229	 10.80148	  2.23677	  6.87386	  4.20190	  4.56330	  0.00547	 10.95650	710.69000	 32.60	
  6.808	-152.311	 10.80684	  2.37681	  6.71244	  3.67203	  5.12897	  0.01484	 10.95099	710.27002	 32.50	
  6.795	-138.383	 10.81334	  2.63972	  6.40345	  3.21678	  5.65689	  0.01337	 10.95174	710.09003	 32.50	
  6.792	-124.591	 10.83200	  2.99666	  6.00526	  2.86704	  6.08796	  0.01973	 10.96439	710.37000	 32.50	
  6.787	-110.754	 10.82938	  3.45955	  5.47941	  2.60793	  6.40841	  0.02616	 10.95358	710.78998	 32.50	
  6.800	-96.985	 10.83479	  3.96608	  4.94385	  2.46054	  6.61556	  0.03436	 10.95853	710.65002	 32.50	
  6.800	-83.015	 10.83816	  4.52359	  4.37683	  2.42449	  6.66362	  0.04389	 10.95672	710.67999	 32.50	
  6.787	-69.246	 10.84054	  5.08176	  3.83798	  2.50193	  6.55958	  0.06599	 10.95980	710.70001	 32.50	
  6.792	-55.409	 10.83422	  5.62094	  3.33769	  2.68672	  6.31502	  0.07745	 10.95741	710.53998	 32.50	
  6.795	-41.617	 10.83149	  6.09255	  2.91957	  2.97222	  5.94852	  0.11079	 10.95174	710.71997	 32.40	
  6.808	-27.689	 10.83248	  6.47749	  2.59072	  3.35865	  5.47940	  0.12698	 10.95975	710.72998	 32.40	
  6.796	-13.771	 10.82924	  6.72916	  2.37472	  3.84385	  4.93170	  0.12517	 10.95843	710.62000	 32.40	
  6.800	  0.000	 10.81926	  6.84240	  2.26581	  4.37019	  4.37042	  0.13689	 10.95816	710.67999	 32.40	
  6.796	 13.771	 10.80935	  6.80805	  2.27878	  4.92954	  3.80989	  0.14390	 10.95527	710.78998	 32.40	
  6.808	 27.689	 10.79748	  6.62708	  2.40388	  5.49047	  3.28115	  0.13790	 10.95702	710.75000	 32.40	
  6.795	 41.617	 10.79626	  6.30696	  2.64893	  6.01340	  2.81863	  0.12131	 10.95915	710.59003	 32.40	
  6.792	 55.409	 10.77829	  5.87762	  2.98832	  6.43300	  2.46089	  0.12136	 10.95255	710.73999	 32.40	
  6.787	 69.246	 10.77666	  5.36692	  3.43156	  6.76727	  2.18404	  0.10355	 10.95205	710.76001	 32.40	
  6.800	 83.015	 10.76934	  4.80863	  3.94326	  6.96470	  2.02325	  0.07804	 10.95801	710.71997	 32.30	
  6.800	 96.985	 10.76393	  4.23736	  4.50157	  7.01395	  1.98792	  0.06111	 10.95266	710.65997	 32.30	
  6.787	110.754	 10.76110	  3.69818	  5.06357	  6.91721	  2.06801	  0.06026	 10.95382	710.01001	 32.30	
  6.792	124.591	 10.76723	  3.21175	  5.61063	  6.67366	  2.26099	  0.03979	 10.95935	710.79999	 32.30	
  6.795	138.383	 10.76507	  2.80704	  6.08865	  6.31007	  2.55888	  0.01986	 10.95576	710.67999	 32.30	
  6.808	152.311	 10.77526	  2.48579	  6.49271	  5.84334	  2.96567	  0.01486	 10.95474	710.64001	 32.30	
  6.796	166.229	 10.78017	  2.28578	  6.76330	  5.29865	  3.46775	  0.00818	 10.95500	710.65997	 32.30	
  8.491	168.704	 10.63880	  1.59959	  7.29165	  5.22906	  3.25488	 -0.09509	 10.94990	710.59998	 32.20	
  8.502	157.493	 10.63411	  1.76673	  7.05637	  5.79549	  2.73810	 -0.08163	 10.95743	710.54999	 32.20	
  8.494	146.194	 10.62207	  2.04030	  6.69109	  6.31254	  2.28630	 -0.08004	 10.95137	710.65002	 32.20	
  8.495	135.039	 10.61514	  2.38588	  6.25145	  6.75120	  1.92160	 -0.07322	 10.94684	709.84998	 32.20	
  8.487	123.723	 10.61870	  2.81342	  5.73707	  7.11853	  1.62877	 -0.05597	 10.95870	709.87000	 32.20	
  8.492	112.575	 10.61114	  3.30121	  5.18001	  7.37721	  1.41920	 -0.03731	 10.95535	710.69000	 32.20	
  8.510	101.220	 10.61516	  3.86318	  4.58070	  7.51759	  1.31445	 -0.04009	 10.95622	709.84998	 32.20	
  8.500	 90.000	 10.61528	  4.43153	  4.00581	  7.52540	  1.30883	 -0.03414	 10.95672	710.57001	 32.20	
  8.510	 78.780	 10.61921	  5.01059	  3.45448	  7.41887	  1.38729	 -0.00990	 10.95408	710.57001	 32.10	
  8.492	 67.425	 10.63136	  5.58870	  2.94750	  7.17778	  1.58712	  0.01833	 10.95895	710.67999	 32.10	
  8.487	 56.277	 10.64573	  6.11153	  2.52236	  6.83627	  1.87386	  0.02557	 10.95881	710.51001	 32.10	
  8.495	 44.961	 10.65294	  6.57083	  2.16354	  6.39177	  2.23534	  0.03035	 10.95562	709.77002	 32.10	
  8.494	 33.806	 10.65952	  6.93815	  1.89089	  5.89681	  2.66245	  0.04169	 10.95736	710.07001	 32.10	
  8.502	 22.507	 10.66490	  7.20515	  1.70505	  5.33689	  3.15965	  0.05887	 10.95565	710.64001	 32.10	
  8.491	 11.296	 10.67255	  7.34091	  1.61758	  4.75579	  3.70833	  0.05844	 10.94968	709.91998	 32.10	
  8.500	  0.000	 10.68583	  7.36582	  1.62133	  4.19187	  4.28709	  0.04377	 10.95249	709.91998	 32.10	
  8.491	-11.296	 10.70083	  7.26413	  1.72132	  3.65510	  4.86514	  0.03355	 10.95609	709.90997	 32.10	
  8.502	-22.507	 10.70650	  7.03261	  1.90707	  3.14541	  5.44404	  0.02618	 10.95800	710.31000	 32.00	
  8.494	-33.806	 10.71340	  6.69180	  2.18539	  2.70675	  5.96606	  0.00769	 10.95744	709.96002	 32.00	
  8.495	-44.961	 10.71756	  6.25989	  2.54538	  2.35398	  6.41376	 -0.00954	 10.95562	710.70001	 32.00	
  8.487	-56.277	 10.72113	  5.76240	  2.96764	  2.06810	  6.78293	 -0.01858	 10.95805	709.83002	 32.00	
  8.492	-67.425	 10.71689	  5.20990	  3.46214	  1.87160	  7.04098	 -0.02966	 10.95312	709.96002	 32.00	
  8.510	-78.780	 10.71867	  4.62446	  4.01333	  1.75804	  7.18934	 -0.05715	 10.95595	709.96002	 32.00	
  8.500	-90.000	 10.71416	  4.05210	  4.58334	  1.75388	  7.19519	 -0.07243	 10.95438	709.81000	 32.00	
  8.510	-101.220	 10.71218	  3.50392	  5.16018	  1.83135	  7.08585	 -0.06919	 10.95728	710.34998	 32.00	
  8.492	-112.575	 10.70638	  2.98870	  5.72706	  2.00388	  6.84255	 -0.07307	 10.95566	710.59003	 31.90	
  8.487	-123.723	 10.69958	  2.54655	  6.23528	  2.27458	  6.49474	 -0.08059	 10.95697	710.71997	 31.90	
  8.495	-135.039	 10.68934	  2.17147	  6.68149	  2.62185	  6.05053	 -0.08974	 10.95517	709.85999	 31.90	
  8.494	-146.194	 10.68770	  1.87699	  7.03443	  3.04203	  5.55012	 -0.08259	 10.95793	709.90002	 31.90	
  8.502	-157.493	 10.67775	  1.66290	  7.28790	  3.53583	  4.98779	 -0.08671	 10.95820	710.50000	 31.90	
  8.491	-168.704	 10.66179	  1.54684	  7.41502	  4.07584	  4.39596	 -0.10165	 10.95377	710.63000	 31.90	
  8.500	180.000	 10.65374	  1.51579	  7.42169	  4.64414	  3.81767	 -0.11047	 10.95431	710.62000	 31.90	
 10.200	180.000	 10.47928	  0.86962	  7.90387	  4.54119	  3.60098	 -0.21411	 10.95650	710.63000	 31.90	
 10.191	-170.497	 10.49065	  0.89233	  7.90695	  3.96713	  4.19104	 -0.20575	 10.95553	710.60999	 31.90	
 10.210	-161.034	 10.49604	  0.97436	  7.81259	  3.40239	  4.78432	 -0.19048	 10.95439	710.65002	 31.90	
 10.194	-151.526	 10.50808	  1.14293	  7.60554	  2.88272	  5.37347	 -0.18130	 10.95695	710.69000	 31.90	
 10.190	-142.105	 10.51364	  1.38735	  7.30185	  2.43116	  5.91359	 -0.18418	 10.95037	710.53998	 31.90	
 10.215	-132.646	 10.52670	  1.69611	  6.92050	  2.01761	  6.43811	 -0.18762	 10.96004	710.66998	 31.80	
 10.203	-123.092	 10.52817	  2.08347	  6.44366	  1.67730	  6.87720	 -0.18050	 10.95655	710.65002	 31.80	
 10.192	-113.678	 10.54181	  2.53199	  5.92056	  1.41164	  7.23709	 -0.17209	 10.95805	710.69000	 31.80	
 10.208	-104.249	 10.54661	  3.02420	  5.35896	  1.22338	  7.49626	 -0.17248	 10.95706	710.78998	 31.80	
 10.210	-94.801	 10.55055	  3.56716	  4.76877	  1.11272	  7.65824	 -0.17370	 10.95425	710.78003	 31.80	
 10.210	-85.199	 10.55739	  4.14410	  4.17563	  1.07399	  7.71987	 -0.16856	 10.95731	710.75000	 31.80	
 10.208	-75.751	 10.56075	  4.73649	  3.60434	  1.12163	  7.66498	 -0.15707	 10.95740	710.44000	 31.80	
 10.192	-66.322	 10.55521	  5.31700	  3.06037	  1.23843	  7.48832	 -0.14133	 10.95497	710.26001	 31.80	
 10.203	-56.908	 10.55726	  5.87460	  2.56981	  1.42842	  7.22532	 -0.14111	 10.95433	710.66998	 31.70	
 10.215	-47.354	 10.55597	  6.40857	  2.11801	  1.69554	  6.86443	 -0.12963	 10.95920	710.65002	 31.70	
 10.190	-37.895	 10.55657	  6.87634	  1.74581	  2.05204	  6.40477	 -0.10573	 10.96184	710.67999	 31.70	
 10.194	-28.474	 10.54641	  7.26821	  1.42837	  2.44473	  5.90896	 -0.08319	 10.95985	710.57001	 31.70	
 10.210	-18.966	 10.54038	  7.56978	  1.19342	  2.91088	  5.35061	 -0.07314	 10.95901	710.65997	 31.70	
 10.191	 -9.503	 10.53501	  7.76495	  1.04762	  3.43613	  4.76199	 -0.06151	 10.95850	710.82001	 31.70	
 10.200	  0.000	 10.51780	  7.85740	  0.95966	  3.98925	  4.16413	 -0.05864	 10.95412	710.08002	 31.70	
 10.191	  9.503	 10.51379	  7.85280	  0.95430	  4.57058	  3.58554	 -0.04260	 10.96061	710.76001	 31.70	
 10.210	 18.966	 10.49994	  7.73915	  1.01011	  5.15807	  3.01708	 -0.03325	 10.95965	710.10999	 31.70	
 10.194	 28.474	 10.49175	  7.51050	  1.16829	  5.72922	  2.51309	 -0.03688	 10.96297	709.97998	 31.70	
 10.190	 37.895	 10.47772	  7.18867	  1.38748	  6.27207	  2.03908	 -0.05859	 10.95990	710.03003	 31.60	
 10.215	 47.354	 10.46795	  6.78719	  1.67266	  6.77770	  1.61873	 -0.07673	 10.96289	710.76001	 31.60	
 10.203	 56.908	 10.45730	  6.29798	  2.03967	  7.21228	  1.26732	 -0.08380	 10.95812	710.65002	 31.60	
 10.192	 66.322	 10.45044	  5.75892	  2.48220	  7.55759	  1.00471	 -0.08241	 10.95817	710.77002	 31.60	
 10.208	 75.751	 10.44401	  5.19086	  2.97448	  7.82425	  0.80378	 -0.10629	 10.95958	710.71997	 31.60	
 10.210	 85.199	 10.43952	  4.60076	  3.50802	  7.97906	  0.68683	 -0.12997	 10.96064	710.53003	 31.60	
 10.210	 94.801	 10.43634	  4.00209	  4.09736	  8.03476	  0.64524	 -0.14528	 10.96459	710.72998	 31.60	
 10.208	104.249	 10.43016	  3.43500	  4.68241	  7.97697	  0.68611	 -0.14560	 10.95897	710.14001	 31.60	
 10.192	113.678	 10.42664	  2.90233	  5.26856	  7.81274	  0.80798	 -0.14336	 10.95815	710.78998	 31.60	
 10.203	123.092	 10.42612	  2.41598	  5.82997	  7.54905	  0.99947	 -0.16116	 10.95277	710.71997	 31.60	
 10.215	132.646	 10.43385	  1.97737	  6.37161	  7.19496	  1.27244	 -0.18015	 10.95808	709.96997	 31.60	
 10.190	142.105	 10.44563	  1.61031	  6.85252	  6.74915	  1.63487	 -0.18607	 10.95953	710.67999	 31.50	
 10.194	151.526	 10.44837	  1.30999	  7.25442	  6.25217	  2.04276	 -0.18568	 10.95391	710.75000	 31.50	
 10.210	161.034	 10.46227	  1.08613	  7.57693	  5.70994	  2.51159	 -0.18736	 10.96109	710.73999	 31.50	
 10.191	170.497	 10.46954	  0.94479	  7.78955	  5.12441	  3.04499	 -0.19991	 10.95713	710.75000	 31.50	
 11.899	171.783	 10.26077	  0.30173	  8.26021	  4.98697	  2.81613	 -0.30215	 10.96380	710.73999	 31.50	
 11.890	163.610	 10.24461	  0.42786	  8.04972	  5.56714	  2.28216	 -0.29233	 10.95678	710.66998	 31.50	
 11.889	155.445	 10.23465	  0.61748	  7.75646	  6.13038	  1.79646	 -0.28989	 10.95803	710.78998	 31.50	
 11.909	147.299	 10.22297	  0.86365	  7.39352	  6.66685	  1.35089	 -0.29287	 10.95644	710.83002	 31.50	
 11.902	139.148	 10.21531	  1.17406	  6.95913	  7.15378	  0.97128	 -0.29347	 10.95794	710.77002	 31.50	
 11.894	130.867	 10.21403	  1.56214	  6.45047	  7.58466	  0.65170	 -0.28117	 10.96048	710.38000	 31.50	
 11.897	122.732	 10.20880	  1.99779	  5.90382	  7.92688	  0.40425	 -0.25977	 10.95706	710.47998	 31.40	
 11.903	114.597	 10.21552	  2.47645	  5.33806	  8.20216	  0.21703	 -0.25120	 10.96312	710.75000	 31.40	
 11.893	106.346	 10.21119	  3.00566	  4.74010	  8.38065	  0.09107	 -0.25737	 10.95993	710.82001	 31.40	
 11.892	 98.155	 10.22184	  3.57401	  4.14314	  8.47741	  0.02458	 -0.26186	 10.96822	710.73999	 31.40	
 11.900	 90.000	 10.21899	  4.15397	  3.55770	  8.46817	  0.02578	 -0.25173	 10.96539	710.71997	 31.40	
 11.892	 81.845	 10.22217	  4.74878	  3.00211	  8.36531	  0.10326	 -0.23351	 10.96195	710.69000	 31.40	
 11.893	 73.654	 10.23183	  5.34806	  2.47069	  8.18123	  0.22856	 -0.21118	 10.96691	710.67999	 31.40	
 11.903	 65.403	 10.23657	  5.92463	  1.98369	  7.90122	  0.42809	 -0.19997	 10.96399	710.70001	 31.40	
 11.897	 57.268	 10.23707	  6.45801	  1.56377	  7.54016	  0.68883	 -0.19575	 10.95595	710.72998	 31.40	
 11.894	 49.133	 10.25071	  6.95553	  1.19750	  7.12142	  1.00871	 -0.19082	 10.96235	710.72998	 31.40	
 11.902	 40.852	 10.25610	  7.39806	  0.87945	  6.62029	  1.39921	 -0.17295	 10.96101	710.65997	 31.40	
 11.909	 32.701	 10.27018	  7.76117	  0.63967	  6.08213	  1.84871	 -0.15062	 10.96446	710.65002	 31.40	
 11.889	 24.555	 10.28232	  8.03331	  0.46839	  5.51145	  2.33923	 -0.13372	 10.96087	710.71002	 31.30	
 11.890	 16.390	 10.29022	  8.22107	  0.35047	  4.93023	  2.86355	 -0.13247	 10.95949	710.65997	 31.30	
 11.899	  8.217	 10.30847	  8.32344	  0.29689	  4.33319	  3.43860	 -0.15104	 10.96753	710.60999	 31.30	
 11.900	  0.000	 10.32190	  8.32768	  0.31830	  3.75440	  4.03350	 -0.16470	 10.96583	710.59998	 31.30	
 11.899	 -8.217	 10.33323	  8.23587	  0.38996	  3.19711	  4.63025	 -0.17607	 10.96576	710.57001	 31.30	
 11.890	-16.390	 10.34677	  8.05125	  0.53631	  2.67417	  5.23442	 -0.18066	 10.96814	710.59998	 31.30	
 11.889	-24.555	 10.35117	  7.77769	  0.73924	  2.19552	  5.80427	 -0.19772	 10.96845	710.70001	 31.30	
 11.909	-32.701	 10.35204	  7.42310	  0.99304	  1.76211	  6.34290	 -0.21708	 10.96301	710.59003	 31.30	
 11.902	-40.852	 10.35640	  6.99538	  1.31900	  1.38162	  6.84043	 -0.23126	 10.96335	710.70001	 31.30	
 11.894	-49.133	 10.36037	  6.49814	  1.71574	  1.06958	  7.27180	 -0.23800	 10.96184	710.59003	 31.30	
 11.897	-57.268	 10.37040	  5.96447	  2.16262	  0.81894	  7.63319	 -0.24140	 10.96188	710.70001	 31.30	
 11.903	-65.403	 10.36840	  5.39556	  2.65430	  0.63182	  7.90531	 -0.24146	 10.96032	710.69000	 31.20	
 11.893	-73.654	 10.36767	  4.80001	  3.19160	  0.50844	  8.09101	 -0.24837	 10.96001	710.60999	 31.20	
 11.892	-81.845	 10.36777	  4.20846	  3.76447	  0.44652	  8.18416	 -0.25755	 10.96313	710.56000	 31.20	
 11.900	-90.000	 10.36644	  3.63591	  4.34475	  0.45596	  8.17863	 -0.25643	 10.96459	710.72998	 31.20	
 11.892	-98.155	 10.36138	  3.07813	  4.93930	  0.51945	  8.07492	 -0.25646	 10.96608	710.67999	 31.20	
 11.893	-106.346	 10.35212	  2.54374	  5.53101	  0.65331	  7.87554	 -0.25576	 10.96128	710.59998	 31.20	
 11.903	-114.597	 10.34558	  2.05842	  6.09930	  0.84815	  7.58920	 -0.25867	 10.96203	710.66998	 31.20	
 11.897	-122.732	 10.33571	  1.62750	  6.62232	  1.10174	  7.22577	 -0.26900	 10.96378	710.69000	 31.20	
 11.894	-130.867	 10.32687	  1.24015	  7.11105	  1.42039	  6.78321	 -0.27833	 10.96488	710.64001	 31.20	
 11.902	-139.148	 10.32224	  0.91548	  7.53494	  1.80917	  6.27745	 -0.28019	 10.96587	710.67999	 31.10	
 11.909	-147.299	 10.31653	  0.65136	  7.88156	  2.24568	  5.73061	 -0.27339	 10.96815	710.69000	 31.10	
 11.889	-155.445	 10.30664	  0.46217	  8.12721	  2.72866	  5.15841	 -0.27333	 10.96355	710.58002	 31.10	
 11.890	-163.610	 10.29808	  0.31864	  8.30492	  3.25771	  4.56154	 -0.28828	 10.96556	710.62000	 31.10	
 11.899	-171.783	 10.28494	  0.25189	  8.38111	  3.81354	  3.96759	 -0.30168	 10.96416	710.59998	 31.10	
 11.900	180.000	 10.27432	  0.24065	  8.37058	  4.39165	  3.38053	 -0.30612	 10.96415	710.65997	 31.10	
 13.600	180.000	 10.02525	 -0.38835	  8.79762	  4.22121	  3.11993	 -0.39835	 10.96750	710.60999	 31.10	
 13.608	-172.853	 10.03275	 -0.38784	  8.81916	  3.64886	  3.68955	 -0.38807	 10.96366	710.58002	 31.10	
 13.611	-165.583	 10.03691	 -0.34133	  8.75593	  3.06982	  4.29634	 -0.37331	 10.96292	710.66998	 31.10	
 13.601	-158.353	 10.05635	 -0.22410	  8.60980	  2.54341	  4.89856	 -0.35208	 10.96610	710.71002	 31.10	
 13.609	-151.210	 10.06209	 -0.06095	  8.38447	  2.03835	  5.49017	 -0.34013	 10.96536	710.76001	 31.10	
 13.611	-143.999	 10.06576	  0.15849	  8.07791	  1.57095	  6.07367	 -0.33738	 10.96255	710.63000	 31.00	
 13.601	-136.825	 10.08391	  0.43957	  7.70676	  1.17644	  6.61141	 -0.33794	 10.97395	710.70001	 31.00	
 13.596	-129.640	 10.08707	  0.76975	  7.26575	  0.83389	  7.08863	 -0.32897	 10.96712	710.65997	 31.00	
 13.611	-122.431	 10.08795	  1.14116	  6.76837	  0.51772	  7.53370	 -0.31832	 10.96133	710.65002	 31.00	
 13.604	-115.211	 10.09679	  1.56618	  6.22728	  0.26995	  7.91091	 -0.30920	 10.95940	710.65002	 31.00	
 13.595	-108.042	 10.10717	  2.03352	  5.66580	  0.06902	  8.21550	 -0.30131	 10.96044	710.71002	 31.00	
 13.607	-100.793	 10.11992	  2.54714	  5.07674	 -0.07584	  8.44458	 -0.31142	 10.96663	710.63000	 31.00	
 13.601	-93.617	 10.13007	  3.09877	  4.47694	 -0.16676	  8.58997	 -0.31237	 10.97710	710.66998	 31.00	
 13.601	-86.383	 10.12870	  3.66528	  3.88454	 -0.19778	  8.63811	 -0.31525	 10.96357	710.65002	 31.00	
 13.607	-79.207	 10.13537	  4.25337	  3.30164	 -0.18483	  8.61845	 -0.31397	 10.97074	710.59003	 31.00	
 13.595	-71.958	 10.14552	  4.85973	  2.74820	 -0.10310	  8.50084	 -0.30618	 10.97638	710.60999	 31.00	
 13.604	-64.789	 10.14407	  5.44639	  2.22436	  0.02609	  8.29730	 -0.30930	 10.97685	710.62000	 31.00	
 13.611	-57.569	 10.13785	  6.02055	  1.73740	  0.20810	  8.01087	 -0.31468	 10.96994	710.62000	 30.90	
 13.596	-50.360	 10.13743	  6.57227	  1.29501	  0.44965	  7.65849	 -0.31741	 10.97286	710.60999	 30.90	
 13.601	-43.175	 10.12435	  7.07497	  0.89830	  0.73257	  7.23580	 -0.33072	 10.96952	710.75000	 30.90	
 13.611	-36.001	 10.12304	  7.53145	  0.55984	  1.07837	  6.75902	 -0.31249	 10.97145	710.66998	 30.90	
 13.609	-28.790	 10.11888	  7.93291	  0.27648	  1.48228	  6.22366	 -0.30210	 10.97302	710.77002	 30.90	
 13.601	-21.647	 10.10518	  8.25803	  0.03869	  1.91925	  5.65559	 -0.28802	 10.96932	710.75000	 30.90	
 13.611	-14.417	 10.09823	  8.51658	 -0.14384	  2.40448	  5.06537	 -0.28052	 10.97117	710.73999	 30.90	
 13.608	 -7.147	 10.09092	  8.68712	 -0.26451	  2.94527	  4.45407	 -0.27922	 10.97310	710.66998	 30.90	
 13.600	  0.000	 10.07343	  8.76713	 -0.33701	  3.49267	  3.85759	 -0.26731	 10.96681	710.67999	 30.90	
 13.608	  7.147	 10.06112	  8.77308	 -0.35761	  4.06262	  3.27353	 -0.25920	 10.97082	710.65997	 30.90	
 13.611	 14.417	 10.03876	  8.68367	 -0.32195	  4.66583	  2.68685	 -0.23925	 10.96125	710.64001	 30.80	
 13.601	 21.647	 10.03661	  8.51964	 -0.21821	  5.27049	  2.15030	 -0.23900	 10.96738	710.75000	 30.80	
 13.609	 28.790	 10.02569	  8.27573	 -0.06888	  5.85226	  1.65389	 -0.24936	 10.97002	710.70001	 30.80	
 13.611	 36.001	 10.01059	  7.94812	  0.12690	  6.41426	  1.18609	 -0.27098	 10.96507	710.78003	 30.80	
 13.601	 43.175	 10.01034	  7.56114	  0.38812	  6.94174	  0.77958	 -0.28750	 10.97298	710.71997	 30.80	
 13.596	 50.360	 10.00262	  7.10771	  0.69886	  7.41705	  0.42466	 -0.30629	 10.97410	710.73999	 30.80	
 13.611	 57.569	  9.98724	  6.59503	  1.06382	  7.84860	  0.10229	 -0.31494	 10.96614	710.71002	 30.80	
 13.604	 64.789	  9.97943	  6.03985	  1.48511	  8.21189	 -0.15056	 -0.31940	 10.96460	710.62000	 30.80	
 13.595	 71.958	  9.97778	  5.46818	  1.95598	  8.51069	 -0.34899	 -0.32594	 10.97495	710.72998	 30.80	
 13.607	 79.207	  9.97004	  4.86765	  2.46956	  8.72551	 -0.48906	 -0.34481	 10.96683	710.65002	 30.80	
 13.601	 86.383	  9.96334	  4.27225	  3.00987	  8.85703	 -0.57509	 -0.36505	 10.96785	710.70001	 30.80	
 13.601	 93.617	  9.95157	  3.67880	  3.57949	  8.90770	 -0.60868	 -0.37940	 10.96457	710.65997	 30.80	
 13.607	100.793	  9.95217	  3.10204	  4.17228	  8.88110	 -0.58809	 -0.38171	 10.96770	710.69000	 30.70	
 13.595	108.042	  9.95239	  2.54721	  4.77634	  8.76297	 -0.51690	 -0.36827	 10.96925	710.63000	 30.70	
 13.604	115.211	  9.95286	  2.03554	  5.36745	  8.56671	 -0.38832	 -0.36999	 10.96699	710.69000	 30.70	
 13.611	122.431	  9.95003	  1.55457	  5.95158	  8.28468	 -0.20471	 -0.37783	 10.96411	710.54999	 30.70	
 13.596	129.640	  9.96204	  1.12870	  6.51002	  7.93890	  0.04359	 -0.39431	 10.97237	710.65997	 30.70	
 13.601	136.825	  9.96176	  0.74755	  7.01938	  7.52440	  0.32699	 -0.40449	 10.96821	710.78003	 30.70	
 13.611	143.999	  9.97318	  0.41544	  7.49458	  7.06039	  0.67348	 -0.40734	 10.97259	710.52002	 30.70	
 13.609	151.210	  9.97964	  0.14394	  7.90209	  6.53076	  1.08230	 -0.39847	 10.96756	710.67999	 30.70	
 13.601	158.353	  9.99850	 -0.06907	  8.24907	  5.98142	  1.53387	 -0.38825	 10.97709	710.58002	 30.70	
 13.611	165.583	 10.00346	 -0.24125	  8.51362	  5.40277	  2.01990	 -0.39232	 10.97106	710.57001	 30.70	
 13.608	172.853	 10.01108	 -0.34193	  8.69736	  4.80194	  2.56036	 -0.39402	 10.96739	710.69000	 30.70	
 15.298	173.587	  9.72667	 -0.94704	  9.08497	  4.59921	  2.28955	 -0.47026	 10.96623	710.75000	 30.70	
 15.291	167.167	  9.71412	 -0.85698	  8.91031	  5.19791	  1.75296	 -0.47128	 10.96787	710.75000	 30.70	
 15.307	160.676	  9.70242	 -0.72053	  8.66291	  5.78117	  1.25508	 -0.47911	 10.97107	710.63000	 30.70	
 15.300	154.261	  9.68917	 -0.54399	  8.34845	  6.34664	  0.78493	 -0.49387	 10.97080	710.75000	 30.70	
 15.288	147.854	  9.68541	 -0.29746	  7.97022	  6.89238	  0.38572	 -0.50313	 10.97244	710.65002	 30.70	
 15.293	141.428	  9.67728	 -0.01261	  7.52717	  7.39460	  0.02915	 -0.50994	 10.97040	710.63000	 30.70	
 15.299	134.985	  9.66930	  0.32256	  7.03926	  7.85227	 -0.28152	 -0.50539	 10.96641	710.72998	 30.60	
 15.305	128.583	  9.66472	  0.69328	  6.51273	  8.26382	 -0.55933	 -0.49435	 10.97127	710.53998	 30.60	
 15.309	122.142	  9.65818	  1.11104	  5.95448	  8.61233	 -0.79117	 -0.48079	 10.97198	710.58002	 30.60	
 15.304	115.711	  9.66292	  1.57806	  5.36878	  8.89643	 -0.96999	 -0.47710	 10.97303	710.71997	 30.60	
 15.297	109.291	  9.65903	  2.07973	  4.77849	  9.10067	 -1.09332	 -0.48614	 10.97573	710.71997	 30.60	
 15.293	102.897	  9.66482	  2.61296	  4.18687	  9.23200	 -1.17138	 -0.49231	 10.97405	710.84003	 30.60	
 15.293	 96.458	  9.66432	  3.18244	  3.58430	  9.28570	 -1.20190	 -0.49483	 10.96791	710.66998	 30.60	
 15.300	 90.000	  9.66842	  3.76790	  2.99901	  9.27645	 -1.20522	 -0.49340	 10.97176	710.82001	 30.60	
 15.293	 83.542	  9.67915	  4.36506	  2.44778	  9.18646	 -1.14305	 -0.48031	 10.97100	710.78998	 30.60	
 15.293	 77.103	  9.67518	  4.96218	  1.91485	  9.02869	 -1.05424	 -0.46298	 10.97074	710.65997	 30.60	
 15.297	 70.709	  9.68295	  5.55503	  1.42653	  8.79331	 -0.90409	 -0.44736	 10.96962	710.78003	 30.60	
 15.304	 64.289	  9.68934	  6.12747	  0.97482	  8.49409	 -0.71421	 -0.44416	 10.96965	710.78003	 30.60	
 15.309	 57.858	  9.69970	  6.68964	  0.56853	  8.12438	 -0.46980	 -0.44036	 10.97440	710.78998	 30.60	
 15.305	 51.417	  9.69972	  7.20294	  0.21530	  7.69166	 -0.17558	 -0.42810	 10.96417	710.77002	 30.50	
 15.299	 45.015	  9.71946	  7.67776	 -0.08807	  7.21814	  0.17258	 -0.41516	 10.97431	710.73999	 30.50	
 15.293	 38.572	  9.72173	  8.09195	 -0.35734	  6.70243	  0.55010	 -0.39319	 10.97411	710.75000	 30.50	
 15.288	 32.146	  9.73973	  8.45138	 -0.56904	  6.15279	  0.98138	 -0.36816	 10.97698	710.65997	 30.50	
 15.300	 25.739	  9.74670	  8.73888	 -0.73859	  5.56968	  1.45528	 -0.34850	 10.97223	710.73999	 30.50	
 15.307	 19.324	  9.75594	  8.95696	 -0.86193	  4.97777	  1.95855	 -0.35234	 10.97148	710.81000	 30.50	
 15.291	 12.833	  9.76675	  9.10460	 -0.93324	  4.38452	  2.49495	 -0.36619	 10.97722	710.71002	 30.50	
 15.298	  6.413	  9.78016	  9.17021	 -0.95865	  3.79048	  3.06630	 -0.36582	 10.97344	710.71997	 30.50	
 15.300	  0.000	  9.79604	  9.16316	 -0.93284	  3.21019	  3.66494	 -0.37348	 10.97283	710.71002	 30.50	
 15.298	 -6.413	  9.80742	  9.08289	 -0.87670	  2.66278	  4.25285	 -0.37507	 10.97219	710.78998	 30.50	
 15.291	-12.833	  9.82394	  8.92336	 -0.76693	  2.13644	  4.86786	 -0.36881	 10.97547	710.75000	 30.50	
 15.307	-19.324	  9.82348	  8.69117	 -0.61844	  1.63573	  5.46967	 -0.37009	 10.97469	710.67999	 30.50	
 15.300	-25.739	  9.84091	  8.39352	 -0.41464	  1.18824	  6.04939	 -0.37284	 10.97733	710.64001	 30.50	
 15.288	-32.146	  9.84999	  8.01877	 -0.16099	  0.77738	  6.61381	 -0.37854	 10.97805	710.58002	 30.50	
 15.293	-38.572	  9.85640	  7.58637	  0.13521	  0.41387	  7.12795	 -0.38885	 10.97711	710.64001	 30.50	
 15.299	-45.015	  9.85711	  7.10799	  0.47098	  0.09626	  7.59097	 -0.38028	 10.97171	710.64001	 30.40	
 15.305	-51.417	  9.86403	  6.59553	  0.85647	 -0.17674	  8.00211	 -0.36910	 10.97180	710.60999	 30.40	
 15.309	-57.858	  9.86270	  6.03437	  1.28553	 -0.41064	  8.36145	 -0.35532	 10.97637	710.62000	 30.40	
 15.304	-64.289	  9.86669	  5.45242	  1.76927	 -0.58979	  8.65148	 -0.34314	 10.97567	710.65002	 30.40	
 15.297	-70.709	  9.86915	  4.86005	  2.28612	 -0.71425	  8.86582	 -0.33730	 10.97627	710.56000	 30.40	
 15.293	-77.103	  9.86746	  4.27104	  2.83128	 -0.79015	  8.99583	 -0.33626	 10.97278	710.66998	 30.40	
 15.293	-83.542	  9.86128	  3.67261	  3.40842	 -0.82519	  9.05190	 -0.33002	 10.97152	710.62000	 30.40	
 15.300	-90.000	  9.85620	  3.09521	  3.99318	 -0.81544	  9.03022	 -0.33263	 10.97377	710.63000	 30.40	
 15.293	-96.458	  9.85815	  2.54087	  4.60067	 -0.74733	  8.93318	 -0.32560	 10.97753	710.73999	 30.40	
 15.293	-102.897	  9.84052	  2.00556	  5.19354	 -0.64700	  8.76723	 -0.32171	 10.97193	710.65997	 30.40	
 15.297	-109.291	  9.83807	  1.52192	  5.77693	 -0.50261	  8.53058	 -0.31694	 10.97821	710.66998	 30.40	
 15.304	-115.711	  9.82720	  1.06919	  6.33882	 -0.30454	  8.21428	 -0.32047	 10.97698	710.65997	 30.40	
 15.309	-122.142	  9.82195	  0.65918	  6.88570	 -0.06287	  7.83373	 -0.33539	 10.97890	710.70001	 30.40	
 15.305	-128.583	  9.81922	  0.29333	  7.38614	  0.23507	  7.39326	 -0.34639	 10.98134	710.64001	 30.40	
 15.299	-134.985	  9.81252	 -0.02509	  7.83761	  0.57382	  6.90325	 -0.35585	 10.97783	710.65002	 30.40	
 15.293	-141.428	  9.80634	 -0.30446	  8.23600	  0.94640	  6.37721	 -0.37112	 10.98024	710.65997	 30.30	
 15.288	-147.854	  9.79536	 -0.53487	  8.57024	  1.37222	  5.80814	 -0.38236	 10.97263	710.65997	 30.30	
 15.300	-154.261	  9.78663	 -0.72123	  8.84551	  1.84109	  5.22019	 -0.38750	 10.97801	710.64001	 30.30	
 15.307	-160.676	  9.78260	 -0.85125	  9.04451	  2.34321	  4.62710	 -0.39819	 10.97756	710.70001	 30.30	
 15.291	-167.167	  9.78262	 -0.94091	  9.16954	  2.88488	  4.02802	 -0.42852	 10.98657	710.62000	 30.30	
 15.298	-173.587	  9.75956	 -0.98721	  9.21399	  3.44959	  3.42136	 -0.44599	 10.97857	710.65997	 30.30	
 15.300	180.000	  9.75097	 -0.99311	  9.19380	  4.02084	  2.84170	 -0.46021	 10.98493	710.71002	 30.30	
 17.000	180.000	  9.42404	 -1.57540	  9.54042	  3.79531	  2.54974	 -0.50403	 10.97426	710.67999	 30.30	
 16.990	-174.179	  9.43982	 -1.57683	  9.57266	  3.22202	  3.12519	 -0.48614	 10.97978	710.58002	 30.30	
 17.009	-168.383	  9.44516	 -1.54799	  9.53874	  2.65649	  3.72181	 -0.46402	 10.98329	710.56000	 30.30	
 17.000	-162.596	  9.46118	 -1.46845	  9.43257	  2.13655	  4.31314	 -0.43969	 10.98063	710.59998	 30.30	
 16.990	-156.759	  9.47066	 -1.35420	  9.25799	  1.63130	  4.91676	 -0.40018	 10.98226	710.65997	 30.20	
 16.995	-150.919	  9.47324	 -1.20689	  9.01878	  1.14551	  5.52043	 -0.38874	 10.97950	710.63000	 30.20	
 16.988	-145.161	  9.48436	 -1.00873	  8.71726	  0.72116	  6.09094	 -0.38270	 10.98180	710.69000	 30.20	
 17.014	-139.343	  9.49158	 -0.77141	  8.35562	  0.32959	  6.63701	 -0.36862	 10.98028	710.63000	 30.20	
 17.007	-133.546	  9.49926	 -0.49253	  7.93306	 -0.02893	  7.16399	 -0.35904	 10.97808	710.59998	 30.20	
 17.001	-127.699	  9.50076	 -0.17108	  7.45883	 -0.35338	  7.64820	 -0.34601	 10.97668	710.58002	 30.20	
 17.006	-121.937	  9.51324	  0.17764	  6.96254	 -0.63045	  8.09015	 -0.32821	 10.98961	710.65997	 30.20	
 17.002	-116.134	  9.52192	  0.57535	  6.41934	 -0.85737	  8.46714	 -0.32463	 10.98074	710.54999	 30.20	
 17.001	-110.310	  9.53142	  1.01563	  5.85830	 -1.04199	  8.78785	 -0.31574	 10.97950	710.59003	 30.20	
 16.988	-104.517	  9.54008	  1.48757	  5.27153	 -1.18490	  9.04814	 -0.31299	 10.98309	710.63000	 30.20	
 17.008	-98.662	  9.54415	  1.98969	  4.67336	 -1.31152	  9.25207	 -0.31291	 10.98595	710.53998	 30.20	
 16.996	-92.909	  9.55603	  2.53048	  4.07618	 -1.37475	  9.37591	 -0.31739	 10.98420	710.56000	 30.20	
 16.996	-87.091	  9.55979	  3.09338	  3.48947	 -1.40365	  9.42544	 -0.32456	 10.98052	710.53998	 30.20	
 17.012	-81.253	  9.55782	  3.67289	  2.90400	 -1.40646	  9.41930	 -0.32532	 10.98336	710.57001	 30.20	
 16.988	-75.483	  9.56600	  4.25798	  2.35678	 -1.35719	  9.32915	 -0.33383	 10.98131	710.53003	 30.20	
 17.001	-69.690	  9.56790	  4.84999	  1.82516	 -1.27782	  9.17985	 -0.34385	 10.98089	710.54999	 30.20	
 17.002	-63.866	  9.56247	  5.44340	  1.32377	 -1.15182	  8.96097	 -0.34541	 10.97897	710.47998	 30.20	
 17.006	-58.063	  9.55591	  6.02028	  0.84720	 -0.99932	  8.67702	 -0.36588	 10.98127	710.56000	 30.10	
 17.001	-52.301	  9.55886	  6.58362	  0.42514	 -0.78214	  8.32672	 -0.38314	 10.98284	710.40002	 30.10	
 17.007	-46.454	  9.55779	  7.11584	  0.03808	 -0.53104	  7.92139	 -0.39427	 10.98496	710.54999	 30.10	
 17.014	-40.657	  9.55219	  7.61969	 -0.30943	 -0.23398	  7.46033	 -0.40585	 10.98779	710.44000	 30.10	
 16.988	-34.839	  9.54888	  8.06869	 -0.60722	  0.10107	  6.95844	 -0.41855	 10.98880	710.39001	 30.10	
 16.995	-29.081	  9.54272	  8.46745	 -0.86121	  0.47242	  6.42964	 -0.41889	 10.99311	710.53003	 30.10	
 16.990	-23.241	  9.53482	  8.80640	 -1.07559	  0.90175	  5.84441	 -0.42704	 10.98208	710.54999	 30.10	
 17.000	-17.404	  9.52426	  9.08276	 -1.24247	  1.35292	  5.26737	 -0.43376	 10.98376	710.51001	 30.10	
 17.009	-11.617	  9.51406	  9.30796	 -1.38626	  1.84182	  4.66213	 -0.44587	 10.98825	710.54999	 30.10	
 16.990	 -5.821	  9.51123	  9.45795	 -1.46836	  2.37769	  4.05437	 -0.44990	 10.98991	710.51001	 30.10	
 17.000	  0.000	  9.49154	  9.53020	 -1.52802	  2.91660	  3.46052	 -0.45645	 10.98454	710.53998	 30.10	
 16.990	  5.821	  9.48358	  9.54096	 -1.53869	  3.49658	  2.87291	 -0.46413	 10.98700	710.59003	 30.10	
 17.009	 11.617	  9.46365	  9.49363	 -1.54216	  4.08364	  2.29710	 -0.45982	 10.99630	710.48999	 30.10	
 17.000	 17.404	  9.44873	  9.36023	 -1.47654	  4.66965	  1.76228	 -0.45489	 10.98432	710.46002	 30.00	
 16.990	 23.241	  9.43373	  9.15962	 -1.37959	  5.26657	  1.24062	 -0.46522	 10.97916	710.41998	 30.00	
 16.995	 29.081	  9.42237	  8.89837	 -1.24026	  5.85856	  0.75915	 -0.47809	 10.97953	710.44000	 30.00	
 16.988	 34.839	  9.41462	  8.58189	 -1.06122	  6.41881	  0.33106	 -0.49804	 10.98560	710.41998	 30.00	
 17.014	 40.657	  9.40096	  8.19946	 -0.84075	  6.96344	 -0.07599	 -0.52824	 10.98438	710.44000	 30.00	
 17.007	 46.454	  9.39305	  7.76120	 -0.57532	  7.47651	 -0.43826	 -0.54926	 10.98169	710.34998	 30.00	
 17.001	 52.301	  9.38836	  7.27953	 -0.26680	  7.94928	 -0.75633	 -0.56493	 10.98640	710.44000	 30.00	
 17.006	 58.063	  9.38319	  6.76019	  0.08127	  8.36445	 -1.02918	 -0.57282	 10.98454	710.42999	 30.00	
 17.002	 63.866	  9.37391	  6.20308	  0.47620	  8.73274	 -1.24793	 -0.57323	 10.98399	710.46002	 30.00	
 17.001	 69.690	  9.36815	  5.62657	  0.91382	  9.04573	 -1.44506	 -0.57759	 10.98362	710.46002	 30.00	
 16.988	 75.483	  9.36515	  5.03808	  1.38614	  9.29638	 -1.58637	 -0.58220	 10.98153	710.46002	 30.00	
 17.012	 81.253	  9.35390	  4.43721	  1.88690	  9.48690	 -1.70590	 -0.60856	 10.98129	710.38000	 30.00	
 16.996	 87.091	  9.35505	  3.84103	  2.42766	  9.60733	 -1.77009	 -0.62056	 10.98859	710.46002	 30.00	
 16.996	 92.909	  9.34780	  3.25628	  2.98607	  9.65346	 -1.80218	 -0.62838	 10.98640	710.44000	 30.00	
 17.008	 98.662	  9.34211	  2.68445	  3.55352	  9.64121	 -1.80526	 -0.62210	 10.98754	710.29999	 30.00	
 16.988	104.517	  9.33826	  2.13052	  4.15227	  9.55492	 -1.74642	 -0.61194	 10.98507	710.46997	 30.00	
 17.001	110.310	  9.33774	  1.61310	  4.76009	  9.40891	 -1.66375	 -0.60292	 10.98573	710.44000	 30.00	
 17.002	116.134	  9.33704	  1.11811	  5.36146	  9.18838	 -1.53917	 -0.59735	 10.98932	710.34998	 30.00	
 17.006	121.937	  9.34143	  0.66236	  5.94914	  8.91044	 -1.37336	 -0.60416	 10.99259	710.34003	 30.00	
 17.001	127.699	  9.34138	  0.25240	  6.50285	  8.56824	 -1.17225	 -0.61390	 10.98738	710.46002	 30.00	
 17.007	133.546	  9.35012	 -0.12102	  7.04974	  8.16726	 -0.90996	 -0.61652	 10.99086	710.41998	 30.00	
 17.014	139.343	  9.35029	 -0.45404	  7.55072	  7.70767	 -0.61146	 -0.62027	 10.98783	710.42999	 30.00	
 16.988	145.161	  9.36057	 -0.73522	  7.99922	  7.21614	 -0.27030	 -0.61121	 10.98403	710.40002	 29.90	
 16.995	150.919	  9.37232	 -0.97508	  8.40716	  6.70353	  0.09729	 -0.59922	 10.99285	710.53003	 29.90	
 16.990	156.759	  9.38883	 -1.16905	  8.76441	  6.14223	  0.52928	 -0.57924	 10.98765	710.45001	 29.90	
 17.000	162.596	  9.40510	 -1.33287	  9.06600	  5.55897	  0.99357	 -0.55401	 10.99568	710.34003	 29.90	
 17.009	168.383	  9.40697	 -1.45529	  9.28815	  4.97930	  1.46972	 -0.53804	 10.98635	710.34003	 29.90	
 16.990	174.179	  9.43023	 -1.53597	  9.45790	  4.38567	  2.00577	 -0.52438	 10.99606	710.31000	 29.90	
 18.709	174.675	  9.06172	 -2.11249	  9.77917	  4.13247	  1.69888	 -0.54496	 10.99144	710.28003	 29.90	
 18.703	169.441	  9.04818	 -2.04346	  9.62245	  4.71417	  1.18726	 -0.57597	 10.98629	710.33002	 29.90	
 18.691	164.085	  9.04027	 -1.93943	  9.40855	  5.30087	  0.69195	 -0.60343	 10.99318	710.35999	 29.90	
 18.706	158.818	  9.02127	 -1.80487	  9.13174	  5.88159	  0.22145	 -0.62675	 10.98857	710.35999	 29.90	
 18.695	153.537	  9.01379	 -1.61829	  8.79440	  6.45104	 -0.18229	 -0.66106	 10.98812	710.34998	 29.90	
 18.704	148.255	  9.00510	 -1.41300	  8.42053	  6.98450	 -0.55181	 -0.67586	 10.99093	710.39001	 29.90	
 18.698	142.952	  8.99301	 -1.16436	  7.99030	  7.50045	 -0.90150	 -0.69565	 10.98585	710.37000	 29.90	
 18.699	137.625	  8.99083	 -0.87891	  7.51887	  7.98862	 -1.21691	 -0.71427	 10.99094	710.34003	 29.90	
 18.705	132.343	  8.98200	 -0.55186	  7.00526	  8.42686	 -1.49350	 -0.71796	 10.99411	710.45001	 29.90	
 18.713	127.067	  8.97932	 -0.18411	  6.46685	  8.81784	 -1.71931	 -0.71428	 10.99184	710.27002	 29.90	
 18.700	121.794	  8.97761	  0.21302	  5.90357	  9.15082	 -1.91770	 -0.71624	 10.98937	710.32001	 29.90	
 18.698	116.504	  8.97297	  0.64942	  5.32232	  9.43723	 -2.07696	 -0.70899	 10.99323	710.38000	 29.80	
 18.707	111.165	  8.97215	  1.12995	  4.72048	  9.66573	 -2.20406	 -0.72100	 10.99089	710.28003	 29.80	
 18.690	105.863	  8.97524	  1.63788	  4.12403	  9.82981	 -2.29843	 -0.72297	 10.99242	710.34998	 29.80	
 18.696	100.583	  8.97575	  2.16788	  3.53357	  9.93200	 -2.35130	 -0.73503	 10.98995	710.34998	 29.80	
 18.700	 95.309	  8.97528	  2.72992	  2.93100	  9.96988	 -2.37915	 -0.74708	 10.98837	710.38000	 29.80	
 18.700	 90.000	  8.98562	  3.30408	  2.36504	  9.95447	 -2.36847	 -0.74641	 10.99433	710.34998	 29.80	
 18.700	 84.691	  8.99245	  3.89546	  1.83148	  9.87835	 -2.32537	 -0.74210	 10.99907	710.35999	 29.80	
 18.696	 79.417	  8.99948	  4.49176	  1.31590	  9.73105	 -2.24210	 -0.72676	 10.99423	710.40997	 29.80	
 18.690	 74.137	  9.00701	  5.08369	  0.83676	  9.52633	 -2.12573	 -0.71717	 10.99467	710.29999	 29.80	
 18.707	 68.835	  9.00794	  5.67065	  0.37872	  9.26380	 -1.98662	 -0.70615	 10.99165	710.40002	 29.80	
 18.698	 63.496	  9.02085	  6.25886	 -0.04264	  8.94353	 -1.79739	 -0.69857	 10.99467	710.35999	 29.80	
 18.700	 58.206	  9.02527	  6.80999	 -0.42151	  8.56777	 -1.57273	 -0.69480	 10.99089	710.45001	 29.80	
 18.713	 52.933	  9.03587	  7.33171	 -0.75789	  8.15533	 -1.32113	 -0.68197	 10.99708	710.35999	 29.80	
 18.705	 47.657	  9.03189	  7.81292	 -1.05998	  7.69174	 -1.03027	 -0.67794	 10.98911	710.46997	 29.80	
 18.699	 42.375	  9.04751	  8.27297	 -1.32926	  7.19157	 -0.69673	 -0.65633	 10.99967	710.38000	 29.80	
 18.698	 37.048	  9.05537	  8.67300	 -1.54557	  6.64784	 -0.30955	 -0.63159	 10.99556	710.48999	 29.80	
 18.704	 31.745	  9.06256	  9.02021	 -1.73599	  6.08940	  0.09818	 -0.60795	 10.99282	710.42999	 29.80	
 18.695	 26.463	  9.07678	  9.30989	 -1.88863	  5.51933	  0.53619	 -0.58740	 10.99509	710.39001	 29.80	
 18.706	 21.182	  9.08384	  9.54298	 -1.99756	  4.92622	  1.02421	 -0.56421	 10.99073	710.44000	 29.80	
 18.691	 15.915	  9.10203	  9.71912	 -2.07438	  4.33708	  1.53773	 -0.55578	 10.99641	710.39001	 29.80	
 18.703	 10.559	  9.11085	  9.83227	 -2.12699	  3.74311	  2.07327	 -0.55462	 10.99750	710.39001	 29.70	
 18.709	  5.325	  9.12551	  9.88211	 -2.14044	  3.16002	  2.63129	 -0.53963	 10.99815	710.33002	 29.70	
 18.700	  0.000	  9.13826	  9.86435	 -2.11701	  2.60092	  3.21616	 -0.52945	 10.99178	710.51001	 29.70	
 18.709	 -5.325	  9.15363	  9.79372	 -2.06967	  2.05845	  3.80593	 -0.51231	 10.99803	710.38000	 29.70	
 18.703	-10.559	  9.16825	  9.65380	 -1.98931	  1.53971	  4.41473	 -0.49493	 10.99713	710.39001	 29.70	
 18.691	-15.915	  9.18052	  9.44634	 -1.85860	  1.05746	  5.01742	 -0.48631	 10.99610	710.38000	 29.70	
 18.706	-21.182	  9.18839	  9.19184	 -1.71673	  0.59878	  5.60952	 -0.46511	 10.99347	710.42999	 29.70	
 18.695	-26.463	  9.19551	  8.86255	 -1.52670	  0.17913	  6.18966	 -0.44730	 10.99479	710.35999	 29.70	
 18.704	-31.745	  9.20639	  8.50137	 -1.30563	 -0.20332	  6.75009	 -0.42860	 11.00401	710.32001	 29.70	
 18.698	-37.048	  9.21875	  8.07495	 -1.04336	 -0.54646	  7.27313	 -0.41590	 10.99992	710.33002	 29.70	
 18.699	-42.375	  9.22239	  7.60532	 -0.73449	 -0.86143	  7.77243	 -0.40500	 11.00325	710.41998	 29.70	
 18.705	-47.657	  9.21943	  7.08839	 -0.39447	 -1.13869	  8.21958	 -0.38246	 10.99928	710.31000	 29.70	
 18.713	-52.933	  9.23154	  6.55748	 -0.01972	 -1.37340	  8.61917	 -0.36392	 11.00071	710.40002	 29.70	
 18.700	-58.206	  9.23297	  5.99843	  0.38330	 -1.56436	  8.95712	 -0.33827	 10.99807	710.29999	 29.70	
 18.698	-63.496	  9.23210	  5.41758	  0.84077	 -1.72188	  9.24897	 -0.33320	 10.99770	710.34998	 29.70	
 18.707	-68.835	  9.23822	  4.82100	  1.33089	 -1.85480	  9.48483	 -0.32068	 11.00539	710.46997	 29.70	
 18.690	-74.137	  9.23207	  4.22640	  1.84519	 -1.94201	  9.64682	 -0.30938	 10.99634	710.29999	 29.70	
 18.696	-79.417	  9.22693	  3.63931	  2.39213	 -2.00105	  9.74886	 -0.30488	 10.99867	710.32001	 29.70	
 18.700	-84.691	  9.22553	  3.05827	  2.95484	 -2.02225	  9.79189	 -0.30106	 11.00376	710.38000	 29.70	
 18.700	-90.000	  9.21343	  2.49226	  3.55092	 -2.01720	  9.76428	 -0.29413	 10.99711	710.29999	 29.70	
 18.700	-95.309	  9.21154	  1.95123	  4.15469	 -1.95732	  9.67374	 -0.30060	 10.99587	710.32001	 29.60	
 18.696	-100.583	  9.20381	  1.43281	  4.75282	 -1.88675	  9.52625	 -0.29684	 10.99967	710.38000	 29.60	
 18.690	-105.863	  9.19688	  0.95447	  5.33654	 -1.77972	  9.31398	 -0.28996	 11.00170	710.42999	 29.60	
 18.707	-111.165	  9.18618	  0.49676	  5.90868	 -1.66308	  9.04507	 -0.28960	 11.00107	710.35999	 29.60	
 18.698	-116.504	  9.18059	  0.07429	  6.48424	 -1.45913	  8.70590	 -0.29048	 10.99862	710.25000	 29.60	
 18.700	-121.794	  9.17714	 -0.29825	  7.03243	 -1.20875	  8.32327	 -0.30746	 11.00133	710.35999	 29.60	
 18.713	-127.067	  9.16840	 -0.65010	  7.53555	 -0.96079	  7.89362	 -0.32208	 11.00104	710.33002	 29.60	
 18.705	-132.343	  9.16023	 -0.96445	  8.00398	 -0.66949	  7.41752	 -0.32929	 11.00309	710.35999	 29.60	
 18.699	-137.625	  9.16126	 -1.24096	  8.43835	 -0.32549	  6.90378	 -0.35053	 11.00707	710.34003	 29.60	
 18.698	-142.952	  9.15402	 -1.47341	  8.82106	  0.05506	  6.34982	 -0.35494	 11.00157	710.26001	 29.60	
 18.704	-148.255	  9.14473	 -1.68064	  9.15137	  0.46318	  5.78089	 -0.37470	 10.99905	710.44000	 29.60	
 18.695	-153.537	  9.14258	 -1.84690	  9.42991	  0.90314	  5.20256	 -0.40392	 11.00854	710.38000	 29.60	
 18.706	-158.818	  9.12447	 -1.97660	  9.63919	  1.38049	  4.59539	 -0.41496	 10.99729	710.38000	 29.60	
 18.691	-164.085	  9.12349	 -2.06978	  9.79224	  1.88677	  4.00726	 -0.43558	 11.00300	710.34998	 29.60	
 18.703	-169.441	  9.10367	 -2.14422	  9.88141	  2.41944	  3.40114	 -0.46444	 11.00266	710.27002	 29.60	
 18.709	-174.675	  9.09093	 -2.18571	  9.91313	  2.96187	  2.81473	 -0.49361	 11.00303	710.34003	 29.60	
 18.700	180.000	  9.08121	 -2.18750	  9.88168	  3.52842	  2.24868	 -0.51518	 11.00029	710.31000	 29.60	
 20.400	180.000	  8.68796	 -2.73330	 10.15671	  3.26690	  1.92550	 -0.51372	 11.00351	710.39001	 29.50	
 20.401	-175.153	  8.69971	 -2.72426	 10.18679	  2.72042	  2.47961	 -0.48000	 10.99912	710.28003	 29.50	
 20.407	-170.264	  8.71259	 -2.69517	 10.16892	  2.16809	  3.05986	 -0.45102	 11.00380	710.37000	 29.50	
 20.410	-165.423	  8.72738	 -2.64401	 10.09834	  1.65341	  3.64197	 -0.42773	 11.00807	710.44000	 29.50	
 20.392	-160.496	  8.73639	 -2.55724	  9.95884	  1.15005	  4.24326	 -0.40759	 11.00016	710.39001	 29.50	
 20.401	-155.705	  8.74524	 -2.45056	  9.77384	  0.68198	  4.82842	 -0.39292	 11.00353	710.47998	 29.50	
 20.405	-150.835	  8.75538	 -2.31028	  9.53079	  0.23633	  5.41991	 -0.37756	 11.00646	710.37000	 29.50	
 20.397	-145.903	  8.76804	 -2.13394	  9.22836	 -0.16861	  6.00514	 -0.35176	 11.00680	710.38000	 29.50	
 20.392	-141.062	  8.77157	 -1.92499	  8.87547	 -0.55702	  6.56674	 -0.33838	 11.00489	710.37000	 29.50	
 20.396	-136.227	  8.76902	 -1.69208	  8.47259	 -0.90250	  7.09802	 -0.32481	 10.99602	710.34998	 29.50	
 20.408	-131.372	  8.78167	 -1.42118	  8.04613	 -1.21109	  7.60191	 -0.31668	 11.00500	710.34003	 29.50	
 20.410	-126.511	  8.79323	 -1.11083	  7.56589	 -1.48503	  8.08046	 -0.30684	 11.00910	710.32001	 29.50	
 20.400	-121.604	  8.79842	 -0.77151	  7.04583	 -1.72803	  8.51130	 -0.29444	 11.00617	710.34998	 29.50	
 20.403	-116.741	  8.80480	 -0.41170	  6.50838	 -1.94864	  8.90225	 -0.28622	 11.00843	710.23999	 29.50	
 20.413	-111.900	  8.81124	 -0.01327	  5.94802	 -2.13583	  9.23916	 -0.28831	 11.01063	710.22998	 29.50	
 20.398	-107.004	  8.81766	  0.43368	  5.36517	 -2.27813	  9.52131	 -0.28476	 11.00857	710.28003	 29.50	
 20.394	-102.132	  8.82584	  0.89218	  4.78229	 -2.38861	  9.74256	 -0.29344	 11.00425	710.37000	 29.50	
 20.403	-97.332	  8.83276	  1.37482	  4.19718	 -2.47818	  9.91259	 -0.27824	 11.00771	710.34003	 29.50	
 20.392	-92.440	  8.84478	  1.90772	  3.60734	 -2.51932	 10.02088	 -0.28569	 11.00348	710.28998	 29.50	
 20.392	-87.560	  8.85304	  2.44758	  3.02793	 -2.54889	 10.07837	 -0.28362	 11.00352	710.28003	 29.40	
 20.403	-82.668	  8.85002	  3.00803	  2.44499	 -2.55863	 10.07807	 -0.28284	 11.00283	710.40997	 29.40	
 20.394	-77.868	  8.85960	  3.58280	  1.89741	 -2.53484	 10.02369	 -0.29123	 11.00890	710.40002	 29.40	
 20.398	-72.996	  8.85386	  4.16235	  1.35018	 -2.48077	  9.90537	 -0.30173	 11.00011	710.34003	 29.40	
 20.413	-68.100	  8.85448	  4.76123	  0.83807	 -2.39229	  9.73217	 -0.30100	 11.00689	710.34998	 29.40	
 20.403	-63.259	  8.85925	  5.35285	  0.37957	 -2.27304	  9.50245	 -0.32316	 11.00897	710.40997	 29.40	
 20.400	-58.396	  8.86110	  5.93362	 -0.06069	 -2.11990	  9.21200	 -0.32978	 11.00933	710.29999	 29.40	
 20.410	-53.489	  8.85971	  6.49674	 -0.46461	 -1.94195	  8.86569	 -0.34376	 11.01070	710.28003	 29.40	
 20.408	-48.628	  8.84856	  7.04207	 -0.85411	 -1.72608	  8.46867	 -0.35311	 11.00661	710.31000	 29.40	
 20.396	-43.773	  8.83818	  7.54842	 -1.21199	 -1.48258	  8.02717	 -0.36013	 11.00949	710.28003	 29.40	
 20.392	-38.938	  8.83924	  8.02862	 -1.50451	 -1.19207	  7.54716	 -0.38005	 11.01346	710.33002	 29.40	
 20.397	-34.097	  8.83485	  8.47178	 -1.75862	 -0.87263	  7.03566	 -0.39157	 11.00658	710.37000	 29.40	
 20.405	-29.165	  8.82176	  8.87635	 -1.99233	 -0.51449	  6.47649	 -0.42429	 11.00296	710.34003	 29.40	
 20.401	-24.295	  8.81341	  9.23002	 -2.19737	 -0.13666	  5.90846	 -0.43573	 11.00737	710.41998	 29.40	
 20.392	-19.504	  8.80783	  9.52265	 -2.34301	  0.28980	  5.32989	 -0.46402	 11.00753	710.34998	 29.40	
 20.410	-14.577	  8.79326	  9.76971	 -2.46882	  0.73800	  4.73595	 -0.49389	 11.00463	710.42999	 29.40	
 20.407	 -9.736	  8.78151	  9.95460	 -2.55804	  1.21523	  4.14625	 -0.50656	 11.00134	710.40002	 29.40	
 20.401	 -4.847	  8.77254	 10.08607	 -2.62144	  1.73440	  3.54290	 -0.52741	 11.00596	710.32001	 29.40	
 20.400	  0.000	  8.75675	 10.15194	 -2.67004	  2.26131	  2.96306	 -0.55539	 11.00295	710.34003	 29.30	
 20.401	  4.847	  8.74590	 10.16923	 -2.68657	  2.80949	  2.39057	 -0.57765	 10.99906	710.39001	 29.30	
 20.407	  9.736	  8.73075	 10.13025	 -2.68073	  3.39299	  1.82795	 -0.60279	 11.00237	710.37000	 29.30	
 20.410	 14.577	  8.71684	 10.03818	 -2.65392	  3.96420	  1.30422	 -0.63132	 11.00552	710.34998	 29.30	
 20.392	 19.504	  8.70546	  9.88031	 -2.58279	  4.56749	  0.78084	 -0.64827	 11.00527	710.34998	 29.30	
 20.401	 24.295	  8.69729	  9.67952	 -2.49621	  5.15353	  0.30270	 -0.67286	 11.01303	710.40997	 29.30	
 20.405	 29.165	  8.68361	  9.40812	 -2.36779	  5.72782	 -0.14381	 -0.69279	 11.00668	710.37000	 29.30	
 20.397	 34.097	  8.67498	  9.07891	 -2.20415	  6.30829	 -0.56440	 -0.72049	 11.00735	710.31000	 29.30	
 20.392	 38.938	  8.65933	  8.71265	 -2.03741	  6.85010	 -0.94802	 -0.73258	 11.00338	710.28998	 29.30	
 20.396	 43.773	  8.65230	  8.30171	 -1.80808	  7.37771	 -1.29667	 -0.76034	 11.00675	710.33002	 29.30	
 20.408	 48.628	  8.64530	  7.84796	 -1.56322	  7.86813	 -1.60508	 -0.77439	 11.00779	710.34998	 29.30	
 20.410	 53.489	  8.63651	  7.34542	 -1.27288	  8.32750	 -1.88221	 -0.78597	 11.00313	710.39001	 29.30	
 20.400	 58.396	  8.62936	  6.81332	 -0.95038	  8.74833	 -2.13188	 -0.79001	 11.00356	710.35999	 29.30	
 20.403	 63.259	  8.62357	  6.26416	 -0.58772	  9.12509	 -2.34524	 -0.80196	 11.00434	710.39001	 29.30	
 20.413	 68.100	  8.61438	  5.69060	 -0.18151	  9.44691	 -2.52400	 -0.80712	 11.00179	710.34998	 29.30	
 20.398	 72.996	  8.60903	  5.09821	  0.26887	  9.71622	 -2.66563	 -0.81652	 11.00023	710.33002	 29.30	
 20.394	 77.868	  8.60858	  4.51044	  0.73273	  9.93224	 -2.77922	 -0.82167	 11.00149	710.44000	 29.30	
 20.403	 82.668	  8.59550	  3.92083	  1.21591	 10.09159	 -2.87105	 -0.83003	 11.00178	710.44000	 29.30	
 20.392	 87.560	  8.59175	  3.32967	  1.74486	 10.19208	 -2.92312	 -0.83536	 10.99722	710.31000	 29.30	
 20.392	 92.440	  8.58837	  2.75731	  2.30604	 10.24694	 -2.95406	 -0.83436	 11.00128	710.34998	 29.30	
 20.403	 97.332	  8.58319	  2.18755	  2.87668	 10.24839	 -2.95880	 -0.83338	 11.00808	710.31000	 29.30	
 20.394	102.132	  8.57618	  1.65049	  3.45565	 10.18635	 -2.92859	 -0.82656	 11.00430	710.32001	 29.20	
 20.398	107.004	  8.57098	  1.13537	  4.03717	 10.07151	 -2.87412	 -0.81709	 10.99887	710.32001	 29.20	
 20.413	111.900	  8.56518	  0.63643	  4.63287	  9.90203	 -2.79127	 -0.81297	 11.00743	710.20001	 29.20	
 20.403	116.741	  8.56590	  0.17992	  5.22077	  9.66904	 -2.67692	 -0.80975	 10.99930	710.35999	 29.20	
 20.400	121.604	  8.57442	 -0.24046	  5.80864	  9.38259	 -2.51378	 -0.80081	 10.99972	710.37000	 29.20	
 20.410	126.511	  8.57740	 -0.64348	  6.38331	  9.04874	 -2.34296	 -0.79415	 11.00581	710.40997	 29.20	
 20.408	131.372	  8.57760	 -1.00427	  6.92909	  8.66199	 -2.12627	 -0.77720	 11.00412	710.32001	 29.20	
 20.396	136.227	  8.58881	 -1.31883	  7.44722	  8.23715	 -1.85175	 -0.76711	 11.00488	710.37000	 29.20	
 20.392	141.062	  8.59972	 -1.59760	  7.93029	  7.77786	 -1.56918	 -0.74321	 11.00245	710.37000	 29.20	
 20.397	145.903	  8.61148	 -1.85371	  8.38431	  7.27739	 -1.25360	 -0.72546	 11.00689	710.32001	 29.20	
 20.405	150.835	  8.61163	 -2.07473	  8.79138	  6.73601	 -0.90404	 -0.69485	 10.99977	710.23999	 29.20	
 20.401	155.705	  8.62699	 -2.25782	  9.15335	  6.20177	 -0.52927	 -0.66694	 11.00606	710.33002	 29.20	
 20.392	160.496	  8.63739	 -2.40851	  9.45981	  5.63523	 -0.11124	 -0.63892	 11.00352	710.35999	 29.20	
 20.410	165.423	  8.65006	 -2.53747	  9.72870	  5.04373	  0.34837	 -0.60628	 11.00872	710.34003	 29.20	
 20.407	170.264	  8.66334	 -2.63129	  9.92705	  4.47198	  0.82256	 -0.57275	 11.00632	710.39001	 29.20	
 20.401	175.153	  8.67848	 -2.69645	 10.07223	  3.85692	  1.35856	 -0.52740	 11.00825	710.31000	 29.20	
  0.141	 45.000	 11.02614	  4.68091	  4.65660	  4.86870	  4.43109	  0.25894	 11.00728	710.42999	 29.20	
  4.001	128.691	 10.97515	  3.81227	  5.36535	  5.91862	  3.28635	  0.17008	 11.01153	710.40002	 29.20	
  4.002	 76.995	 10.97553	  4.93854	  4.19683	  6.08971	  3.11594	  0.21031	 11.01131	710.32001	 29.20	
  4.002	 25.892	 10.98520	  5.85203	  3.37292	  5.23934	  3.87419	  0.24115	 11.00438	710.40997	 29.20	
  4.002	-25.892	 11.00391	  5.77411	  3.49760	  4.07743	  5.07296	  0.22274	 11.01158	710.35999	 29.20	
  4.002	-76.995	 11.00090	  4.76851	  4.44782	  3.46548	  5.79323	  0.19937	 11.00998	710.34003	 29.20	
  4.001	-128.691	 10.99658	  3.68516	  5.59884	  3.79953	  5.40234	  0.16921	 11.00940	710.22998	 29.20	
  4.000	180.000	 10.97758	  3.25965	  6.03870	  4.84149	  4.28660	  0.15799	 11.00892	710.28003	 29.20	
  8.000	180.000	 10.75258	  1.72101	  7.29978	  4.69991	  3.89089	 -0.07261	 11.00766	710.29999	 29.20	
  7.991	-152.370	 10.77612	  1.94156	  7.07952	  3.42693	  5.23897	 -0.04934	 11.00573	710.28003	 29.20	
  7.997	-124.550	 10.79057	  2.67555	  6.21453	  2.47124	  6.38639	 -0.04802	 11.00633	710.34003	 29.20	
  8.006	-96.837	 10.80912	  3.82015	  4.95176	  1.99443	  7.03429	 -0.03384	 11.00780	710.25000	 29.20	
  7.988	-69.228	 10.81279	  5.14110	  3.65186	  2.05203	  6.96474	 -0.00564	 11.00954	710.31000	 29.20	
  7.997	-41.563	 10.80896	  6.34564	  2.58053	  2.61975	  6.22517	  0.03371	 11.01115	710.31000	 29.20	
  8.008	-13.821	 10.79985	  7.11805	  1.93243	  3.63568	  5.01035	  0.06266	 11.01196	710.33002	 29.20	
  8.008	 13.821	 10.77525	  7.21893	  1.81402	  4.92656	  3.67677	  0.08936	 11.01322	710.31000	 29.20	
  7.997	 41.563	 10.75504	  6.61741	  2.23840	  6.21135	  2.50964	  0.06915	 11.01209	710.26001	 29.10	
  7.988	 69.228	 10.73620	  5.49473	  3.15422	  7.13086	  1.74554	  0.05057	 11.01412	710.23999	 29.10	
  8.006	 96.837	 10.72297	  4.14748	  4.41635	  7.43372	  1.49877	 -0.00606	 11.01611	710.31000	 29.10	
  7.997	124.550	 10.72099	  2.91702	  5.76011	  7.01981	  1.82754	 -0.02167	 11.01187	710.21002	 29.10	
  7.991	152.370	 10.73485	  2.07087	  6.81471	  6.01849	  2.66905	 -0.04532	 11.01242	710.28998	 29.10	
 12.009	161.059	 10.27627	  0.43291	  8.02961	  5.78237	  2.10138	 -0.29412	 11.00924	710.20001	 29.10	
 12.013	142.081	 10.25763	  1.02784	  7.17202	  7.03380	  1.07556	 -0.29907	 11.01609	710.25000	 29.10	
 12.006	123.113	 10.24851	  1.95526	  5.96486	  7.97946	  0.37442	 -0.27330	 11.01457	710.33002	 29.10	
 12.007	104.200	 10.24037	  3.14395	  4.59158	  8.48012	  0.01490	 -0.26613	 11.00767	710.27002	 29.10	
 11.989	 85.301	 10.25694	  4.50997	  3.22810	  8.49027	  0.01773	 -0.24928	 11.01644	710.27002	 29.10	
 12.013	 66.294	 10.27213	  5.90138	  2.01163	  7.99749	  0.36601	 -0.20540	 11.01486	710.27002	 29.10	
 12.012	 47.388	 10.28863	  7.11145	  1.07614	  7.06742	  1.04737	 -0.19123	 11.01728	710.33002	 29.10	
 11.990	 28.440	 10.30881	  7.97456	  0.49454	  5.81211	  2.08105	 -0.14070	 11.01069	710.28998	 29.10	
 11.991	  9.464	 10.33630	  8.37668	  0.25899	  4.43377	  3.34856	 -0.14991	 11.00897	710.25000	 29.10	
 11.991	 -9.464	 10.36745	  8.27911	  0.36624	  3.10971	  4.74100	 -0.17515	 11.01405	710.26001	 29.10	
 11.990	-28.440	 10.38693	  7.67224	  0.82293	  1.97278	  6.09874	 -0.19861	 11.00987	710.26001	 29.10	
 12.012	-47.388	 10.39172	  6.65000	  1.60379	  1.09965	  7.24403	 -0.24166	 11.00739	710.27002	 29.10	
 12.013	-66.294	 10.40965	  5.36757	  2.69317	  0.58310	  7.99648	 -0.24070	 11.01477	710.38000	 29.10	
 11.989	-85.301	 10.40462	  3.97465	  4.01608	  0.41506	  8.25307	 -0.25893	 11.01104	710.37000	 29.10	
 12.007	-104.200	 10.38149	  2.66674	  5.39806	  0.57331	  7.99508	 -0.25899	 11.00775	710.31000	 29.10	
 12.006	-123.113	 10.37230	  1.58483	  6.69030	  1.08711	  7.25898	 -0.27007	 11.01526	710.28998	 29.10	
 12.013	-142.081	 10.34808	  0.78192	  7.71201	  1.94144	  6.12025	 -0.27937	 11.00906	710.29999	 29.10	
 12.009	-161.059	 10.33559	  0.31520	  8.31895	  3.07712	  4.76969	 -0.28460	 11.01202	710.26001	 29.10	
 16.000	180.000	  9.64851	 -1.23729	  9.36919	  3.94088	  2.73455	 -0.48231	 11.01055	710.34998	 29.10	
 15.990	-165.604	  9.67365	 -1.17528	  9.31438	  2.61401	  4.11041	 -0.43593	 11.00991	710.28003	 29.10	
 16.002	-151.165	  9.69218	 -0.88328	  8.88408	  1.42933	  5.52036	 -0.38757	 11.01125	710.28003	 29.00	
 16.002	-136.836	  9.71938	 -0.33338	  8.07808	  0.47278	  6.83059	 -0.36269	 11.01361	710.28998	 29.10	
 15.995	-122.439	  9.72769	  0.44515	  6.96726	 -0.27995	  7.93843	 -0.33554	 11.01112	710.31000	 29.00	
 15.993	-107.966	  9.75048	  1.45706	  5.65552	 -0.77229	  8.74603	 -0.31584	 11.01326	710.21997	 29.00	
 16.005	-93.629	  9.77026	  2.66539	  4.26750	 -1.02233	  9.17836	 -0.32559	 11.01573	710.26001	 29.00	
 15.992	-79.234	  9.77782	  4.01499	  2.90306	 -1.03929	  9.20450	 -0.33013	 11.00930	710.26001	 29.00	
 16.009	-64.774	  9.77844	  5.40688	  1.64380	 -0.84170	  8.84616	 -0.34346	 11.01532	710.31000	 29.00	
 15.997	-50.364	  9.77228	  6.73770	  0.58959	 -0.37303	  8.08370	 -0.37889	 11.01310	710.28003	 29.00	
 15.997	-36.045	  9.76435	  7.88728	 -0.22479	  0.33319	  7.01758	 -0.39914	 11.01893	710.22998	 29.00	
 16.000	-21.597	  9.74035	  8.75171	 -0.79645	  1.29587	  5.69990	 -0.40064	 11.01296	710.29999	 29.00	
 16.003	 -7.169	  9.72349	  9.25314	 -1.11464	  2.45988	  4.29507	 -0.40686	 11.01452	710.34998	 29.00	
 16.003	  7.169	  9.69730	  9.35840	 -1.20529	  3.78141	  2.90465	 -0.40390	 11.01787	710.35999	 29.00	
 16.000	 21.597	  9.66224	  9.06660	 -1.07454	  5.17567	  1.61930	 -0.39142	 11.01879	710.34998	 29.00	
 15.997	 36.045	  9.63542	  8.38812	 -0.68962	  6.53868	  0.51741	 -0.43407	 11.01833	710.21997	 29.00	
 15.997	 50.364	  9.61601	  7.38449	 -0.06701	  7.72366	 -0.35361	 -0.48448	 11.02008	710.22998	 29.00	
 16.009	 64.774	  9.59442	  6.12411	  0.81857	  8.65958	 -0.96869	 -0.49770	 11.01139	710.23999	 29.00	
 15.992	 79.234	  9.58447	  4.74553	  1.93665	  9.25737	 -1.32679	 -0.52330	 11.01114	710.25000	 29.00	
 16.005	 93.629	  9.57202	  3.34810	  3.22244	  9.48421	 -1.46772	 -0.55913	 11.01616	710.13000	 29.00	
 15.993	107.966	  9.56591	  2.04802	  4.61006	  9.31010	 -1.35798	 -0.53739	 11.01515	710.23999	 29.00	
 15.995	122.439	  9.56618	  0.90811	  6.00485	  8.74964	 -1.01552	 -0.53657	 11.01809	710.26001	 29.00	
 16.002	136.836	  9.58029	  0.00781	  7.27286	  7.83555	 -0.41360	 -0.55808	 11.01287	710.21997	 29.00	
 16.002	151.165	  9.59976	 -0.65565	  8.30869	  6.67149	  0.41180	 -0.54801	 11.02091	710.28998	 29.00	
 15.990	165.604	  9.63011	 -1.06506	  9.02995	  5.33409	  1.47370	 -0.50644	 11.01832	710.23999	 29.00	
 20.003	168.362	  8.76750	 -2.46323	  9.80732	  4.74023	  0.77276	 -0.60024	 11.01872	710.25000	 29.00	
 20.008	156.764	  8.73554	 -2.16431	  9.19692	  6.09315	 -0.27397	 -0.67323	 11.01592	710.31000	 29.00	
 20.000	145.147	  8.71964	 -1.68629	  8.30064	  7.35436	 -1.15048	 -0.73099	 11.01537	710.21002	 29.00	
 19.995	133.545	  8.70071	 -1.02422	  7.17905	  8.45745	 -1.84345	 -0.77142	 11.02165	710.31000	 28.90	
 20.009	121.926	  8.68991	 -0.15632	  5.88653	  9.32757	 -2.34070	 -0.79426	 11.01968	710.28998	 28.90	
 20.005	110.327	  8.68612	  0.89792	  4.50646	  9.91934	 -2.65828	 -0.80019	 11.01946	710.22998	 28.90	
 19.989	 98.733	  8.68961	  2.11666	  3.12827	 10.17860	 -2.79660	 -0.81761	 11.01410	710.17999	 28.90	
 19.999	 87.075	  8.70440	  3.45611	  1.79749	 10.14598	 -2.78458	 -0.82814	 11.01838	710.32001	 28.90	
 19.992	 75.457	  8.71749	  4.84211	  0.61674	  9.79770	 -2.59740	 -0.80610	 11.02065	710.29999	 28.90	
 20.009	 63.844	  8.72744	  6.20826	 -0.39937	  9.13713	 -2.23997	 -0.79116	 11.01591	710.25000	 28.90	
 19.989	 52.269	  8.75329	  7.46913	 -1.19902	  8.20421	 -1.68162	 -0.77180	 11.02000	710.32001	 28.90	
 19.999	 40.602	  8.75774	  8.54983	 -1.83432	  7.04647	 -0.96642	 -0.73705	 11.01703	710.32001	 28.90	
 20.004	 29.051	  8.78684	  9.37388	 -2.25948	  5.74822	 -0.03553	 -0.67678	 11.01820	710.21002	 28.90	
 20.005	 17.433	  8.81271	  9.90885	 -2.51507	  4.36762	  1.07753	 -0.63380	 11.02347	710.29999	 28.90	
 20.006	  5.780	  8.83666	 10.11607	 -2.58885	  2.99564	  2.34366	 -0.58388	 11.01134	710.22998	 28.90	
 20.006	 -5.780	  8.87525	 10.01965	 -2.51986	  1.72552	  3.70774	 -0.53865	 11.01763	710.26001	 28.90	
 20.005	-17.433	  8.90618	  9.59576	 -2.28883	  0.57699	  5.11421	 -0.48733	 11.02338	710.31000	 28.90	
 20.004	-29.051	  8.92928	  8.85559	 -1.86708	 -0.39786	  6.48262	 -0.44477	 11.02148	710.28998	 28.90	
 19.999	-40.602	  8.94432	  7.85780	 -1.26397	 -1.17278	  7.70734	 -0.39153	 11.01974	710.34998	 28.90	
 19.989	-52.269	  8.96676	  6.64657	 -0.45532	 -1.76077	  8.73372	 -0.35140	 11.02353	710.28003	 28.90	
 20.009	-63.844	  8.96250	  5.31320	  0.51577	 -2.17814	  9.48814	 -0.32179	 11.02459	710.35999	 28.90	
 19.992	-75.457	  8.96332	  3.92619	  1.69928	 -2.40027	  9.92297	 -0.30323	 11.02615	710.34998	 28.90	
 19.999	-87.075	  8.95591	  2.57241	  3.04008	 -2.44155	 10.03289	 -0.29327	 11.02402	710.28998	 28.90	
 19.989	-98.733	  8.93847	  1.31797	  4.42655	 -2.33314	  9.81989	 -0.28983	 11.01928	710.16998	 28.90	
 20.005	-110.327	  8.92167	  0.23440	  5.79319	 -2.06293	  9.29341	 -0.28962	 11.02632	710.31000	 28.90	
 20.009	-121.926	  8.90201	 -0.68210	  7.08946	 -1.59162	  8.46115	 -0.30565	 11.02126	710.32001	 28.90	
 19.995	-133.545	  8.88368	 -1.42173	  8.22824	 -0.95820	  7.38166	 -0.32219	 11.02353	710.27002	 28.80	
 20.000	-145.147	  8.87703	 -1.98376	  9.14704	 -0.12591	  6.11297	 -0.35672	 11.02612	710.35999	 28.90	
 20.008	-156.764	  8.84674	 -2.36908	  9.78331	  0.87488	  4.73650	 -0.40448	 11.02244	710.33002	 28.80	
 20.003	-168.362	  8.82597	 -2.56529	 10.10352	  2.04041	  3.34972	 -0.45205	 11.02276	710.29999	 28.80	
 20.000	180.000	  8.80081	 -2.60893	 10.11863	  3.34233	  1.99997	 -0.51252	 11.02250	710.34998	 28.80	
