FileType=PCF
NHL=14
Date=03/08/19	08:53:37
Facility=APL
Serial=16071-10
Customer=NASA
NP=6
Mach=0.036000
Calibration=1:1
CalPts=490
TstPts=95
PortNumbering=AP Standard
Units=Torr C m/s kg/m^3 deg mm 
Theta[deg]	Phi[deg]	P1[Torr]	P2[Torr]	P3[Torr]	P4[Torr]	P5[Torr]	P6[Torr]	Pt[Torr]	Ps[Abs,Torr]	Ts[C]	
  0.000	  0.000	  0.65973	  0.30220	  0.29622	  0.31173	  0.29199	  0.04508	  0.66029	711.06000	 13.10	
  1.691	128.401	  0.65635	  0.28091	  0.31249	  0.33277	  0.26474	  0.04526	  0.65590	711.17999	 13.10	
  1.692	 77.194	  0.65247	  0.30493	  0.28319	  0.33423	  0.25938	  0.04635	  0.65181	711.13000	 13.00	
  1.699	 26.182	  0.65386	  0.32539	  0.27037	  0.31642	  0.27766	  0.04770	  0.65222	711.14001	 13.00	
  1.699	-26.182	  0.65825	  0.32367	  0.27367	  0.29243	  0.30535	  0.04462	  0.65747	711.21997	 13.00	
  1.692	-77.194	  0.65528	  0.30128	  0.29256	  0.27932	  0.31851	  0.04257	  0.65330	711.13000	 13.00	
  1.691	-128.401	  0.66203	  0.28222	  0.31922	  0.28776	  0.31431	  0.04170	  0.66034	711.08002	 13.00	
  1.700	180.000	  0.66072	  0.27179	  0.32930	  0.31015	  0.28776	  0.04255	  0.66017	711.21002	 13.00	
  3.400	180.000	  0.65224	  0.23457	  0.35858	  0.30714	  0.28055	  0.03929	  0.65282	711.14001	 12.90	
  3.388	-152.325	  0.65371	  0.24069	  0.35438	  0.27926	  0.31097	  0.03748	  0.65410	711.10999	 12.90	
  3.397	-124.529	  0.65934	  0.26011	  0.33731	  0.25951	  0.33917	  0.03807	  0.65858	711.15997	 12.90	
  3.399	-96.763	  0.66180	  0.28627	  0.30974	  0.24966	  0.35347	  0.03791	  0.66153	711.01001	 12.90	
  3.394	-69.283	  0.66053	  0.31549	  0.27843	  0.24908	  0.35085	  0.03912	  0.65886	711.00000	 12.90	
  3.400	-41.398	  0.65647	  0.34138	  0.25201	  0.26055	  0.33331	  0.04252	  0.65580	711.12000	 12.90	
  3.401	-14.021	  0.65763	  0.35976	  0.23797	  0.28466	  0.30749	  0.04314	  0.65753	711.21997	 12.90	
  3.401	 14.021	  0.65683	  0.36256	  0.23439	  0.31435	  0.27712	  0.04483	  0.65754	711.22998	 12.90	
  3.400	 41.398	  0.65444	  0.34741	  0.24213	  0.34301	  0.24741	  0.04526	  0.65459	711.15997	 12.90	
  3.394	 69.283	  0.65438	  0.32241	  0.26436	  0.36436	  0.22977	  0.04756	  0.65430	711.21002	 12.90	
  3.399	 96.763	  0.65238	  0.29066	  0.29260	  0.36948	  0.22407	  0.04577	  0.65427	711.04999	 12.90	
  3.397	124.529	  0.66261	  0.26562	  0.32770	  0.36575	  0.23463	  0.04405	  0.66450	711.16998	 12.80	
  3.388	152.325	  0.66128	  0.24545	  0.35168	  0.34150	  0.25501	  0.04180	  0.66125	711.17999	 12.80	
  5.099	161.165	  0.65114	  0.20514	  0.38255	  0.33785	  0.24321	  0.03538	  0.65480	711.17999	 12.80	
  5.109	142.013	  0.65166	  0.22066	  0.36363	  0.36901	  0.21688	  0.03737	  0.65530	711.16998	 12.80	
  5.095	123.033	  0.65146	  0.24452	  0.33520	  0.39031	  0.19895	  0.04049	  0.65465	711.25000	 12.80	
  5.105	104.191	  0.65623	  0.27548	  0.30488	  0.40419	  0.19063	  0.04073	  0.65919	711.14001	 12.80	
  5.093	 85.207	  0.65692	  0.30893	  0.27229	  0.40515	  0.19146	  0.04387	  0.66047	711.15002	 12.80	
  5.104	 66.290	  0.65482	  0.33964	  0.24250	  0.39209	  0.19972	  0.04360	  0.65863	711.09998	 12.80	
  5.094	 47.331	  0.66056	  0.37058	  0.22059	  0.37272	  0.21869	  0.04439	  0.66494	711.14001	 12.80	
  5.089	 28.397	  0.65440	  0.38714	  0.20393	  0.34034	  0.24341	  0.04308	  0.65706	711.20001	 12.80	
  5.096	  9.576	  0.65772	  0.39584	  0.19857	  0.30833	  0.27464	  0.04225	  0.65996	711.09003	 12.80	
  5.096	 -9.576	  0.65312	  0.39143	  0.20106	  0.27557	  0.30548	  0.03938	  0.65561	711.23999	 12.80	
  5.089	-28.397	  0.65340	  0.37845	  0.21341	  0.24874	  0.33597	  0.03829	  0.65601	711.20001	 12.80	
  5.094	-47.331	  0.65842	  0.35559	  0.23456	  0.22908	  0.36417	  0.03523	  0.66002	711.19000	 12.80	
  5.104	-66.290	  0.64967	  0.32358	  0.25852	  0.21382	  0.37633	  0.03502	  0.65165	711.17999	 12.80	
  5.093	-85.207	  0.65517	  0.29312	  0.29119	  0.21097	  0.38440	  0.03081	  0.65696	711.14001	 12.80	
  5.105	-104.191	  0.65672	  0.26328	  0.32317	  0.21545	  0.37986	  0.03066	  0.65948	711.10999	 12.80	
  5.095	-123.033	  0.65243	  0.23697	  0.35036	  0.22764	  0.36145	  0.03019	  0.65473	711.14001	 12.80	
  5.109	-142.013	  0.65259	  0.21611	  0.37416	  0.24784	  0.33657	  0.03050	  0.65462	711.15997	 12.80	
  5.099	-161.165	  0.65226	  0.20365	  0.38834	  0.27540	  0.30504	  0.03224	  0.65500	711.20001	 12.80	
  5.100	180.000	  0.65403	  0.19894	  0.39257	  0.30791	  0.27305	  0.03190	  0.65648	711.10999	 12.80	
  6.800	180.000	  0.64965	  0.16583	  0.42352	  0.30693	  0.26550	  0.02690	  0.65751	711.10999	 12.80	
  6.796	-166.229	  0.65040	  0.16689	  0.42291	  0.27410	  0.29981	  0.02602	  0.65799	711.09003	 12.80	
  6.808	-152.311	  0.65877	  0.17754	  0.41896	  0.24796	  0.33452	  0.02541	  0.66620	711.08002	 12.80	
  6.795	-138.383	  0.65051	  0.18808	  0.39611	  0.21811	  0.36030	  0.02160	  0.65762	711.17999	 12.80	
  6.792	-124.591	  0.65234	  0.20982	  0.37276	  0.20141	  0.38364	  0.02319	  0.65944	711.10999	 12.80	
  6.787	-110.754	  0.64722	  0.23292	  0.34257	  0.18651	  0.39991	  0.02230	  0.65368	711.20001	 12.80	
  6.800	-96.985	  0.64691	  0.26098	  0.31090	  0.17758	  0.41008	  0.02375	  0.65190	711.07001	 12.80	
  6.800	-83.015	  0.64529	  0.29116	  0.27952	  0.17362	  0.41414	  0.02372	  0.65164	711.17999	 12.80	
  6.787	-69.246	  0.64590	  0.32365	  0.25003	  0.17839	  0.40862	  0.02569	  0.65262	711.23999	 12.80	
  6.792	-55.409	  0.65060	  0.35620	  0.22298	  0.18861	  0.39838	  0.02540	  0.65691	711.10999	 12.80	
  6.795	-41.617	  0.65104	  0.38350	  0.20007	  0.20650	  0.37616	  0.02809	  0.65639	711.21997	 12.80	
  6.808	-27.689	  0.65176	  0.40670	  0.18203	  0.22950	  0.34997	  0.02947	  0.65868	711.07001	 12.80	
  6.796	-13.771	  0.64545	  0.41858	  0.16748	  0.25323	  0.31652	  0.03395	  0.65288	711.14001	 12.80	
  6.800	  0.000	  0.65411	  0.43037	  0.16364	  0.28549	  0.28986	  0.03702	  0.66088	711.14001	 12.80	
  6.796	 13.771	  0.64807	  0.42481	  0.16187	  0.31627	  0.25270	  0.03884	  0.65632	711.21997	 12.80	
  6.808	 27.689	  0.64803	  0.41591	  0.16655	  0.34919	  0.22131	  0.03628	  0.65716	711.21002	 12.80	
  6.795	 41.617	  0.64479	  0.39540	  0.18032	  0.37704	  0.19522	  0.03935	  0.65303	711.29999	 12.80	
  6.792	 55.409	  0.64731	  0.37257	  0.20208	  0.40149	  0.17853	  0.04309	  0.65694	711.28003	 12.80	
  6.787	 69.246	  0.64727	  0.34245	  0.22811	  0.42101	  0.16417	  0.04359	  0.65709	711.03003	 12.80	
  6.800	 83.015	  0.64675	  0.31102	  0.25668	  0.43011	  0.15631	  0.04216	  0.65547	711.06000	 12.80	
  6.800	 96.985	  0.64653	  0.27843	  0.28678	  0.43561	  0.15198	  0.03970	  0.65601	711.03998	 12.80	
  6.787	110.754	  0.64580	  0.24661	  0.31900	  0.42793	  0.15551	  0.03730	  0.65463	711.01001	 12.80	
  6.792	124.591	  0.64434	  0.21956	  0.34865	  0.41402	  0.16687	  0.03361	  0.65504	711.06000	 12.80	
  6.795	138.383	  0.64924	  0.19847	  0.37883	  0.39554	  0.18492	  0.03173	  0.65947	711.03003	 12.80	
  6.808	152.311	  0.65352	  0.18262	  0.40306	  0.37254	  0.20844	  0.03119	  0.66203	711.07001	 12.80	
  6.796	166.229	  0.65317	  0.17300	  0.41696	  0.34033	  0.23840	  0.02967	  0.66122	711.09998	 12.80	
  8.491	168.704	  0.63952	  0.13189	  0.44468	  0.33315	  0.22243	  0.01882	  0.65523	711.02002	 12.80	
  8.502	157.493	  0.63965	  0.14137	  0.43188	  0.36350	  0.19669	  0.02184	  0.65643	711.12000	 12.80	
  8.494	146.194	  0.64009	  0.15532	  0.41379	  0.39627	  0.16952	  0.02523	  0.65764	711.16998	 12.80	
  8.495	135.039	  0.63600	  0.17542	  0.38471	  0.42169	  0.14639	  0.02674	  0.65432	711.07001	 12.80	
  8.487	123.723	  0.63705	  0.19857	  0.35808	  0.43918	  0.13383	  0.02968	  0.65444	711.19000	 12.80	
  8.492	112.575	  0.63864	  0.22698	  0.32749	  0.45591	  0.12322	  0.03282	  0.65695	711.17999	 12.80	
  8.510	101.220	  0.63543	  0.25716	  0.28911	  0.46441	  0.11219	  0.03237	  0.65318	711.21002	 12.80	
  8.500	 90.000	  0.63703	  0.28737	  0.26113	  0.46440	  0.11342	  0.03374	  0.65420	711.13000	 12.80	
  8.510	 78.780	  0.63973	  0.32469	  0.22922	  0.45968	  0.11996	  0.03504	  0.65722	711.21997	 12.80	
  8.492	 67.425	  0.63671	  0.35479	  0.20067	  0.44234	  0.13134	  0.03462	  0.65433	711.26001	 12.80	
  8.487	 56.277	  0.64460	  0.38771	  0.17793	  0.42624	  0.14857	  0.03737	  0.66084	711.15002	 12.80	
  8.495	 44.961	  0.64072	  0.41259	  0.15696	  0.39863	  0.16707	  0.03580	  0.65709	711.21997	 12.80	
  8.494	 33.806	  0.64006	  0.43112	  0.14354	  0.37105	  0.19064	  0.03449	  0.65642	711.21002	 12.80	
  8.502	 22.507	  0.64337	  0.44893	  0.13151	  0.33901	  0.22067	  0.03675	  0.65867	711.15002	 12.80	
  8.491	 11.296	  0.64773	  0.45967	  0.12801	  0.30852	  0.25253	  0.03168	  0.66399	711.17999	 12.80	
  8.500	  0.000	  0.64284	  0.45826	  0.12444	  0.27482	  0.28027	  0.02677	  0.65742	711.19000	 12.80	
  8.491	-11.296	  0.64451	  0.45142	  0.13248	  0.24587	  0.31162	  0.02500	  0.65943	711.20001	 12.80	
  8.502	-22.507	  0.64555	  0.43956	  0.14224	  0.21505	  0.34885	  0.02263	  0.65967	711.25000	 12.80	
  8.494	-33.806	  0.64433	  0.41723	  0.15797	  0.19063	  0.37633	  0.02188	  0.65772	711.19000	 12.80	
  8.495	-44.961	  0.64798	  0.39539	  0.17855	  0.17170	  0.40456	  0.01883	  0.66109	711.22998	 12.80	
  8.487	-56.277	  0.64109	  0.36308	  0.20236	  0.15441	  0.42260	  0.01963	  0.65496	711.15002	 12.80	
  8.492	-67.425	  0.63881	  0.33183	  0.22698	  0.14342	  0.43401	  0.01617	  0.65148	711.20001	 12.80	
  8.510	-78.780	  0.64536	  0.30052	  0.26207	  0.13742	  0.44758	  0.01441	  0.65732	711.20001	 12.80	
  8.500	-90.000	  0.64194	  0.26701	  0.29139	  0.13708	  0.44604	  0.01397	  0.65515	711.21997	 12.80	
  8.510	-101.220	  0.64012	  0.23534	  0.32376	  0.14281	  0.43656	  0.01163	  0.65371	711.13000	 12.80	
  8.492	-112.575	  0.64743	  0.20925	  0.36019	  0.15357	  0.42883	  0.01413	  0.66197	711.10999	 12.80	
  8.487	-123.723	  0.64199	  0.18411	  0.38502	  0.16765	  0.40393	  0.01096	  0.65450	711.16998	 12.80	
  8.495	-135.039	  0.64387	  0.16464	  0.41121	  0.18781	  0.38198	  0.01512	  0.65657	711.21997	 12.80	
  8.494	-146.194	  0.63988	  0.14668	  0.43148	  0.20969	  0.35295	  0.01533	  0.65329	711.20001	 12.80	
  8.502	-157.493	  0.64699	  0.13789	  0.44890	  0.23898	  0.32483	  0.01840	  0.66113	711.26001	 12.80	
  8.491	-168.704	  0.64557	  0.12801	  0.45833	  0.26840	  0.29134	  0.01736	  0.66087	711.31000	 12.80	
  8.500	180.000	  0.64508	  0.13078	  0.45622	  0.30372	  0.25704	  0.02018	  0.66068	711.31000	 12.80	
 10.200	180.000	  0.62811	  0.09207	  0.47936	  0.29314	  0.24477	  0.01118	  0.65328	711.21997	 12.80	
 10.191	-170.497	  0.63205	  0.09194	  0.48296	  0.26112	  0.27753	  0.01119	  0.65797	711.26001	 12.80	
 10.210	-161.034	  0.62999	  0.09764	  0.47433	  0.22965	  0.31053	  0.01052	  0.65265	711.21997	 12.80	
 10.194	-151.526	  0.63222	  0.10785	  0.46391	  0.20080	  0.34492	  0.01008	  0.65556	711.10999	 12.80	
 10.190	-142.105	  0.63194	  0.12151	  0.44632	  0.17656	  0.37536	  0.00835	  0.65621	711.21997	 12.80	
 10.215	-132.646	  0.63192	  0.13765	  0.42347	  0.15285	  0.40361	  0.00342	  0.65584	711.20001	 12.80	
 10.203	-123.092	  0.63298	  0.15887	  0.39657	  0.13464	  0.42739	  0.00156	  0.65564	711.16998	 12.80	
 10.192	-113.678	  0.63054	  0.18247	  0.36516	  0.11910	  0.44414	  0.00070	  0.65179	711.21002	 12.80	
 10.208	-104.249	  0.63500	  0.21252	  0.33635	  0.11193	  0.46097	  0.00288	  0.65552	711.25000	 12.80	
 10.210	-94.801	  0.63878	  0.24391	  0.30533	  0.10510	  0.47541	  0.00319	  0.66196	711.19000	 12.80	
 10.210	-85.199	  0.63461	  0.27282	  0.27151	  0.10331	  0.47513	  0.00449	  0.65738	711.21002	 12.80	
 10.208	-75.751	  0.63116	  0.30525	  0.23827	  0.10461	  0.46949	  0.00823	  0.65342	711.21997	 12.80	
 10.192	-66.322	  0.63739	  0.34204	  0.20902	  0.11163	  0.46435	  0.00748	  0.65866	711.17999	 12.80	
 10.203	-56.908	  0.63237	  0.37025	  0.17984	  0.12062	  0.44499	  0.00984	  0.65384	711.21002	 12.80	
 10.215	-47.354	  0.63405	  0.40128	  0.15382	  0.13570	  0.42469	  0.00887	  0.65636	711.16998	 12.80	
 10.190	-37.895	  0.63350	  0.42775	  0.13281	  0.15521	  0.40034	  0.01381	  0.65632	711.10999	 12.80	
 10.194	-28.474	  0.63132	  0.44961	  0.11621	  0.17637	  0.37099	  0.01569	  0.65429	711.15002	 12.80	
 10.210	-18.966	  0.63510	  0.46867	  0.10403	  0.20491	  0.33976	  0.01581	  0.65733	711.15002	 12.80	
 10.191	 -9.503	  0.62771	  0.47583	  0.09282	  0.22935	  0.30643	  0.01822	  0.65158	711.17999	 12.80	
 10.200	  0.000	  0.62453	  0.48043	  0.08807	  0.25974	  0.27292	  0.02135	  0.64958	711.09998	 12.80	
 10.191	  9.503	  0.62562	  0.48005	  0.08843	  0.29097	  0.24114	  0.02254	  0.65039	711.15002	 12.80	
 10.210	 18.966	  0.63244	  0.47986	  0.09326	  0.32955	  0.21195	  0.02596	  0.65795	711.10999	 12.80	
 10.194	 28.474	  0.62856	  0.46418	  0.10124	  0.35991	  0.18160	  0.02875	  0.65445	711.15002	 12.80	
 10.190	 37.895	  0.63437	  0.44893	  0.11583	  0.39391	  0.15762	  0.02866	  0.66083	711.17999	 12.80	
 10.215	 47.354	  0.62628	  0.42261	  0.12714	  0.42028	  0.12937	  0.02663	  0.65431	711.21997	 12.80	
 10.203	 56.908	  0.62635	  0.39492	  0.14857	  0.44477	  0.11094	  0.02732	  0.65473	711.23999	 12.80	
 10.192	 66.322	  0.62724	  0.36373	  0.17556	  0.46503	  0.09712	  0.03090	  0.65410	711.15997	 12.80	
 10.208	 75.751	  0.62622	  0.33281	  0.20373	  0.47856	  0.08769	  0.03067	  0.65488	711.19000	 12.80	
 10.210	 85.199	  0.63400	  0.30387	  0.23566	  0.49152	  0.08460	  0.03012	  0.66052	711.13000	 12.80	
 10.210	 94.801	  0.63149	  0.26913	  0.26812	  0.49362	  0.08217	  0.02823	  0.65997	711.09998	 12.80	
 10.208	104.249	  0.63349	  0.23729	  0.30243	  0.49173	  0.08462	  0.02820	  0.66075	711.01001	 12.80	
 10.192	113.678	  0.62663	  0.20286	  0.33115	  0.47879	  0.08639	  0.02532	  0.65576	711.09003	 12.80	
 10.203	123.092	  0.62542	  0.17839	  0.36472	  0.46164	  0.10176	  0.02420	  0.65303	711.07001	 12.80	
 10.215	132.646	  0.63013	  0.15355	  0.39551	  0.44455	  0.11496	  0.02155	  0.65646	711.15002	 12.90	
 10.190	142.105	  0.62868	  0.13397	  0.42173	  0.41770	  0.13589	  0.02002	  0.65425	711.13000	 12.80	
 10.194	151.526	  0.62897	  0.11656	  0.44388	  0.39010	  0.15771	  0.01642	  0.65495	711.08002	 12.90	
 10.210	161.034	  0.62912	  0.10236	  0.46337	  0.35975	  0.18255	  0.01469	  0.65561	711.19000	 12.90	
 10.191	170.497	  0.63092	  0.09458	  0.47540	  0.32798	  0.21229	  0.01082	  0.65644	711.13000	 12.80	
 11.899	171.783	  0.61855	  0.06003	  0.50059	  0.32021	  0.19993	  0.00392	  0.65594	711.21002	 12.90	
 11.890	163.610	  0.61748	  0.06723	  0.49019	  0.35264	  0.17246	  0.00793	  0.65600	711.14001	 12.90	
 11.889	155.445	  0.61961	  0.07657	  0.47542	  0.38692	  0.14311	  0.00920	  0.65838	711.20001	 12.90	
 11.909	147.299	  0.61374	  0.09229	  0.45205	  0.41297	  0.12122	  0.01290	  0.65361	711.22998	 12.90	
 11.902	139.148	  0.62109	  0.11044	  0.43333	  0.44474	  0.10034	  0.01122	  0.66049	711.16998	 12.90	
 11.894	130.867	  0.61979	  0.13149	  0.40117	  0.47238	  0.07877	  0.01152	  0.66081	711.21997	 12.90	
 11.897	122.732	  0.61338	  0.15582	  0.36763	  0.48517	  0.06606	  0.01289	  0.65320	711.12000	 12.90	
 11.903	114.597	  0.61361	  0.18119	  0.33492	  0.50040	  0.05454	  0.01741	  0.65325	711.15997	 12.90	
 11.893	106.346	  0.61594	  0.21200	  0.30483	  0.51338	  0.04769	  0.01830	  0.65662	711.19000	 12.90	
 11.892	 98.155	  0.61792	  0.24266	  0.27173	  0.51966	  0.04381	  0.01964	  0.65863	711.17999	 12.90	
 11.900	 90.000	  0.62261	  0.27676	  0.24239	  0.52219	  0.04571	  0.02087	  0.66184	711.27002	 12.90	
 11.892	 81.845	  0.61552	  0.30919	  0.20684	  0.51032	  0.05008	  0.02149	  0.65438	711.25000	 12.90	
 11.893	 73.654	  0.61931	  0.34407	  0.17754	  0.50157	  0.05603	  0.02202	  0.65828	711.14001	 12.90	
 11.903	 65.403	  0.61732	  0.37687	  0.14978	  0.48452	  0.06868	  0.02200	  0.65638	711.14001	 12.90	
 11.897	 57.268	  0.62113	  0.41035	  0.12605	  0.46691	  0.08335	  0.02431	  0.66061	711.07001	 12.90	
 11.894	 49.133	  0.61496	  0.43284	  0.10467	  0.43803	  0.10030	  0.02226	  0.65304	711.08002	 12.90	
 11.902	 40.852	  0.61832	  0.46054	  0.08525	  0.41233	  0.11984	  0.02085	  0.65745	711.06000	 12.90	
 11.909	 32.701	  0.61857	  0.47827	  0.07305	  0.38089	  0.14381	  0.01935	  0.65614	711.14001	 12.90	
 11.889	 24.555	  0.62077	  0.49534	  0.06583	  0.35011	  0.17459	  0.02225	  0.65860	711.15997	 12.90	
 11.890	 16.390	  0.62168	  0.50749	  0.05738	  0.31686	  0.20392	  0.01985	  0.65905	711.15997	 12.90	
 11.899	  8.217	  0.62051	  0.51115	  0.05449	  0.28302	  0.23554	  0.01547	  0.65628	711.09003	 12.90	
 11.900	  0.000	  0.61532	  0.50587	  0.05372	  0.24729	  0.26579	  0.01195	  0.65054	711.13000	 12.90	
 11.899	 -8.217	  0.61979	  0.50301	  0.06011	  0.21906	  0.30095	  0.01417	  0.65559	711.13000	 12.90	
 11.890	-16.390	  0.62250	  0.49408	  0.06786	  0.18826	  0.33512	  0.00918	  0.65633	711.03998	 12.90	
 11.889	-24.555	  0.62286	  0.47944	  0.07915	  0.16332	  0.36746	  0.00803	  0.65767	711.15002	 12.90	
 11.909	-32.701	  0.61922	  0.45755	  0.09187	  0.13871	  0.39482	  0.00677	  0.65366	711.13000	 12.90	
 11.902	-40.852	  0.62146	  0.43380	  0.11132	  0.11646	  0.42571	  0.00168	  0.65559	711.07001	 12.90	
 11.894	-49.133	  0.62321	  0.40595	  0.13440	  0.09903	  0.45114	  0.00019	  0.65740	711.15997	 12.90	
 11.897	-57.268	  0.62209	  0.37521	  0.15985	  0.08567	  0.47111	 -0.00175	  0.65564	711.14001	 12.90	
 11.903	-65.403	  0.62779	  0.34646	  0.18743	  0.07560	  0.48942	 -0.00256	  0.66190	711.09003	 12.90	
 11.893	-73.654	  0.62123	  0.30939	  0.21641	  0.06871	  0.49486	 -0.00354	  0.65372	711.09003	 12.90	
 11.892	-81.845	  0.61930	  0.27627	  0.24527	  0.06447	  0.49809	 -0.00330	  0.65236	711.10999	 12.90	
 11.900	-90.000	  0.62627	  0.24678	  0.28140	  0.06713	  0.50274	 -0.00556	  0.65911	711.02002	 12.90	
 11.892	-98.155	  0.62798	  0.21576	  0.31634	  0.07186	  0.49675	 -0.00826	  0.66190	711.06000	 12.90	
 11.893	-106.346	  0.62033	  0.18409	  0.34558	  0.07839	  0.48076	 -0.00483	  0.65364	711.21002	 12.90	
 11.903	-114.597	  0.62293	  0.15796	  0.37821	  0.08852	  0.46855	 -0.00218	  0.65745	711.12000	 12.90	
 11.897	-122.732	  0.61989	  0.13088	  0.40884	  0.10291	  0.44591	 -0.00259	  0.65439	711.06000	 12.90	
 11.894	-130.867	  0.62091	  0.11033	  0.43548	  0.11951	  0.42195	 -0.00252	  0.65531	711.03003	 12.90	
 11.902	-139.148	  0.62356	  0.09276	  0.46254	  0.14113	  0.39671	 -0.00320	  0.66082	711.03003	 12.90	
 11.909	-147.299	  0.62497	  0.07916	  0.48242	  0.16724	  0.36665	 -0.00073	  0.66019	710.96997	 12.90	
 11.889	-155.445	  0.62290	  0.07010	  0.49397	  0.19400	  0.33365	  0.00100	  0.65896	710.97998	 13.00	
 11.890	-163.610	  0.61947	  0.05914	  0.50312	  0.22178	  0.29729	 -0.00016	  0.65485	710.97998	 13.00	
 11.899	-171.783	  0.61876	  0.05565	  0.50935	  0.25400	  0.26380	  0.00031	  0.65664	711.02002	 13.00	
 11.900	180.000	  0.62314	  0.05515	  0.51130	  0.28952	  0.23192	  0.00062	  0.66075	711.03998	 13.00	
 13.600	180.000	  0.60018	  0.02054	  0.52809	  0.27625	  0.21594	 -0.00648	  0.65164	710.96002	 13.00	
 13.608	-172.853	  0.59574	  0.02064	  0.52572	  0.24201	  0.24694	 -0.00848	  0.64618	711.00000	 13.00	
 13.611	-165.583	  0.60267	  0.02294	  0.52718	  0.21228	  0.28342	 -0.00837	  0.65304	711.02002	 13.00	
 13.601	-158.353	  0.60184	  0.02866	  0.51816	  0.18239	  0.31472	 -0.01119	  0.65248	711.01001	 13.00	
 13.609	-151.210	  0.60408	  0.04012	  0.50437	  0.15645	  0.34828	 -0.01292	  0.65241	711.06000	 13.00	
 13.611	-143.999	  0.60813	  0.05210	  0.48951	  0.13103	  0.38286	 -0.01608	  0.65665	710.92999	 13.00	
 13.601	-136.825	  0.60744	  0.06733	  0.46935	  0.10729	  0.41421	 -0.00998	  0.65753	711.06000	 13.00	
 13.596	-129.640	  0.60861	  0.08421	  0.44518	  0.08721	  0.44103	 -0.01254	  0.65782	711.00000	 13.00	
 13.611	-122.431	  0.61370	  0.10681	  0.42099	  0.07028	  0.46978	 -0.01254	  0.66219	711.07001	 13.00	
 13.604	-115.211	  0.60572	  0.12982	  0.38459	  0.05494	  0.48405	 -0.01152	  0.65273	711.09998	 13.00	
 13.595	-108.042	  0.60465	  0.15484	  0.35312	  0.04361	  0.50135	 -0.01371	  0.65292	711.01001	 13.00	
 13.607	-100.793	  0.60653	  0.18413	  0.32003	  0.03517	  0.51502	 -0.01556	  0.65445	711.01001	 13.00	
 13.601	-93.617	  0.61138	  0.21648	  0.28849	  0.03088	  0.52638	 -0.01562	  0.65990	711.08002	 13.00	
 13.601	-86.383	  0.60838	  0.24618	  0.25507	  0.02751	  0.52765	 -0.01410	  0.65748	711.10999	 13.00	
 13.607	-79.207	  0.60491	  0.27836	  0.22020	  0.02937	  0.52163	 -0.01343	  0.65172	711.09998	 13.00	
 13.595	-71.958	  0.60801	  0.31256	  0.19123	  0.03280	  0.51806	 -0.01129	  0.65483	711.17999	 13.00	
 13.604	-64.789	  0.60889	  0.34697	  0.16190	  0.04129	  0.50847	 -0.01160	  0.65715	711.13000	 13.00	
 13.611	-57.569	  0.60534	  0.37665	  0.13428	  0.05121	  0.48922	 -0.01007	  0.65215	711.09998	 13.00	
 13.596	-50.360	  0.60967	  0.41141	  0.10951	  0.06443	  0.47274	 -0.00744	  0.65813	711.12000	 13.00	
 13.601	-43.175	  0.61135	  0.44140	  0.08855	  0.08134	  0.45104	 -0.00746	  0.66022	711.07001	 13.00	
 13.611	-36.001	  0.60519	  0.46159	  0.06920	  0.10020	  0.41818	 -0.00563	  0.65246	711.10999	 13.00	
 13.609	-28.790	  0.60768	  0.48644	  0.05312	  0.12365	  0.39055	 -0.00339	  0.65557	711.10999	 13.00	
 13.601	-21.647	  0.60753	  0.50623	  0.03917	  0.14744	  0.35920	 -0.00101	  0.65727	711.10999	 13.00	
 13.611	-14.417	  0.60647	  0.51942	  0.02973	  0.17453	  0.32536	  0.00124	  0.65505	711.15002	 13.00	
 13.608	 -7.147	  0.60491	  0.52738	  0.02241	  0.20443	  0.29116	  0.00137	  0.65380	711.09003	 13.00	
 13.600	  0.000	  0.60461	  0.53264	  0.01891	  0.23572	  0.25760	  0.00480	  0.65435	711.09003	 13.00	
 13.608	  7.147	  0.60491	  0.53445	  0.01876	  0.26740	  0.22644	  0.00573	  0.65608	711.04999	 13.00	
 13.611	 14.417	  0.60506	  0.53126	  0.02005	  0.30222	  0.19286	  0.00943	  0.65662	711.07001	 13.00	
 13.601	 21.647	  0.60309	  0.51946	  0.02552	  0.33468	  0.16281	  0.01009	  0.65466	711.01001	 13.00	
 13.609	 28.790	  0.60074	  0.50499	  0.03409	  0.36635	  0.13505	  0.01065	  0.65279	711.01001	 13.00	
 13.611	 36.001	  0.59954	  0.48629	  0.04503	  0.39739	  0.10813	  0.01132	  0.65274	711.03998	 13.00	
 13.601	 43.175	  0.60404	  0.46942	  0.05983	  0.43110	  0.08677	  0.01186	  0.65858	711.15002	 13.00	
 13.596	 50.360	  0.60321	  0.44213	  0.07713	  0.45614	  0.06643	  0.01176	  0.65679	711.00000	 13.00	
 13.611	 57.569	  0.59998	  0.41226	  0.09695	  0.47872	  0.04902	  0.01270	  0.65392	711.01001	 13.00	
 13.604	 64.789	  0.60552	  0.38558	  0.12243	  0.50488	  0.03575	  0.01528	  0.65887	711.07001	 13.00	
 13.595	 71.958	  0.60152	  0.34982	  0.14762	  0.51692	  0.02409	  0.01580	  0.65606	710.97998	 13.00	
 13.607	 79.207	  0.60142	  0.31745	  0.17602	  0.53194	  0.01525	  0.01396	  0.65724	710.98999	 13.00	
 13.601	 86.383	  0.60296	  0.28387	  0.20585	  0.53965	  0.00965	  0.01297	  0.65758	711.01001	 13.00	
 13.601	 93.617	  0.60118	  0.25117	  0.23910	  0.54236	  0.00953	  0.01154	  0.65626	711.03003	 13.00	
 13.607	100.793	  0.59996	  0.21813	  0.27102	  0.54054	  0.00992	  0.01006	  0.65541	711.20001	 13.00	
 13.595	108.042	  0.60631	  0.18864	  0.30875	  0.53817	  0.01571	  0.00980	  0.66191	711.06000	 13.00	
 13.604	115.211	  0.60367	  0.15836	  0.34001	  0.52555	  0.02142	  0.00837	  0.65916	711.08002	 13.00	
 13.611	122.431	  0.59919	  0.13231	  0.37104	  0.50495	  0.03405	  0.00454	  0.65310	711.14001	 13.00	
 13.596	129.640	  0.60342	  0.10749	  0.40380	  0.48872	  0.04648	  0.00290	  0.65915	711.06000	 13.00	
 13.601	136.825	  0.60381	  0.08722	  0.43229	  0.46558	  0.06360	  0.00225	  0.65823	711.06000	 13.00	
 13.611	143.999	  0.60138	  0.06765	  0.45726	  0.43776	  0.08277	  0.00023	  0.65541	710.97998	 13.00	
 13.609	151.210	  0.60157	  0.05216	  0.47987	  0.40694	  0.10486	 -0.00202	  0.65470	711.13000	 13.00	
 13.601	158.353	  0.60309	  0.03867	  0.50021	  0.37683	  0.13077	 -0.00378	  0.65698	711.21997	 13.00	
 13.611	165.583	  0.60036	  0.02949	  0.51362	  0.34291	  0.15599	 -0.00363	  0.65406	711.12000	 13.00	
 13.608	172.853	  0.60385	  0.02379	  0.52490	  0.31027	  0.18709	 -0.00426	  0.65576	711.10999	 13.00	
 15.298	173.587	  0.58809	 -0.01081	  0.54813	  0.29967	  0.17313	 -0.01303	  0.65744	711.07001	 13.00	
 15.291	167.167	  0.58516	 -0.00247	  0.53597	  0.33259	  0.14375	 -0.01240	  0.65373	711.09998	 13.00	
 15.307	160.676	  0.58656	  0.00360	  0.52406	  0.36680	  0.11647	 -0.00983	  0.65633	711.16998	 13.00	
 15.300	154.261	  0.59144	  0.01481	  0.51073	  0.40138	  0.09195	 -0.00933	  0.66159	711.14001	 13.00	
 15.288	147.854	  0.59279	  0.02917	  0.49163	  0.43371	  0.06899	 -0.00893	  0.66377	711.09003	 13.10	
 15.293	141.428	  0.58766	  0.04568	  0.46251	  0.45907	  0.04817	 -0.00842	  0.65997	711.09003	 13.10	
 15.299	134.985	  0.58127	  0.06407	  0.42993	  0.47969	  0.02970	 -0.00764	  0.65117	711.06000	 13.00	
 15.305	128.583	  0.58750	  0.08608	  0.40543	  0.50906	  0.01292	 -0.00667	  0.66023	711.04999	 13.10	
 15.309	122.142	  0.58440	  0.10927	  0.37266	  0.52548	  0.00096	 -0.00407	  0.65669	711.07001	 13.00	
 15.304	115.711	  0.58000	  0.13445	  0.33770	  0.53836	 -0.00876	 -0.00131	  0.65162	711.09998	 13.10	
 15.297	109.291	  0.58202	  0.16317	  0.30501	  0.55131	 -0.01623	 -0.00009	  0.65407	711.03003	 13.00	
 15.293	102.897	  0.58648	  0.19289	  0.27390	  0.56177	 -0.02153	  0.00144	  0.65911	711.09998	 13.10	
 15.293	 96.458	  0.58730	  0.22558	  0.24092	  0.56546	 -0.02246	  0.00256	  0.65921	711.04999	 13.10	
 15.300	 90.000	  0.58658	  0.25831	  0.20847	  0.56430	 -0.02178	  0.00085	  0.65810	711.03003	 13.10	
 15.293	 83.542	  0.58551	  0.29062	  0.17646	  0.55784	 -0.02091	  0.00100	  0.65704	710.98999	 13.10	
 15.293	 77.103	  0.58476	  0.32391	  0.14579	  0.54951	 -0.01633	  0.00195	  0.65550	711.01001	 13.10	
 15.297	 70.709	  0.58596	  0.35634	  0.12013	  0.53604	 -0.00675	  0.00373	  0.65671	710.98999	 13.10	
 15.304	 64.289	  0.58439	  0.38812	  0.09316	  0.51736	  0.00374	  0.00402	  0.65546	711.01001	 13.10	
 15.309	 57.858	  0.59303	  0.42562	  0.07228	  0.50260	  0.01936	  0.00460	  0.66389	711.06000	 13.10	
 15.305	 51.417	  0.58467	  0.44770	  0.05036	  0.47124	  0.03348	  0.00177	  0.65402	711.01001	 13.10	
 15.299	 45.015	  0.58421	  0.47305	  0.03267	  0.44438	  0.05295	  0.00423	  0.65569	711.10999	 13.10	
 15.293	 38.572	  0.58653	  0.49822	  0.01647	  0.41639	  0.07375	  0.00212	  0.65669	711.01001	 13.10	
 15.288	 32.146	  0.58638	  0.51803	  0.00506	  0.38511	  0.09810	  0.00136	  0.65595	711.04999	 13.10	
 15.300	 25.739	  0.58502	  0.53173	 -0.00396	  0.35186	  0.12329	  0.00225	  0.65386	711.02002	 13.10	
 15.307	 19.324	  0.58942	  0.54655	 -0.01132	  0.32132	  0.15117	 -0.00093	  0.65798	710.96997	 13.10	
 15.291	 12.833	  0.58335	  0.54967	 -0.01473	  0.28437	  0.18152	 -0.00204	  0.65015	711.01001	 13.10	
 15.298	  6.413	  0.59131	  0.55994	 -0.01751	  0.25458	  0.21477	 -0.00175	  0.65970	710.94000	 13.10	
 15.300	  0.000	  0.58648	  0.55498	 -0.01615	  0.21946	  0.24739	 -0.00167	  0.65348	710.90002	 13.10	
 15.298	 -6.413	  0.59018	  0.55247	 -0.01126	  0.19033	  0.28258	 -0.00513	  0.65610	710.98999	 13.10	
 15.291	-12.833	  0.58899	  0.54184	 -0.00458	  0.16017	  0.31522	 -0.00665	  0.65400	710.98999	 13.10	
 15.307	-19.324	  0.59037	  0.52988	  0.00235	  0.13264	  0.34846	 -0.00747	  0.65535	711.00000	 13.10	
 15.300	-25.739	  0.58622	  0.50840	  0.01387	  0.10677	  0.37801	 -0.01020	  0.65017	710.90002	 13.10	
 15.288	-32.146	  0.58884	  0.48964	  0.02924	  0.08422	  0.41021	 -0.01440	  0.65272	710.89001	 13.10	
 15.293	-38.572	  0.58902	  0.46431	  0.04663	  0.06432	  0.43914	 -0.01434	  0.65229	710.95001	 13.10	
 15.299	-45.015	  0.59288	  0.44121	  0.06383	  0.04647	  0.46670	 -0.01572	  0.65750	710.88000	 13.10	
 15.305	-51.417	  0.59149	  0.41166	  0.08525	  0.03108	  0.48916	 -0.01863	  0.65540	710.88000	 13.10	
 15.309	-57.858	  0.59145	  0.38051	  0.11005	  0.01864	  0.50985	 -0.01877	  0.65494	710.97998	 13.10	
 15.304	-64.289	  0.59145	  0.34726	  0.13729	  0.00847	  0.52591	 -0.02011	  0.65500	711.03003	 13.10	
 15.297	-70.709	  0.59108	  0.31512	  0.16424	  0.00052	  0.53766	 -0.02059	  0.65412	710.96002	 13.10	
 15.293	-77.103	  0.59050	  0.28086	  0.19592	 -0.00330	  0.54414	 -0.02044	  0.65350	710.98999	 13.10	
 15.293	-83.542	  0.59443	  0.24948	  0.22849	 -0.00526	  0.55007	 -0.01917	  0.65714	711.04999	 13.10	
 15.300	-90.000	  0.59491	  0.21748	  0.26099	 -0.00476	  0.55036	 -0.01951	  0.65847	711.04999	 13.10	
 15.293	-96.458	  0.59047	  0.18511	  0.29289	 -0.00074	  0.54145	 -0.02111	  0.65476	711.06000	 13.10	
 15.293	-102.897	  0.59249	  0.15482	  0.32852	  0.00394	  0.53336	 -0.02253	  0.65611	711.13000	 13.10	
 15.297	-109.291	  0.59022	  0.12763	  0.35865	  0.01245	  0.51796	 -0.02125	  0.65375	710.98999	 13.10	
 15.304	-115.711	  0.59327	  0.10311	  0.39345	  0.02352	  0.50491	 -0.02245	  0.65822	710.96002	 13.10	
 15.309	-122.142	  0.59438	  0.07996	  0.42527	  0.03843	  0.48385	 -0.01920	  0.65920	710.96002	 13.10	
 15.305	-128.583	  0.59225	  0.05862	  0.45135	  0.05379	  0.45814	 -0.02154	  0.65716	710.96997	 13.10	
 15.299	-134.985	  0.58918	  0.04178	  0.47495	  0.07357	  0.42958	 -0.01822	  0.65559	711.03998	 13.10	
 15.293	-141.428	  0.59059	  0.02602	  0.49824	  0.09482	  0.40023	 -0.01906	  0.65693	710.91998	 13.10	
 15.288	-147.854	  0.59103	  0.01436	  0.51817	  0.12001	  0.36979	 -0.01860	  0.65690	711.01001	 13.10	
 15.300	-154.261	  0.58879	  0.00288	  0.53181	  0.14535	  0.33602	 -0.01863	  0.65452	710.97998	 13.10	
 15.307	-160.676	  0.58661	 -0.00575	  0.54210	  0.17183	  0.30283	 -0.01984	  0.65308	711.06000	 13.10	
 15.291	-167.167	  0.58822	 -0.01010	  0.55071	  0.20294	  0.26989	 -0.01782	  0.65554	711.07001	 13.10	
 15.298	-173.587	  0.58992	 -0.01315	  0.55602	  0.23579	  0.23716	 -0.01718	  0.65826	711.09003	 13.10	
 15.300	180.000	  0.58623	 -0.01357	  0.55205	  0.26661	  0.20372	 -0.01441	  0.65532	711.14001	 13.10	
 17.000	180.000	  0.56816	 -0.04590	  0.57123	  0.25522	  0.18809	 -0.02686	  0.65469	711.01001	 13.10	
 16.990	-174.179	  0.57144	 -0.04492	  0.57539	  0.22447	  0.22237	 -0.02759	  0.65779	711.12000	 13.10	
 17.009	-168.383	  0.57197	 -0.04376	  0.57406	  0.19300	  0.25471	 -0.02463	  0.65815	711.07001	 13.10	
 17.000	-162.596	  0.57306	 -0.03979	  0.56767	  0.16378	  0.28758	 -0.02564	  0.65767	710.96002	 13.10	
 16.990	-156.759	  0.56921	 -0.03207	  0.55415	  0.13513	  0.31849	 -0.02588	  0.65269	711.01001	 13.10	
 16.995	-150.919	  0.57780	 -0.02528	  0.54865	  0.10749	  0.35721	 -0.03034	  0.66326	711.03003	 13.10	
 16.988	-145.161	  0.57640	 -0.01427	  0.52964	  0.08359	  0.38760	 -0.03016	  0.66168	710.96997	 13.10	
 17.014	-139.343	  0.56956	 -0.00010	  0.50325	  0.06195	  0.41290	 -0.02743	  0.65268	710.96002	 13.10	
 17.007	-133.546	  0.57248	  0.01504	  0.48218	  0.04098	  0.44449	 -0.02724	  0.65639	711.02002	 13.10	
 17.001	-127.699	  0.57402	  0.03264	  0.45635	  0.02180	  0.47159	 -0.02879	  0.65744	710.98999	 13.10	
 17.006	-121.937	  0.57286	  0.05321	  0.42784	  0.00679	  0.49586	 -0.03003	  0.65520	710.90002	 13.10	
 17.002	-116.134	  0.57403	  0.07644	  0.39661	 -0.00663	  0.51748	 -0.03234	  0.65676	711.01001	 13.10	
 17.001	-110.310	  0.57255	  0.09947	  0.36469	 -0.01743	  0.53294	 -0.02872	  0.65401	710.96002	 13.10	
 16.988	-104.517	  0.57887	  0.12790	  0.33514	 -0.02481	  0.55247	 -0.02825	  0.66030	710.95001	 13.10	
 17.008	-98.662	  0.57447	  0.15517	  0.29863	 -0.03242	  0.55959	 -0.02763	  0.65505	710.94000	 13.10	
 16.996	-92.909	  0.57105	  0.18460	  0.26467	 -0.03555	  0.56313	 -0.02823	  0.65300	710.98999	 13.10	
 16.996	-87.091	  0.57285	  0.21595	  0.23330	 -0.03852	  0.56893	 -0.02897	  0.65505	711.03003	 13.20	
 17.012	-81.253	  0.57296	  0.24702	  0.20129	 -0.03866	  0.56826	 -0.02844	  0.65442	711.04999	 13.20	
 16.988	-75.483	  0.57349	  0.28206	  0.17039	 -0.03408	  0.56307	 -0.03159	  0.65461	711.04999	 13.10	
 17.001	-69.690	  0.57573	  0.31445	  0.14080	 -0.03170	  0.55676	 -0.02672	  0.65691	710.91998	 13.10	
 17.002	-63.866	  0.57641	  0.34837	  0.11375	 -0.02361	  0.54518	 -0.02831	  0.65880	711.03003	 13.10	
 17.006	-58.063	  0.57350	  0.37985	  0.08613	 -0.01546	  0.52771	 -0.02831	  0.65603	710.97998	 13.20	
 17.001	-52.301	  0.56936	  0.40715	  0.06413	 -0.00238	  0.50453	 -0.02725	  0.64994	710.83002	 13.20	
 17.007	-46.454	  0.57096	  0.43923	  0.04180	  0.01198	  0.48284	 -0.02517	  0.65216	711.02002	 13.10	
 17.014	-40.657	  0.57527	  0.47047	  0.02181	  0.02807	  0.46064	 -0.02412	  0.65901	711.08002	 13.20	
 16.988	-34.839	  0.57057	  0.49186	  0.00454	  0.04737	  0.42947	 -0.02474	  0.65348	710.96997	 13.20	
 16.995	-29.081	  0.56884	  0.51182	 -0.00958	  0.06755	  0.39828	 -0.02131	  0.65018	711.01001	 13.20	
 16.990	-23.241	  0.57074	  0.53433	 -0.02177	  0.09271	  0.36830	 -0.02025	  0.65436	711.00000	 13.20	
 17.000	-17.404	  0.57464	  0.55491	 -0.03296	  0.11823	  0.33933	 -0.01916	  0.65845	710.90997	 13.20	
 17.009	-11.617	  0.57425	  0.56621	 -0.04051	  0.14513	  0.30495	 -0.01623	  0.65849	710.94000	 13.20	
 16.990	 -5.821	  0.57244	  0.57299	 -0.04618	  0.17423	  0.26987	 -0.01317	  0.65719	710.95001	 13.20	
 17.000	  0.000	  0.56893	  0.57556	 -0.04847	  0.20430	  0.23633	 -0.01311	  0.65412	711.03003	 13.20	
 16.990	  5.821	  0.56938	  0.57625	 -0.04911	  0.23617	  0.20347	 -0.01091	  0.65484	710.96002	 13.20	
 17.009	 11.617	  0.57043	  0.57599	 -0.04930	  0.26977	  0.17252	 -0.00955	  0.65704	710.96997	 13.20	
 17.000	 17.404	  0.56676	  0.56584	 -0.04367	  0.30147	  0.14274	 -0.00813	  0.65349	711.06000	 13.20	
 16.990	 23.241	  0.57083	  0.55973	 -0.03963	  0.33706	  0.11392	 -0.00820	  0.65952	710.94000	 13.20	
 16.995	 29.081	  0.56629	  0.53980	 -0.02960	  0.36854	  0.08617	 -0.00767	  0.65432	711.02002	 13.20	
 16.988	 34.839	  0.56472	  0.52210	 -0.01953	  0.39891	  0.06274	 -0.00690	  0.65297	711.03003	 13.20	
 17.014	 40.657	  0.56669	  0.50354	 -0.00917	  0.43184	  0.03829	 -0.00713	  0.65567	710.90002	 13.20	
 17.007	 46.454	  0.56667	  0.47890	  0.00579	  0.46002	  0.01868	 -0.00738	  0.65785	710.92999	 13.20	
 17.001	 52.301	  0.56494	  0.45009	  0.02556	  0.48520	  0.00210	 -0.00647	  0.65391	711.03003	 13.20	
 17.006	 58.063	  0.56585	  0.42350	  0.04458	  0.51030	 -0.01318	 -0.00687	  0.65610	710.98999	 13.20	
 17.002	 63.866	  0.56367	  0.39125	  0.06792	  0.52867	 -0.02549	 -0.00618	  0.65303	711.03998	 13.20	
 17.001	 69.690	  0.56759	  0.36068	  0.09248	  0.54965	 -0.03571	 -0.00404	  0.65815	711.08002	 13.20	
 16.988	 75.483	  0.56307	  0.32708	  0.11797	  0.56012	 -0.04253	 -0.00428	  0.65323	711.02002	 13.20	
 17.012	 81.253	  0.56570	  0.29543	  0.14734	  0.57383	 -0.04962	 -0.00712	  0.65704	711.04999	 13.20	
 16.996	 87.091	  0.56214	  0.26142	  0.17700	  0.57638	 -0.05217	 -0.00825	  0.65180	710.97998	 13.20	
 16.996	 92.909	  0.56335	  0.22839	  0.20705	  0.58073	 -0.05489	 -0.00849	  0.65302	711.14001	 13.20	
 17.008	 98.662	  0.56479	  0.19821	  0.23915	  0.58190	 -0.05411	 -0.00724	  0.65484	711.07001	 13.20	
 16.988	104.517	  0.56308	  0.16680	  0.27211	  0.57473	 -0.05074	 -0.00633	  0.65289	711.08002	 13.20	
 17.001	110.310	  0.56809	  0.13929	  0.30766	  0.57248	 -0.04651	 -0.00848	  0.66005	711.03003	 13.20	
 17.002	116.134	  0.56354	  0.11011	  0.33898	  0.55522	 -0.03936	 -0.01103	  0.65449	710.97998	 13.20	
 17.006	121.937	  0.56553	  0.08487	  0.37133	  0.54195	 -0.03117	 -0.01241	  0.65686	711.08002	 13.20	
 17.001	127.699	  0.56696	  0.06377	  0.40287	  0.52350	 -0.01760	 -0.01685	  0.65749	710.98999	 13.20	
 17.007	133.546	  0.56559	  0.04139	  0.43269	  0.50117	 -0.00388	 -0.01633	  0.65659	711.00000	 13.20	
 17.014	139.343	  0.56761	  0.02233	  0.46219	  0.47674	  0.01134	 -0.01835	  0.65875	710.89001	 13.20	
 16.988	145.161	  0.56749	  0.00628	  0.48701	  0.44879	  0.03185	 -0.01913	  0.65699	711.03003	 13.20	
 16.995	150.919	  0.56742	 -0.00796	  0.50842	  0.41889	  0.05143	 -0.01996	  0.65732	711.09003	 13.20	
 16.990	156.759	  0.57023	 -0.02089	  0.53136	  0.38837	  0.07636	 -0.02356	  0.65983	710.89001	 13.20	
 17.000	162.596	  0.56716	 -0.03043	  0.54386	  0.35453	  0.10066	 -0.02081	  0.65493	710.95001	 13.20	
 17.009	168.383	  0.57051	 -0.03717	  0.55960	  0.32340	  0.12941	 -0.02263	  0.65905	710.96997	 13.20	
 16.990	174.179	  0.56509	 -0.04211	  0.56390	  0.28768	  0.15736	 -0.02365	  0.65344	710.96997	 13.20	
 18.709	174.675	  0.54671	 -0.07804	  0.58543	  0.27420	  0.13979	 -0.03466	  0.65688	710.89001	 13.20	
 18.703	169.441	  0.53939	 -0.07237	  0.56922	  0.30356	  0.10952	 -0.03376	  0.64736	711.00000	 13.20	
 18.691	164.085	  0.54378	 -0.06660	  0.56197	  0.33888	  0.08355	 -0.03340	  0.65379	711.00000	 13.20	
 18.706	158.818	  0.54332	 -0.05857	  0.54783	  0.37151	  0.05826	 -0.03183	  0.65465	711.01001	 13.20	
 18.695	153.537	  0.54801	 -0.04645	  0.53265	  0.40637	  0.03525	 -0.02923	  0.66018	711.06000	 13.20	
 18.704	148.255	  0.54238	 -0.03297	  0.50621	  0.43216	  0.01485	 -0.02670	  0.65167	711.09003	 13.20	
 18.698	142.952	  0.54923	 -0.02084	  0.48881	  0.46759	 -0.00432	 -0.03035	  0.66050	711.04999	 13.20	
 18.699	137.625	  0.54174	 -0.00358	  0.45806	  0.48913	 -0.02114	 -0.02717	  0.65290	711.02002	 13.20	
 18.705	132.343	  0.54294	  0.01473	  0.42993	  0.51547	 -0.03803	 -0.02548	  0.65544	711.06000	 13.20	
 18.713	127.067	  0.54662	  0.03587	  0.40193	  0.54015	 -0.05103	 -0.02578	  0.65943	710.98999	 13.20	
 18.700	121.794	  0.54204	  0.05768	  0.36838	  0.55478	 -0.06212	 -0.02341	  0.65539	711.12000	 13.20	
 18.698	116.504	  0.53858	  0.08264	  0.33435	  0.56800	 -0.07090	 -0.02085	  0.65053	710.96002	 13.20	
 18.707	111.165	  0.54343	  0.11074	  0.30183	  0.58479	 -0.07764	 -0.01879	  0.65531	710.95001	 13.20	
 18.690	105.863	  0.53985	  0.13765	  0.26777	  0.59029	 -0.08409	 -0.01619	  0.65169	711.02002	 13.20	
 18.696	100.583	  0.54337	  0.16807	  0.23647	  0.59988	 -0.08828	 -0.01565	  0.65615	711.02002	 13.20	
 18.700	 95.309	  0.54525	  0.19961	  0.20501	  0.60423	 -0.08973	 -0.01367	  0.65859	710.98999	 13.20	
 18.700	 90.000	  0.54283	  0.23140	  0.17315	  0.60129	 -0.08784	 -0.01619	  0.65660	711.01001	 13.20	
 18.700	 84.691	  0.54191	  0.26236	  0.14254	  0.59494	 -0.08632	 -0.01804	  0.65391	711.03003	 13.20	
 18.696	 79.417	  0.54313	  0.29612	  0.11448	  0.58680	 -0.08069	 -0.01391	  0.65382	711.03003	 13.20	
 18.690	 74.137	  0.54497	  0.32973	  0.08704	  0.57629	 -0.07445	 -0.01332	  0.65536	711.10999	 13.20	
 18.707	 68.835	  0.54718	  0.36374	  0.06406	  0.56382	 -0.06494	 -0.01308	  0.65965	711.07001	 13.30	
 18.698	 63.496	  0.55109	  0.39796	  0.03940	  0.54780	 -0.05466	 -0.01582	  0.66137	711.08002	 13.20	
 18.700	 58.206	  0.54055	  0.42244	  0.01668	  0.51788	 -0.04157	 -0.01474	  0.65138	711.06000	 13.30	
 18.713	 52.933	  0.53890	  0.44933	 -0.00168	  0.49321	 -0.02770	 -0.01782	  0.64950	711.03003	 13.30	
 18.705	 47.657	  0.54467	  0.48048	 -0.02000	  0.47389	 -0.01406	 -0.01730	  0.65681	711.02002	 13.20	
 18.699	 42.375	  0.54153	  0.50262	 -0.03611	  0.44103	  0.00573	 -0.01772	  0.65156	711.09003	 13.30	
 18.698	 37.048	  0.54511	  0.52810	 -0.04726	  0.41238	  0.02829	 -0.01566	  0.65378	711.09998	 13.30	
 18.704	 31.745	  0.54928	  0.55071	 -0.05971	  0.38444	  0.05026	 -0.01724	  0.66063	711.04999	 13.30	
 18.695	 26.463	  0.54643	  0.56466	 -0.06749	  0.35128	  0.07521	 -0.02070	  0.65587	711.03003	 13.30	
 18.706	 21.182	  0.54156	  0.57117	 -0.07451	  0.31432	  0.10001	 -0.02163	  0.64877	711.07001	 13.30	
 18.691	 15.915	  0.54320	  0.58223	 -0.08001	  0.28379	  0.12734	 -0.01782	  0.65125	711.06000	 13.30	
 18.703	 10.559	  0.54294	  0.58732	 -0.08259	  0.25029	  0.15942	 -0.01931	  0.64962	711.02002	 13.30	
 18.709	  5.325	  0.54825	  0.59559	 -0.08439	  0.21893	  0.19250	 -0.02115	  0.65520	711.06000	 13.30	
 18.700	  0.000	  0.55100	  0.59559	 -0.08338	  0.18948	  0.22392	 -0.02025	  0.65747	711.03003	 13.30	
 18.709	 -5.325	  0.54729	  0.58789	 -0.07973	  0.15684	  0.25598	 -0.02260	  0.65209	711.02002	 13.30	
 18.703	-10.559	  0.55076	  0.58174	 -0.07368	  0.12956	  0.29077	 -0.02292	  0.65482	711.03003	 13.30	
 18.691	-15.915	  0.55592	  0.57504	 -0.06763	  0.10193	  0.32800	 -0.02468	  0.66045	711.02002	 13.30	
 18.706	-21.182	  0.54866	  0.55089	 -0.05616	  0.07566	  0.35732	 -0.02977	  0.65072	711.06000	 13.30	
 18.695	-26.463	  0.54993	  0.53497	 -0.04525	  0.05381	  0.38800	 -0.03217	  0.65286	711.03003	 13.30	
 18.704	-31.745	  0.55041	  0.51358	 -0.03253	  0.03162	  0.41793	 -0.03457	  0.65291	711.02002	 13.30	
 18.698	-37.048	  0.55441	  0.49364	 -0.01866	  0.01143	  0.45006	 -0.03588	  0.65742	711.06000	 13.30	
 18.699	-42.375	  0.55650	  0.47067	 -0.00214	 -0.00694	  0.48111	 -0.03596	  0.66390	711.09998	 13.30	
 18.705	-47.657	  0.54675	  0.43587	  0.01606	 -0.02207	  0.49709	 -0.03403	  0.64892	710.98999	 13.30	
 18.713	-52.933	  0.55652	  0.41243	  0.03926	 -0.03322	  0.52645	 -0.03782	  0.65872	710.97998	 13.30	
 18.700	-58.206	  0.55496	  0.38126	  0.06230	 -0.04303	  0.54157	 -0.03959	  0.65613	710.94000	 13.30	
 18.698	-63.496	  0.55628	  0.34752	  0.08963	 -0.05307	  0.56147	 -0.03688	  0.65745	710.91998	 13.30	
 18.707	-68.835	  0.55164	  0.31191	  0.11648	 -0.05886	  0.56888	 -0.03912	  0.65086	710.97998	 13.30	
 18.690	-74.137	  0.55881	  0.28101	  0.14503	 -0.06777	  0.58678	 -0.03736	  0.66216	710.92999	 13.30	
 18.696	-79.417	  0.55436	  0.24755	  0.17424	 -0.06860	  0.58763	 -0.03784	  0.65507	710.95001	 13.30	
 18.700	-84.691	  0.55460	  0.21631	  0.20492	 -0.07008	  0.59006	 -0.04034	  0.65615	710.98999	 13.30	
 18.700	-90.000	  0.55491	  0.18492	  0.23749	 -0.06719	  0.58717	 -0.03646	  0.65514	711.00000	 13.30	
 18.700	-95.309	  0.55597	  0.15453	  0.26929	 -0.06609	  0.58416	 -0.03995	  0.65797	710.92999	 13.30	
 18.696	-100.583	  0.55765	  0.12816	  0.30249	 -0.05961	  0.57553	 -0.04179	  0.65821	711.02002	 13.30	
 18.690	-105.863	  0.55641	  0.10129	  0.33644	 -0.05045	  0.56153	 -0.04358	  0.65624	710.96997	 13.30	
 18.707	-111.165	  0.55344	  0.07450	  0.36741	 -0.04225	  0.54559	 -0.03869	  0.65441	710.96002	 13.30	
 18.698	-116.504	  0.55606	  0.04754	  0.40210	 -0.03833	  0.53521	 -0.03549	  0.66023	711.01001	 13.30	
 18.700	-121.794	  0.55004	  0.02622	  0.42790	 -0.02325	  0.50722	 -0.03571	  0.65385	710.96002	 13.30	
 18.713	-127.067	  0.55203	  0.00918	  0.45685	 -0.00700	  0.48478	 -0.03966	  0.65514	710.98999	 13.30	
 18.705	-132.343	  0.55406	 -0.01104	  0.48678	  0.00744	  0.46171	 -0.03561	  0.65926	710.98999	 13.30	
 18.699	-137.625	  0.55450	 -0.02573	  0.51168	  0.02913	  0.43039	 -0.04042	  0.65736	711.06000	 13.30	
 18.698	-142.952	  0.55054	 -0.03983	  0.52823	  0.04839	  0.39744	 -0.04218	  0.65358	711.03998	 13.30	
 18.704	-148.255	  0.54890	 -0.05055	  0.54588	  0.07182	  0.36567	 -0.03465	  0.65356	711.04999	 13.30	
 18.695	-153.537	  0.54815	 -0.06047	  0.56185	  0.09543	  0.33424	 -0.03466	  0.65291	710.96997	 13.30	
 18.706	-158.818	  0.55261	 -0.07095	  0.58120	  0.12192	  0.30318	 -0.03444	  0.66068	711.01001	 13.30	
 18.691	-164.085	  0.54810	 -0.07565	  0.58374	  0.14906	  0.26916	 -0.03756	  0.65347	710.90002	 13.30	
 18.703	-169.441	  0.54813	 -0.07869	  0.58853	  0.18002	  0.23475	 -0.03654	  0.65389	710.97998	 13.30	
 18.709	-174.675	  0.54661	 -0.08167	  0.59069	  0.21158	  0.20034	 -0.03261	  0.65460	710.91998	 13.30	
 18.700	180.000	  0.54774	 -0.07982	  0.58962	  0.24472	  0.16974	 -0.03752	  0.65670	711.06000	 13.30	
 20.400	180.000	  0.52431	 -0.11842	  0.60852	  0.22418	  0.15108	 -0.03979	  0.65699	711.06000	 13.30	
 20.401	-175.153	  0.52925	 -0.11756	  0.61205	  0.19590	  0.18396	 -0.04806	  0.66185	711.00000	 13.30	
 20.407	-170.264	  0.52541	 -0.11535	  0.60678	  0.16306	  0.21682	 -0.04519	  0.65613	710.96002	 13.30	
 20.410	-165.423	  0.52544	 -0.11247	  0.60132	  0.13146	  0.24842	 -0.04356	  0.65510	710.98999	 13.30	
 20.392	-160.496	  0.52443	 -0.10512	  0.59156	  0.10545	  0.28039	 -0.04477	  0.65223	710.95001	 13.30	
 20.401	-155.705	  0.53103	 -0.10122	  0.58835	  0.07879	  0.31755	 -0.04606	  0.66210	711.06000	 13.30	
 20.405	-150.835	  0.52181	 -0.08923	  0.56361	  0.05361	  0.34509	 -0.04433	  0.65020	711.09003	 13.30	
 20.397	-145.903	  0.52448	 -0.07948	  0.54815	  0.03096	  0.37752	 -0.04592	  0.65064	711.03003	 13.30	
 20.392	-141.062	  0.52836	 -0.06674	  0.53124	  0.01238	  0.40913	 -0.04640	  0.65447	711.08002	 13.30	
 20.396	-136.227	  0.52979	 -0.05465	  0.50942	 -0.00967	  0.44050	 -0.04249	  0.65508	711.09003	 13.30	
 20.408	-131.372	  0.52947	 -0.04045	  0.48612	 -0.02804	  0.46847	 -0.04429	  0.65649	710.96002	 13.30	
 20.410	-126.511	  0.52749	 -0.02142	  0.45727	 -0.04237	  0.49218	 -0.04563	  0.65281	710.96002	 13.40	
 20.400	-121.604	  0.52742	 -0.00234	  0.42734	 -0.05667	  0.51610	 -0.04151	  0.65191	711.04999	 13.40	
 20.403	-116.741	  0.53313	  0.01784	  0.40153	 -0.06964	  0.54287	 -0.04152	  0.66002	711.06000	 13.40	
 20.413	-111.900	  0.53067	  0.04107	  0.36883	 -0.08049	  0.55922	 -0.04344	  0.65588	711.09003	 13.40	
 20.398	-107.004	  0.53201	  0.06540	  0.33661	 -0.08922	  0.57714	 -0.03846	  0.65915	710.97998	 13.40	
 20.394	-102.132	  0.53260	  0.09163	  0.30366	 -0.09538	  0.58883	 -0.04107	  0.65717	710.96002	 13.40	
 20.403	-97.332	  0.53625	  0.11940	  0.27463	 -0.10101	  0.60128	 -0.04087	  0.66169	711.02002	 13.40	
 20.392	-92.440	  0.53050	  0.14911	  0.23879	 -0.10326	  0.60279	 -0.04019	  0.65540	711.00000	 13.40	
 20.392	-87.560	  0.52892	  0.17854	  0.20633	 -0.10356	  0.60233	 -0.04324	  0.65207	710.95001	 13.40	
 20.403	-82.668	  0.53324	  0.21225	  0.17611	 -0.10433	  0.60732	 -0.04362	  0.65749	710.92999	 13.40	
 20.394	-77.868	  0.53275	  0.24277	  0.14544	 -0.10239	  0.60227	 -0.04307	  0.65561	710.87000	 13.40	
 20.398	-72.996	  0.52750	  0.27481	  0.11496	 -0.09668	  0.58929	 -0.04101	  0.65025	711.02002	 13.40	
 20.413	-68.100	  0.53081	  0.30809	  0.08804	 -0.09376	  0.58411	 -0.03979	  0.65230	711.01001	 13.40	
 20.403	-63.259	  0.53105	  0.33900	  0.06183	 -0.09006	  0.57253	 -0.04264	  0.65465	710.89001	 13.40	
 20.400	-58.396	  0.52965	  0.37105	  0.03661	 -0.08027	  0.55339	 -0.04027	  0.65232	710.88000	 13.40	
 20.410	-53.489	  0.53077	  0.40381	  0.01436	 -0.06893	  0.53857	 -0.04031	  0.65606	711.00000	 13.40	
 20.408	-48.628	  0.53027	  0.43410	 -0.00760	 -0.05539	  0.51366	 -0.04085	  0.65308	710.96002	 13.40	
 20.396	-43.773	  0.53112	  0.46272	 -0.02741	 -0.04417	  0.49165	 -0.04169	  0.65508	711.04999	 13.40	
 20.392	-38.938	  0.53063	  0.48928	 -0.04384	 -0.02734	  0.46567	 -0.04149	  0.65505	710.92999	 13.40	
 20.397	-34.097	  0.53255	  0.51591	 -0.05741	 -0.00702	  0.43553	 -0.04071	  0.65692	710.92999	 13.40	
 20.405	-29.165	  0.52376	  0.53162	 -0.07243	  0.01140	  0.40146	 -0.04265	  0.64878	710.89001	 13.40	
 20.401	-24.295	  0.52811	  0.55525	 -0.08377	  0.03293	  0.37401	 -0.03628	  0.65458	710.96002	 13.40	
 20.392	-19.504	  0.52778	  0.57221	 -0.09346	  0.05649	  0.34239	 -0.03446	  0.65479	710.84003	 13.40	
 20.410	-14.577	  0.53170	  0.59032	 -0.10305	  0.08173	  0.31017	 -0.03441	  0.66017	710.96002	 13.40	
 20.407	 -9.736	  0.52738	  0.60030	 -0.11108	  0.10702	  0.27585	 -0.03575	  0.65571	710.90997	 13.40	
 20.401	 -4.847	  0.52532	  0.60375	 -0.11327	  0.13696	  0.24215	 -0.03219	  0.65309	710.96002	 13.40	
 20.400	  0.000	  0.52917	  0.61153	 -0.11653	  0.16801	  0.21028	 -0.03061	  0.65875	710.88000	 13.40	
 20.401	  4.847	  0.52838	  0.61075	 -0.11636	  0.19729	  0.17986	 -0.03002	  0.65626	710.92999	 13.40	
 20.407	  9.736	  0.51998	  0.60358	 -0.11698	  0.22872	  0.14222	 -0.02666	  0.64920	710.95001	 13.40	
 20.410	 14.577	  0.52435	  0.60370	 -0.11678	  0.26091	  0.11545	 -0.03167	  0.65485	710.95001	 13.40	
 20.392	 19.504	  0.52632	  0.59575	 -0.10980	  0.29812	  0.08719	 -0.02767	  0.65843	710.92999	 13.40	
 20.401	 24.295	  0.51988	  0.57865	 -0.10099	  0.32508	  0.06274	 -0.02906	  0.64865	710.96002	 13.40	
 20.405	 29.165	  0.52078	  0.56682	 -0.09857	  0.35649	  0.03577	 -0.02609	  0.65250	710.98999	 13.40	
 20.397	 34.097	  0.52289	  0.54916	 -0.08611	  0.39271	  0.01353	 -0.02761	  0.65476	710.94000	 13.40	
 20.392	 38.938	  0.52116	  0.52910	 -0.07610	  0.42138	 -0.00847	 -0.02527	  0.65379	710.89001	 13.40	
 20.396	 43.773	  0.52274	  0.50790	 -0.06293	  0.45327	 -0.02798	 -0.02273	  0.65637	710.87000	 13.40	
 20.408	 48.628	  0.51973	  0.48017	 -0.04686	  0.47860	 -0.04506	 -0.02645	  0.65224	710.92999	 13.40	
 20.410	 53.489	  0.52045	  0.45311	 -0.03260	  0.50667	 -0.06366	 -0.02780	  0.65514	711.01001	 13.40	
 20.400	 58.396	  0.52483	  0.42619	 -0.01177	  0.53285	 -0.07588	 -0.02600	  0.65675	711.07001	 13.40	
 20.403	 63.259	  0.51743	  0.39174	  0.00907	  0.54654	 -0.08649	 -0.02324	  0.65025	710.88000	 13.40	
 20.413	 68.100	  0.52302	  0.36212	  0.02863	  0.57252	 -0.10209	 -0.02317	  0.65824	710.88000	 13.40	
 20.398	 72.996	  0.52159	  0.32746	  0.05219	  0.59076	 -0.11427	 -0.02470	  0.65997	710.79999	 13.40	
 20.394	 77.868	  0.51732	  0.29264	  0.07901	  0.59824	 -0.11884	 -0.02229	  0.65341	710.91998	 13.40	
 20.403	 82.668	  0.51670	  0.25946	  0.10725	  0.60485	 -0.12240	 -0.02292	  0.65179	710.94000	 13.40	
 20.392	 87.560	  0.52354	  0.23392	  0.14142	  0.61546	 -0.11953	 -0.02425	  0.65915	710.94000	 13.40	
 20.392	 92.440	  0.52217	  0.20047	  0.17133	  0.61554	 -0.12017	 -0.02405	  0.65505	710.94000	 13.40	
 20.403	 97.332	  0.51758	  0.16612	  0.20246	  0.61111	 -0.11966	 -0.02309	  0.65034	710.82001	 13.40	
 20.394	102.132	  0.52423	  0.13826	  0.23517	  0.61654	 -0.12266	 -0.02785	  0.66031	710.90002	 13.50	
 20.398	107.004	  0.51552	  0.10626	  0.26168	  0.60294	 -0.11949	 -0.02665	  0.65118	710.96997	 13.50	
 20.413	111.900	  0.52123	  0.07903	  0.29852	  0.60047	 -0.11686	 -0.02744	  0.65835	710.92999	 13.50	
 20.403	116.741	  0.51430	  0.05140	  0.32878	  0.57893	 -0.10734	 -0.02894	  0.65121	711.02002	 13.50	
 20.400	121.604	  0.51782	  0.02891	  0.36325	  0.56405	 -0.09577	 -0.03275	  0.65394	710.98999	 13.50	
 20.410	126.511	  0.52083	  0.00591	  0.39822	  0.54999	 -0.08700	 -0.03307	  0.65888	710.98999	 13.40	
 20.408	131.372	  0.51796	 -0.01322	  0.42446	  0.52413	 -0.07278	 -0.03642	  0.65220	710.90997	 13.50	
 20.396	136.227	  0.51901	 -0.03114	  0.45431	  0.50182	 -0.05904	 -0.03479	  0.65438	711.02002	 13.50	
 20.392	141.062	  0.51962	 -0.05064	  0.48320	  0.47779	 -0.04485	 -0.03822	  0.65636	711.06000	 13.50	
 20.397	145.903	  0.51879	 -0.06437	  0.50783	  0.44652	 -0.02482	 -0.03902	  0.65537	711.13000	 13.50	
 20.405	150.835	  0.52855	 -0.07896	  0.53828	  0.42325	 -0.00539	 -0.03803	  0.66482	711.03003	 13.50	
 20.401	155.705	  0.52095	 -0.08868	  0.55040	  0.38811	  0.01542	 -0.03860	  0.65677	711.04999	 13.50	
 20.392	160.496	  0.51940	 -0.09864	  0.56547	  0.35590	  0.03718	 -0.03811	  0.65431	710.96002	 13.50	
 20.410	165.423	  0.52195	 -0.10404	  0.57975	  0.32254	  0.06652	 -0.03973	  0.65440	711.09003	 13.50	
 20.407	170.264	  0.52392	 -0.11027	  0.59479	  0.29102	  0.09389	 -0.04058	  0.65777	710.94000	 13.50	
 20.401	175.153	  0.51943	 -0.11374	  0.59808	  0.25424	  0.12283	 -0.03767	  0.65164	711.09003	 13.50	
  0.141	 45.000	  0.65398	  0.30120	  0.29384	  0.30950	  0.28932	  0.04577	  0.65516	711.02002	 13.50	
  4.001	128.691	  0.64600	  0.24883	  0.33109	  0.36550	  0.22190	  0.04223	  0.64887	710.91998	 13.50	
  4.002	 76.995	  0.65092	  0.31546	  0.26655	  0.37771	  0.21512	  0.04609	  0.65477	711.03003	 13.50	
  4.002	 25.892	  0.65114	  0.36583	  0.22333	  0.33047	  0.25433	  0.04270	  0.65299	711.01001	 13.50	
  4.002	-25.892	  0.65241	  0.36138	  0.23197	  0.26604	  0.32286	  0.04039	  0.65386	711.03003	 13.50	
  4.002	-76.995	  0.65755	  0.30717	  0.28437	  0.23490	  0.36439	  0.03555	  0.65896	711.09998	 13.50	
  4.001	-128.691	  0.64885	  0.24418	  0.34442	  0.24878	  0.33963	  0.03435	  0.65115	711.02002	 13.50	
  4.000	180.000	  0.65035	  0.22378	  0.36901	  0.30707	  0.28019	  0.03913	  0.65183	710.94000	 13.50	
  8.000	180.000	  0.63820	  0.13952	  0.44187	  0.30000	  0.25959	  0.02212	  0.65186	711.03003	 13.50	
  7.991	-152.370	  0.64300	  0.14979	  0.43190	  0.23034	  0.33577	  0.01878	  0.65585	711.09003	 13.50	
  7.997	-124.550	  0.63254	  0.18760	  0.37834	  0.17519	  0.39526	  0.01653	  0.64666	710.96997	 13.50	
  8.006	-96.837	  0.64230	  0.25206	  0.31303	  0.14947	  0.43733	  0.01640	  0.65496	711.01001	 13.50	
  7.988	-69.228	  0.63963	  0.32409	  0.24028	  0.15241	  0.43108	  0.01953	  0.65149	711.03998	 13.50	
  7.997	-41.563	  0.63743	  0.39211	  0.17906	  0.18336	  0.38907	  0.02404	  0.65020	711.12000	 13.50	
  8.008	-13.821	  0.64691	  0.44023	  0.14770	  0.24353	  0.32568	  0.02983	  0.65804	711.08002	 13.50	
  8.008	 13.821	  0.64464	  0.44631	  0.13864	  0.31582	  0.24690	  0.03253	  0.65750	710.94000	 13.50	
  7.997	 41.563	  0.64288	  0.41351	  0.16096	  0.38854	  0.18257	  0.03738	  0.65854	710.98999	 13.50	
  7.988	 69.228	  0.64102	  0.34756	  0.21400	  0.43883	  0.14242	  0.04054	  0.65730	710.98999	 13.50	
  8.006	 96.837	  0.63343	  0.27050	  0.27925	  0.45125	  0.12767	  0.03501	  0.64981	710.96002	 13.50	
  7.997	124.550	  0.63487	  0.20321	  0.35558	  0.42860	  0.14703	  0.03202	  0.65154	710.96997	 13.50	
  7.991	152.370	  0.64267	  0.15863	  0.41718	  0.37695	  0.19274	  0.02755	  0.65701	711.04999	 13.50	
 12.009	161.059	  0.61408	  0.06721	  0.48397	  0.36241	  0.16166	  0.00601	  0.65428	710.92999	 13.50	
 12.013	142.081	  0.60825	  0.10101	  0.43325	  0.42937	  0.10502	  0.00900	  0.64988	710.90002	 13.50	
 12.006	123.113	  0.60644	  0.15100	  0.36729	  0.48049	  0.06772	  0.01467	  0.64773	710.95001	 13.60	
 12.007	104.200	  0.60801	  0.21674	  0.29042	  0.51001	  0.04640	  0.01737	  0.64810	710.92999	 13.60	
 11.989	 85.301	  0.61827	  0.29549	  0.22064	  0.51774	  0.04779	  0.01921	  0.66021	711.02002	 13.60	
 12.013	 66.294	  0.61070	  0.37102	  0.15010	  0.48442	  0.06761	  0.02501	  0.65095	710.98999	 13.60	
 12.012	 47.388	  0.61454	  0.43814	  0.09863	  0.43367	  0.10429	  0.02137	  0.65406	711.06000	 13.60	
 11.990	 28.440	  0.61230	  0.48466	  0.06489	  0.36257	  0.15896	  0.01957	  0.65158	711.08002	 13.60	
 11.991	  9.464	  0.61372	  0.50611	  0.05141	  0.28638	  0.22709	  0.01645	  0.65133	711.02002	 13.60	
 11.991	 -9.464	  0.61833	  0.50235	  0.05970	  0.21337	  0.30873	  0.01201	  0.65436	710.91998	 13.60	
 11.990	-28.440	  0.62277	  0.47290	  0.08321	  0.15023	  0.38550	  0.00465	  0.66024	710.95001	 13.60	
 12.012	-47.388	  0.61933	  0.41110	  0.12513	  0.10127	  0.44657	  0.00049	  0.65471	710.90002	 13.60	
 12.013	-66.294	  0.61781	  0.33842	  0.18632	  0.07250	  0.48751	 -0.00336	  0.65256	710.98999	 13.60	
 11.989	-85.301	  0.62166	  0.26230	  0.26154	  0.06396	  0.50309	 -0.00614	  0.65650	711.00000	 13.60	
 12.007	-104.200	  0.62125	  0.19028	  0.33708	  0.07284	  0.49056	 -0.00520	  0.65697	711.07001	 13.60	
 12.006	-123.113	  0.62029	  0.13095	  0.40941	  0.10134	  0.45000	 -0.00456	  0.65745	710.90997	 13.60	
 12.013	-142.081	  0.62027	  0.08629	  0.46889	  0.14959	  0.38595	 -0.00172	  0.65693	710.90002	 13.60	
 12.009	-161.059	  0.61423	  0.06042	  0.49864	  0.21095	  0.30973	  0.00087	  0.65231	710.90002	 13.60	
 16.000	180.000	  0.57744	 -0.02524	  0.55779	  0.26170	  0.20013	 -0.01721	  0.65205	710.78003	 13.60	
 15.990	-165.604	  0.58642	 -0.02177	  0.56354	  0.19004	  0.27997	 -0.01938	  0.66128	710.91998	 13.60	
 16.002	-151.165	  0.57959	 -0.00475	  0.52897	  0.12276	  0.35284	 -0.02392	  0.65210	711.03998	 13.60	
 16.002	-136.836	  0.58486	  0.02424	  0.48975	  0.06958	  0.42666	 -0.02602	  0.65821	710.98999	 13.60	
 15.995	-122.439	  0.58301	  0.06698	  0.42445	  0.02635	  0.48577	 -0.02511	  0.65391	711.02002	 13.60	
 15.993	-107.966	  0.58673	  0.12423	  0.35452	 -0.00118	  0.53420	 -0.02531	  0.66052	711.00000	 13.60	
 16.005	-93.629	  0.58360	  0.19089	  0.27562	 -0.01525	  0.55309	 -0.02456	  0.65342	711.06000	 13.60	
 15.992	-79.234	  0.58329	  0.26556	  0.20025	 -0.01575	  0.55495	 -0.02321	  0.65347	710.96002	 13.60	
 16.009	-64.774	  0.58496	  0.34480	  0.13095	 -0.00573	  0.53668	 -0.02316	  0.65556	710.97998	 13.60	
 15.997	-50.364	  0.58440	  0.41949	  0.07003	  0.02027	  0.49362	 -0.02034	  0.65646	711.02002	 13.60	
 15.997	-36.045	  0.58292	  0.48079	  0.02597	  0.06056	  0.43335	 -0.01896	  0.65459	711.02002	 13.60	
 16.000	-21.597	  0.57813	  0.52693	 -0.00468	  0.11520	  0.35888	 -0.01451	  0.64994	711.01001	 13.60	
 16.003	 -7.169	  0.58005	  0.55766	 -0.02495	  0.17983	  0.28185	 -0.00937	  0.65364	711.04999	 13.60	
 16.003	  7.169	  0.57511	  0.56246	 -0.03235	  0.25036	  0.20379	 -0.00682	  0.65090	710.90002	 13.60	
 16.000	 21.597	  0.57379	  0.54431	 -0.02093	  0.32684	  0.13534	 -0.00298	  0.65065	710.96997	 13.60	
 15.997	 36.045	  0.57697	  0.50989	  0.00153	  0.40438	  0.07515	 -0.00162	  0.65426	710.95001	 13.60	
 15.997	 50.364	  0.57682	  0.45526	  0.03751	  0.47158	  0.02808	 -0.00258	  0.65481	710.95001	 13.60	
 16.009	 64.774	  0.57508	  0.38489	  0.08775	  0.52527	 -0.00729	  0.00069	  0.65445	710.83002	 13.60	
 15.992	 79.234	  0.57231	  0.30814	  0.14824	  0.55502	 -0.02727	 -0.00067	  0.65063	710.85999	 13.60	
 16.005	 93.629	  0.57292	  0.23159	  0.21936	  0.56987	 -0.03511	 -0.00236	  0.65257	710.87000	 13.60	
 15.993	107.966	  0.57163	  0.15979	  0.29526	  0.55886	 -0.02908	 -0.00221	  0.65263	710.85999	 13.60	
 15.995	122.439	  0.57440	  0.09724	  0.37386	  0.53138	 -0.00995	 -0.00813	  0.65569	710.81000	 13.60	
 16.002	136.836	  0.56995	  0.04643	  0.43967	  0.47546	  0.02494	 -0.01187	  0.64953	710.82001	 13.70	
 16.002	151.165	  0.57667	  0.00802	  0.50179	  0.41505	  0.07025	 -0.01289	  0.65669	710.90997	 13.60	
 15.990	165.604	  0.57603	 -0.01473	  0.53842	  0.34073	  0.12929	 -0.01640	  0.65278	710.87000	 13.70	
 20.003	168.362	  0.52806	 -0.09984	  0.58561	  0.30637	  0.08792	 -0.04044	  0.65575	710.85999	 13.70	
 20.008	156.764	  0.52468	 -0.08209	  0.54842	  0.38050	  0.02762	 -0.03620	  0.65276	710.87000	 13.70	
 20.000	145.147	  0.52423	 -0.05394	  0.49991	  0.45200	 -0.02213	 -0.03316	  0.65291	710.95001	 13.70	
 19.995	133.545	  0.52927	 -0.01668	  0.44274	  0.51997	 -0.06254	 -0.03353	  0.66062	710.84003	 13.70	
 20.009	121.926	  0.52577	  0.03470	  0.36655	  0.56597	 -0.09029	 -0.02854	  0.65656	710.85999	 13.70	
 20.005	110.327	  0.52588	  0.09407	  0.29006	  0.59906	 -0.10826	 -0.02456	  0.65764	710.89001	 13.70	
 19.989	 98.733	  0.52205	  0.16172	  0.21315	  0.60796	 -0.11374	 -0.02029	  0.65180	710.90997	 13.70	
 19.999	 87.075	  0.52445	  0.23762	  0.14176	  0.60667	 -0.11025	 -0.02030	  0.65229	710.84003	 13.70	
 19.992	 75.457	  0.52471	  0.31357	  0.07330	  0.58606	 -0.10245	 -0.02018	  0.65233	710.81000	 13.70	
 20.009	 63.844	  0.52303	  0.38916	  0.01619	  0.54962	 -0.08269	 -0.01994	  0.65051	710.90997	 13.70	
 19.989	 52.269	  0.52289	  0.45699	 -0.02817	  0.49746	 -0.05111	 -0.02420	  0.65033	710.97998	 13.70	
 19.999	 40.602	  0.52684	  0.51897	 -0.06446	  0.43421	 -0.01059	 -0.02543	  0.65436	711.00000	 13.70	
 20.004	 29.051	  0.52923	  0.56502	 -0.08815	  0.36159	  0.04412	 -0.02708	  0.65450	710.90997	 13.70	
 20.005	 17.433	  0.53524	  0.59987	 -0.10594	  0.28639	  0.10602	 -0.02978	  0.65949	710.97998	 13.70	
 20.006	  5.780	  0.52972	  0.60556	 -0.11032	  0.20720	  0.17579	 -0.02767	  0.65306	711.03998	 13.70	
 20.006	 -5.780	  0.53179	  0.59935	 -0.10497	  0.13745	  0.25195	 -0.03006	  0.65364	710.94000	 13.70	
 20.005	-17.433	  0.53332	  0.57557	 -0.08976	  0.07309	  0.32987	 -0.03229	  0.65322	710.97998	 13.70	
 20.004	-29.051	  0.53217	  0.53169	 -0.06374	  0.01954	  0.40377	 -0.03811	  0.65103	710.97998	 13.70	
 19.999	-40.602	  0.53542	  0.47905	 -0.03010	 -0.02372	  0.47231	 -0.03894	  0.65406	711.03003	 13.70	
 19.989	-52.269	  0.53558	  0.41098	  0.01633	 -0.05656	  0.52821	 -0.04154	  0.65253	711.04999	 13.70	
 20.009	-63.844	  0.53792	  0.33767	  0.07168	 -0.07981	  0.57145	 -0.04045	  0.65465	711.03998	 13.70	
 19.992	-75.457	  0.53611	  0.26048	  0.13544	 -0.09185	  0.59373	 -0.04070	  0.65373	710.83002	 13.70	
 19.999	-87.075	  0.53814	  0.18676	  0.20875	 -0.09505	  0.60344	 -0.04059	  0.65709	710.94000	 13.70	
 19.989	-98.733	  0.53310	  0.11688	  0.28169	 -0.08852	  0.58773	 -0.03994	  0.65145	710.94000	 13.70	
 20.005	-110.327	  0.53640	  0.05586	  0.35857	 -0.07443	  0.56328	 -0.04012	  0.65701	710.89001	 13.70	
 20.009	-121.926	  0.53261	  0.00359	  0.42922	 -0.04814	  0.51369	 -0.04041	  0.65248	710.94000	 13.70	
 19.995	-133.545	  0.53547	 -0.03914	  0.49606	 -0.01201	  0.45678	 -0.04199	  0.65581	710.81000	 13.70	
 20.000	-145.147	  0.53270	 -0.06902	  0.54416	  0.03579	  0.38551	 -0.04114	  0.65392	710.98999	 13.70	
 20.008	-156.764	  0.53830	 -0.09494	  0.58961	  0.09111	  0.31302	 -0.04204	  0.66295	710.96002	 13.70	
 20.003	-168.362	  0.52778	 -0.10413	  0.59764	  0.15626	  0.23168	 -0.04240	  0.65215	710.96997	 13.70	
 20.000	180.000	  0.53217	 -0.10906	  0.60474	  0.23047	  0.15789	 -0.03768	  0.65905	710.78998	 13.70	
