FileType=PCF
NHL=14
Date=03/07/19	16:18:00
Facility=APL
Serial=16071-10
Customer=NASA
NP=6
Mach=0.080000
Calibration=1:1
CalPts=490
TstPts=95
PortNumbering=AP Standard
Units=Torr C m/s kg/m^3 deg mm 
Theta[deg]	Phi[deg]	P1[Torr]	P2[Torr]	P3[Torr]	P4[Torr]	P5[Torr]	P6[Torr]	Pt[Torr]	Ps[Abs,Torr]	Ts[C]	
  0.000	  0.000	  3.15012	  1.37327	  1.38639	  1.40852	  1.33690	  0.07032	  3.14236	710.25000	 29.20	
  1.691	128.401	  3.14799	  1.28443	  1.44940	  1.51683	  1.20556	  0.06358	  3.14343	710.33002	 29.20	
  1.692	 77.194	  3.14852	  1.39509	  1.33774	  1.53083	  1.19085	  0.06947	  3.14273	710.28998	 29.20	
  1.699	 26.182	  3.14846	  1.49709	  1.24677	  1.45272	  1.27610	  0.07370	  3.14081	710.29999	 29.20	
  1.699	-26.182	  3.14980	  1.47453	  1.26185	  1.32588	  1.39770	  0.06996	  3.14308	710.20001	 29.20	
  1.692	-77.194	  3.14537	  1.38848	  1.36271	  1.25899	  1.47923	  0.06730	  3.13915	710.25000	 29.20	
  1.691	-128.401	  3.14707	  1.26902	  1.47415	  1.29342	  1.43250	  0.06086	  3.14043	710.29999	 29.20	
  1.700	180.000	  3.14451	  1.21907	  1.51615	  1.39944	  1.31277	  0.05962	  3.13816	710.33002	 29.20	
  3.400	180.000	  3.13891	  1.04365	  1.67912	  1.39778	  1.27717	  0.04385	  3.13940	710.21997	 29.20	
  3.388	-152.325	  3.14176	  1.07196	  1.65245	  1.25729	  1.42349	  0.04408	  3.14088	710.33002	 29.20	
  3.397	-124.529	  3.14252	  1.15368	  1.56045	  1.14777	  1.54832	  0.04524	  3.14182	710.28998	 29.20	
  3.399	-96.763	  3.14022	  1.27840	  1.41943	  1.08904	  1.61634	  0.04768	  3.13828	710.34003	 29.20	
  3.394	-69.283	  3.14242	  1.42304	  1.27604	  1.09776	  1.60754	  0.05352	  3.13996	710.39001	 29.20	
  3.400	-41.398	  3.14165	  1.55346	  1.15596	  1.16277	  1.52718	  0.05783	  3.13872	710.29999	 29.20	
  3.401	-14.021	  3.14219	  1.63858	  1.08055	  1.27320	  1.39935	  0.06196	  3.13982	710.28998	 29.20	
  3.401	 14.021	  3.14440	  1.65565	  1.06410	  1.42056	  1.25085	  0.06621	  3.14215	710.31000	 29.20	
  3.400	 41.398	  3.14139	  1.59147	  1.11296	  1.56539	  1.11740	  0.06620	  3.14024	710.34003	 29.20	
  3.394	 69.283	  3.14220	  1.46698	  1.22263	  1.66675	  1.03372	  0.06313	  3.14156	710.38000	 29.20	
  3.399	 96.763	  3.14054	  1.31970	  1.36297	  1.70196	  1.00224	  0.05831	  3.14069	710.37000	 29.20	
  3.397	124.529	  3.14270	  1.18110	  1.51291	  1.65751	  1.04354	  0.05067	  3.14270	710.32001	 29.20	
  3.388	152.325	  3.14351	  1.08630	  1.62954	  1.54199	  1.14835	  0.04800	  3.14403	710.27002	 29.20	
  5.099	161.165	  3.12720	  0.89016	  1.79857	  1.54473	  1.09181	  0.02638	  3.14501	710.32001	 29.20	
  5.109	142.013	  3.12827	  0.96882	  1.70034	  1.69058	  0.96488	  0.03083	  3.14596	710.34998	 29.20	
  5.095	123.033	  3.12343	  1.08109	  1.56261	  1.79494	  0.87106	  0.03611	  3.14398	710.20001	 29.20	
  5.105	104.191	  3.12593	  1.22887	  1.40643	  1.85509	  0.82711	  0.04218	  3.14479	710.28003	 29.20	
  5.093	 85.207	  3.12577	  1.38909	  1.24569	  1.85451	  0.82839	  0.04550	  3.14343	710.26001	 29.20	
  5.104	 66.290	  3.12695	  1.54785	  1.09890	  1.79788	  0.87377	  0.05085	  3.14358	710.29999	 29.20	
  5.094	 47.331	  3.12666	  1.68336	  0.98379	  1.69059	  0.96468	  0.05362	  3.14179	710.23999	 29.20	
  5.089	 28.397	  3.12895	  1.77706	  0.91246	  1.54796	  1.09157	  0.05527	  3.14169	710.19000	 29.20	
  5.096	  9.576	  3.13157	  1.81975	  0.88435	  1.38969	  1.24240	  0.05590	  3.14278	710.40997	 29.20	
  5.096	 -9.576	  3.13268	  1.80859	  0.89726	  1.23953	  1.39487	  0.05078	  3.14256	710.34998	 29.20	
  5.089	-28.397	  3.13543	  1.73955	  0.95626	  1.10426	  1.54879	  0.04734	  3.14517	710.27002	 29.20	
  5.094	-47.331	  3.13351	  1.62513	  1.05063	  0.99642	  1.67525	  0.03987	  3.14339	710.33002	 29.20	
  5.104	-66.290	  3.13216	  1.47851	  1.18226	  0.92782	  1.75956	  0.03463	  3.14179	710.35999	 29.20	
  5.093	-85.207	  3.13367	  1.32176	  1.33882	  0.90865	  1.78832	  0.03120	  3.14352	710.32001	 29.20	
  5.105	-104.191	  3.13282	  1.16986	  1.49450	  0.92628	  1.76091	  0.02550	  3.14342	710.32001	 29.20	
  5.095	-123.033	  3.12915	  1.03600	  1.63912	  0.99165	  1.67571	  0.02498	  3.14132	710.21997	 29.20	
  5.109	-142.013	  3.13343	  0.94006	  1.75701	  1.09805	  1.55512	  0.02343	  3.14525	710.33002	 29.20	
  5.099	-161.165	  3.12607	  0.87456	  1.82549	  1.23201	  1.39927	  0.02268	  3.14167	710.31000	 29.20	
  5.100	180.000	  3.12825	  0.86349	  1.84027	  1.38916	  1.24456	  0.02433	  3.14559	710.28998	 29.10	
  6.800	180.000	  3.10084	  0.67519	  1.99353	  1.37149	  1.19767	  0.00083	  3.14413	710.34003	 29.10	
  6.796	-166.229	  3.10457	  0.68490	  1.98802	  1.21848	  1.35376	  0.00033	  3.14597	710.34998	 29.10	
  6.808	-152.311	  3.10454	  0.72468	  1.93939	  1.06981	  1.51506	  0.00229	  3.14375	710.25000	 29.20	
  6.795	-138.383	  3.10637	  0.79667	  1.85390	  0.94010	  1.66637	  0.00073	  3.14394	710.33002	 29.10	
  6.792	-124.591	  3.10797	  0.89643	  1.73614	  0.84392	  1.78581	  0.00189	  3.14438	710.27002	 29.10	
  6.787	-110.754	  3.11073	  1.02173	  1.59542	  0.77376	  1.87853	  0.00169	  3.14572	710.23999	 29.10	
  6.800	-96.985	  3.10941	  1.16214	  1.44059	  0.72780	  1.93489	  0.00196	  3.14364	710.34003	 29.10	
  6.800	-83.015	  3.10825	  1.31767	  1.27943	  0.71853	  1.94746	  0.00694	  3.14213	710.32001	 29.10	
  6.787	-69.246	  3.10968	  1.47587	  1.12862	  0.74259	  1.91728	  0.00978	  3.14242	710.33002	 29.10	
  6.792	-55.409	  3.10840	  1.62715	  0.99182	  0.79760	  1.84640	  0.01705	  3.14173	710.27002	 29.10	
  6.795	-41.617	  3.10639	  1.75951	  0.87561	  0.87566	  1.74420	  0.02037	  3.14064	710.33002	 29.10	
  6.808	-27.689	  3.10645	  1.87088	  0.78639	  0.98673	  1.61107	  0.02722	  3.14060	710.34998	 29.10	
  6.796	-13.771	  3.10981	  1.94446	  0.73036	  1.12514	  1.45997	  0.03234	  3.14439	710.39001	 29.10	
  6.800	  0.000	  3.10825	  1.97898	  0.70089	  1.27098	  1.30365	  0.03493	  3.14403	710.39001	 29.10	
  6.796	 13.771	  3.10611	  1.97069	  0.70410	  1.42593	  1.14987	  0.04009	  3.14251	710.39001	 29.10	
  6.808	 27.689	  3.10506	  1.92163	  0.73632	  1.58495	  1.00181	  0.04143	  3.14316	710.27002	 29.10	
  6.795	 41.617	  3.10322	  1.83386	  0.80009	  1.73032	  0.87425	  0.03637	  3.14504	710.21997	 29.10	
  6.792	 55.409	  3.10128	  1.71321	  0.89559	  1.85162	  0.77268	  0.03516	  3.14515	710.31000	 29.10	
  6.787	 69.246	  3.10082	  1.56821	  1.02253	  1.94570	  0.69738	  0.03413	  3.14454	710.20001	 29.10	
  6.800	 83.015	  3.09669	  1.41046	  1.16169	  2.00291	  0.64763	  0.02733	  3.14366	710.28998	 29.00	
  6.800	 96.985	  3.09631	  1.24981	  1.31870	  2.01720	  0.63633	  0.02271	  3.14486	710.31000	 29.00	
  6.787	110.754	  3.09606	  1.09774	  1.48006	  1.98736	  0.66049	  0.02092	  3.14377	710.28003	 29.00	
  6.792	124.591	  3.10059	  0.96162	  1.63574	  1.91973	  0.71670	  0.01581	  3.14861	710.28998	 29.00	
  6.795	138.383	  3.09819	  0.84502	  1.76967	  1.81578	  0.79826	  0.00927	  3.14366	710.27002	 29.00	
  6.808	152.311	  3.09799	  0.75556	  1.88335	  1.68339	  0.90997	  0.00826	  3.14415	710.21997	 29.00	
  6.796	166.229	  3.09897	  0.69862	  1.95884	  1.52913	  1.04811	  0.00355	  3.14377	710.28998	 29.00	
  8.491	168.704	  3.06056	  0.50755	  2.10944	  1.51079	  0.99115	 -0.02431	  3.14404	710.39001	 29.00	
  8.502	157.493	  3.05571	  0.55399	  2.04106	  1.66759	  0.84633	 -0.02079	  3.14112	710.25000	 29.00	
  8.494	146.194	  3.05765	  0.62862	  1.94144	  1.81542	  0.72123	 -0.02060	  3.14455	710.19000	 29.00	
  8.495	135.039	  3.05280	  0.72647	  1.81500	  1.93997	  0.61782	 -0.01741	  3.14132	710.25000	 29.00	
  8.487	123.723	  3.05312	  0.84243	  1.67282	  2.04506	  0.53207	 -0.01181	  3.14252	710.21997	 29.00	
  8.492	112.575	  3.05334	  0.97896	  1.51650	  2.11931	  0.47692	 -0.00812	  3.14386	710.32001	 29.00	
  8.510	101.220	  3.05362	  1.13812	  1.34787	  2.16052	  0.44847	 -0.00380	  3.14334	710.23999	 29.00	
  8.500	 90.000	  3.05751	  1.30031	  1.18786	  2.16465	  0.44804	 -0.00136	  3.14551	710.25000	 29.00	
  8.510	 78.780	  3.05649	  1.46404	  1.03061	  2.13477	  0.46937	  0.00442	  3.14479	710.27002	 29.00	
  8.492	 67.425	  3.05744	  1.62655	  0.88874	  2.06357	  0.52689	  0.01091	  3.14228	710.16998	 29.00	
  8.487	 56.277	  3.06058	  1.77377	  0.76904	  1.96637	  0.60356	  0.01381	  3.14304	710.23999	 29.00	
  8.495	 44.961	  3.06297	  1.90409	  0.66794	  1.84307	  0.70583	  0.01505	  3.14272	710.21997	 29.00	
  8.494	 33.806	  3.06257	  2.00401	  0.59392	  1.69809	  0.82746	  0.01815	  3.14020	710.22998	 29.00	
  8.502	 22.507	  3.06558	  2.08190	  0.53866	  1.54270	  0.96622	  0.02121	  3.14235	710.28998	 28.90	
  8.491	 11.296	  3.06673	  2.12003	  0.51648	  1.37838	  1.12019	  0.01802	  3.14130	710.26001	 28.90	
  8.500	  0.000	  3.06570	  2.12396	  0.51545	  1.21815	  1.27825	  0.01361	  3.13865	710.25000	 28.90	
  8.491	-11.296	  3.06746	  2.09220	  0.54042	  1.06652	  1.43917	  0.00945	  3.13849	710.27002	 28.90	
  8.502	-22.507	  3.07368	  2.03090	  0.59051	  0.92553	  1.60260	  0.00461	  3.14334	710.23999	 28.90	
  8.494	-33.806	  3.07231	  1.93202	  0.66759	  0.80054	  1.75232	 -0.00220	  3.14142	710.26001	 28.90	
  8.495	-44.961	  3.07650	  1.81132	  0.76759	  0.70301	  1.87806	 -0.00729	  3.14394	710.20001	 28.90	
  8.487	-56.277	  3.07436	  1.66699	  0.88613	  0.62029	  1.98091	 -0.01197	  3.14237	710.28003	 28.90	
  8.492	-67.425	  3.07462	  1.51283	  1.02364	  0.56570	  2.05574	 -0.01599	  3.14187	710.35999	 28.90	
  8.510	-78.780	  3.07332	  1.34641	  1.17800	  0.53306	  2.09660	 -0.02105	  3.14143	710.32001	 28.90	
  8.500	-90.000	  3.07168	  1.18678	  1.33582	  0.52937	  2.09899	 -0.02671	  3.14086	710.31000	 28.90	
  8.510	-101.220	  3.07291	  1.03327	  1.50139	  0.55216	  2.06978	 -0.02535	  3.14413	710.28998	 28.90	
  8.492	-112.575	  3.07232	  0.88892	  1.66267	  0.60441	  1.99932	 -0.02397	  3.14335	710.26001	 28.90	
  8.487	-123.723	  3.06958	  0.76377	  1.80816	  0.67854	  1.90183	 -0.02655	  3.14244	710.15002	 28.90	
  8.495	-135.039	  3.06768	  0.65973	  1.93371	  0.77676	  1.77566	 -0.02797	  3.14334	710.20001	 28.90	
  8.494	-146.194	  3.06657	  0.57644	  2.03553	  0.89019	  1.63822	 -0.02644	  3.14431	710.21002	 28.90	
  8.502	-157.493	  3.06662	  0.52203	  2.10628	  1.03364	  1.47881	 -0.02454	  3.14434	710.25000	 28.90	
  8.491	-168.704	  3.06462	  0.49151	  2.14389	  1.18658	  1.31426	 -0.02763	  3.14452	710.21002	 28.90	
  8.500	180.000	  3.06101	  0.48566	  2.14290	  1.34594	  1.14905	 -0.02858	  3.14219	710.21002	 28.90	
 10.200	180.000	  3.01312	  0.30415	  2.28199	  1.31527	  1.09414	 -0.05626	  3.14424	710.25000	 28.90	
 10.191	-170.497	  3.01954	  0.30646	  2.28502	  1.15479	  1.25993	 -0.05452	  3.14756	710.28003	 28.80	
 10.210	-161.034	  3.02078	  0.32963	  2.25786	  0.99702	  1.42730	 -0.05306	  3.14823	710.06000	 28.90	
 10.194	-151.526	  3.02581	  0.37629	  2.19974	  0.85250	  1.59403	 -0.05280	  3.15065	710.25000	 28.80	
 10.190	-142.105	  3.02000	  0.44171	  2.10832	  0.72193	  1.74302	 -0.05272	  3.14283	710.32001	 28.80	
 10.215	-132.646	  3.02180	  0.52899	  1.99765	  0.60605	  1.88786	 -0.05408	  3.14451	710.27002	 28.80	
 10.203	-123.092	  3.02458	  0.63947	  1.86157	  0.51150	  2.01290	 -0.05038	  3.14314	710.21002	 28.80	
 10.192	-113.678	  3.02268	  0.76087	  1.71346	  0.43595	  2.11211	 -0.05252	  3.14116	710.27002	 28.80	
 10.208	-104.249	  3.02450	  0.89922	  1.55520	  0.38157	  2.18759	 -0.04991	  3.14311	710.34003	 28.80	
 10.210	-94.801	  3.02847	  1.05235	  1.39263	  0.35261	  2.23343	 -0.05182	  3.14509	710.21997	 28.80	
 10.210	-85.199	  3.02710	  1.21413	  1.22215	  0.34106	  2.24781	 -0.05033	  3.14249	710.28003	 28.80	
 10.208	-75.751	  3.02954	  1.37982	  1.06296	  0.35117	  2.23488	 -0.04445	  3.14609	710.26001	 28.80	
 10.192	-66.322	  3.03016	  1.54575	  0.91073	  0.38655	  2.18706	 -0.04167	  3.14591	710.27002	 28.80	
 10.203	-56.908	  3.02879	  1.70384	  0.76995	  0.43787	  2.11262	 -0.03870	  3.14503	710.21997	 28.80	
 10.215	-47.354	  3.03014	  1.85320	  0.64919	  0.51663	  2.00963	 -0.03769	  3.14640	710.28003	 28.80	
 10.190	-37.895	  3.02421	  1.98344	  0.54125	  0.61320	  1.87798	 -0.03434	  3.14119	710.31000	 28.80	
 10.194	-28.474	  3.02334	  2.09529	  0.45740	  0.72663	  1.73821	 -0.02668	  3.14219	710.25000	 28.80	
 10.210	-18.966	  3.02501	  2.18452	  0.39084	  0.85578	  1.58245	 -0.02236	  3.14496	710.22998	 28.80	
 10.191	 -9.503	  3.02450	  2.24316	  0.34882	  1.00557	  1.41613	 -0.01875	  3.14558	710.28003	 28.80	
 10.200	  0.000	  3.02292	  2.27148	  0.32500	  1.16168	  1.24764	 -0.01624	  3.14359	710.29999	 28.80	
 10.191	  9.503	  3.02130	  2.26970	  0.32452	  1.32510	  1.08673	 -0.00848	  3.14551	710.28003	 28.80	
 10.210	 18.966	  3.01636	  2.23643	  0.34397	  1.49017	  0.92898	 -0.00445	  3.14281	710.27002	 28.80	
 10.194	 28.474	  3.01428	  2.17224	  0.38411	  1.65068	  0.78347	 -0.00411	  3.14129	710.17999	 28.80	
 10.190	 37.895	  3.01412	  2.08590	  0.44546	  1.80669	  0.65236	 -0.00882	  3.14515	710.22998	 28.70	
 10.215	 47.354	  3.01138	  1.96931	  0.52886	  1.95031	  0.53488	 -0.01140	  3.14388	710.19000	 28.80	
 10.203	 56.908	  3.00702	  1.83247	  0.63122	  2.07339	  0.43691	 -0.01232	  3.14091	710.21002	 28.70	
 10.192	 66.322	  3.00833	  1.68360	  0.75392	  2.17262	  0.36499	 -0.01303	  3.14377	710.32001	 28.70	
 10.208	 75.751	  3.00499	  1.52229	  0.89066	  2.24829	  0.30597	 -0.01908	  3.14320	710.23999	 28.70	
 10.210	 85.199	  3.00742	  1.35755	  1.04421	  2.29431	  0.27382	 -0.02409	  3.14523	710.15997	 28.70	
 10.210	 94.801	  3.00611	  1.18820	  1.20777	  2.30806	  0.26358	 -0.02921	  3.14533	710.10999	 28.70	
 10.208	104.249	  3.00498	  1.02631	  1.37489	  2.29401	  0.27433	 -0.02985	  3.14632	710.23999	 28.70	
 10.192	113.678	  3.00755	  0.87684	  1.54168	  2.25005	  0.30717	 -0.03029	  3.14796	710.12000	 28.70	
 10.203	123.092	  3.00374	  0.73901	  1.69845	  2.17179	  0.36227	 -0.03756	  3.14461	710.20001	 28.70	
 10.215	132.646	  3.00308	  0.61521	  1.84956	  2.06849	  0.44077	 -0.04374	  3.14282	710.17999	 28.70	
 10.190	142.105	  3.00491	  0.51201	  1.98684	  1.94138	  0.54173	 -0.04260	  3.14391	710.26001	 28.70	
 10.194	151.526	  3.00687	  0.42900	  2.09982	  1.80178	  0.65645	 -0.04414	  3.14407	710.28998	 28.70	
 10.210	161.034	  3.00989	  0.36482	  2.19074	  1.64866	  0.78866	 -0.04681	  3.14637	710.22998	 28.70	
 10.191	170.497	  3.00905	  0.32340	  2.24835	  1.48124	  0.93750	 -0.05040	  3.14080	710.22998	 28.70	
 11.899	171.783	  2.95015	  0.13946	  2.38157	  1.44206	  0.87287	 -0.08077	  3.14368	710.21997	 28.70	
 11.890	163.610	  2.95019	  0.17502	  2.32656	  1.61040	  0.72309	 -0.08041	  3.14687	710.15997	 28.70	
 11.889	155.445	  2.94349	  0.22979	  2.24321	  1.76749	  0.58609	 -0.07606	  3.14351	710.22998	 28.70	
 11.909	147.299	  2.94332	  0.29959	  2.14343	  1.91886	  0.46293	 -0.07633	  3.14422	710.27002	 28.70	
 11.902	139.148	  2.94275	  0.38977	  2.02032	  2.05802	  0.35524	 -0.07585	  3.14627	710.27002	 28.70	
 11.894	130.867	  2.94211	  0.49846	  1.87676	  2.18111	  0.26470	 -0.07133	  3.14572	710.19000	 28.70	
 11.897	122.732	  2.94201	  0.61961	  1.72353	  2.27803	  0.19370	 -0.06817	  3.14529	710.28003	 28.70	
 11.903	114.597	  2.94367	  0.75696	  1.56273	  2.35727	  0.13904	 -0.06156	  3.14752	710.10999	 28.70	
 11.893	106.346	  2.94207	  0.90603	  1.39345	  2.40928	  0.10246	 -0.06132	  3.14463	710.20001	 28.60	
 11.892	 98.155	  2.94300	  1.06871	  1.22405	  2.43294	  0.08932	 -0.05836	  3.14482	710.16998	 28.60	
 11.900	 90.000	  2.94388	  1.23065	  1.06113	  2.43342	  0.08643	 -0.05858	  3.14667	710.19000	 28.70	
 11.892	 81.845	  2.94416	  1.39801	  0.90143	  2.40521	  0.10501	 -0.05275	  3.14511	710.09003	 28.60	
 11.893	 73.654	  2.94435	  1.56628	  0.75206	  2.34895	  0.14343	 -0.04790	  3.14410	710.16998	 28.60	
 11.903	 65.403	  2.94658	  1.72838	  0.61940	  2.26950	  0.20194	 -0.04475	  3.14381	710.10999	 28.60	
 11.897	 57.268	  2.94908	  1.87962	  0.50076	  2.17095	  0.27526	 -0.04468	  3.14484	710.22998	 28.60	
 11.894	 49.133	  2.94926	  2.01671	  0.39731	  2.04825	  0.36647	 -0.04378	  3.14166	710.15002	 28.60	
 11.902	 40.852	  2.95423	  2.14484	  0.30717	  1.91006	  0.47643	 -0.04231	  3.14616	710.20001	 28.60	
 11.909	 32.701	  2.95238	  2.24418	  0.23701	  1.75383	  0.59970	 -0.03693	  3.14344	710.14001	 28.60	
 11.889	 24.555	  2.95984	  2.32276	  0.19170	  1.59590	  0.73958	 -0.03327	  3.14693	710.14001	 28.60	
 11.890	 16.390	  2.95926	  2.37378	  0.15939	  1.43089	  0.88693	 -0.03516	  3.14400	710.13000	 28.60	
 11.899	  8.217	  2.96199	  2.40004	  0.14449	  1.26220	  1.04779	 -0.03959	  3.14500	710.19000	 28.60	
 11.900	  0.000	  2.96219	  2.39801	  0.14721	  1.09789	  1.21349	 -0.04237	  3.14159	710.07001	 28.60	
 11.899	 -8.217	  2.96489	  2.37143	  0.16735	  0.94366	  1.37901	 -0.04359	  3.14263	710.15002	 28.60	
 11.890	-16.390	  2.96632	  2.31855	  0.20723	  0.79297	  1.54958	 -0.04793	  3.14340	710.23999	 28.60	
 11.889	-24.555	  2.96846	  2.23939	  0.26258	  0.65738	  1.71007	 -0.05382	  3.14431	710.13000	 28.60	
 11.909	-32.701	  2.97055	  2.14144	  0.33417	  0.53690	  1.86075	 -0.05992	  3.14643	710.14001	 28.60	
 11.902	-40.852	  2.96963	  2.01865	  0.42579	  0.42802	  2.00351	 -0.06354	  3.14402	710.15002	 28.60	
 11.894	-49.133	  2.97303	  1.87681	  0.53713	  0.33730	  2.12973	 -0.06530	  3.14632	710.21002	 28.60	
 11.897	-57.268	  2.97180	  1.72435	  0.66122	  0.26630	  2.22858	 -0.06458	  3.14533	710.10999	 28.60	
 11.903	-65.403	  2.97077	  1.56375	  0.79836	  0.21346	  2.30488	 -0.06811	  3.14366	710.09003	 28.60	
 11.893	-73.654	  2.97346	  1.39723	  0.95000	  0.17925	  2.35809	 -0.06845	  3.14635	710.15997	 28.60	
 11.892	-81.845	  2.97173	  1.22884	  1.10932	  0.16160	  2.38276	 -0.07124	  3.14479	710.09998	 28.50	
 11.900	-90.000	  2.97168	  1.06677	  1.27305	  0.16049	  2.38344	 -0.07086	  3.14644	710.09003	 28.50	
 11.892	-98.155	  2.97096	  0.91068	  1.44058	  0.18135	  2.35462	 -0.07004	  3.14614	710.07001	 28.50	
 11.893	-106.346	  2.97006	  0.76423	  1.60665	  0.22161	  2.29763	 -0.07176	  3.14634	710.15002	 28.50	
 11.903	-114.597	  2.96696	  0.62355	  1.76889	  0.27467	  2.21660	 -0.07454	  3.14558	710.09003	 28.50	
 11.897	-122.732	  2.96880	  0.50335	  1.91833	  0.34665	  2.11725	 -0.07376	  3.14943	710.09998	 28.50	
 11.894	-130.867	  2.96491	  0.39787	  2.05213	  0.43752	  1.99296	 -0.07610	  3.14685	710.07001	 28.50	
 11.902	-139.148	  2.96364	  0.30719	  2.17035	  0.54706	  1.84825	 -0.07761	  3.14634	710.07001	 28.50	
 11.909	-147.299	  2.96049	  0.23256	  2.26987	  0.66851	  1.69620	 -0.07597	  3.14354	710.09003	 28.50	
 11.889	-155.445	  2.95524	  0.18005	  2.34043	  0.80575	  1.53197	 -0.07732	  3.14093	710.02002	 28.50	
 11.890	-163.610	  2.95550	  0.14493	  2.38905	  0.95628	  1.36439	 -0.07921	  3.14161	710.08002	 28.50	
 11.899	-171.783	  2.95481	  0.12428	  2.41619	  1.11262	  1.19972	 -0.08124	  3.14544	710.06000	 28.50	
 11.900	180.000	  2.95286	  0.12143	  2.41277	  1.27579	  1.03403	 -0.08200	  3.14550	710.09998	 28.50	
 13.600	180.000	  2.88151	 -0.05885	  2.53500	  1.22660	  0.96117	 -0.10983	  3.14564	710.13000	 28.50	
 13.608	-172.853	  2.88025	 -0.06008	  2.53773	  1.06567	  1.12021	 -0.10785	  3.14249	710.14001	 28.50	
 13.611	-165.583	  2.88621	 -0.04475	  2.52190	  0.90476	  1.29387	 -0.10307	  3.14740	710.09998	 28.50	
 13.601	-158.353	  2.88487	 -0.01259	  2.47721	  0.75319	  1.46292	 -0.09994	  3.14392	710.15997	 28.50	
 13.609	-151.210	  2.88762	  0.03283	  2.41472	  0.61588	  1.62513	 -0.09544	  3.14401	710.14001	 28.50	
 13.611	-143.999	  2.89087	  0.09309	  2.32633	  0.48425	  1.78940	 -0.09384	  3.14664	710.20001	 28.50	
 13.601	-136.825	  2.89326	  0.16866	  2.22108	  0.36919	  1.94165	 -0.09306	  3.14693	710.13000	 28.50	
 13.596	-129.640	  2.89340	  0.26125	  2.09652	  0.27036	  2.07641	 -0.09086	  3.14437	710.07001	 28.50	
 13.611	-122.431	  2.89755	  0.36776	  1.95754	  0.18374	  2.20233	 -0.08703	  3.14735	710.07001	 28.50	
 13.604	-115.211	  2.89609	  0.49004	  1.80099	  0.11351	  2.30545	 -0.08729	  3.14252	710.02002	 28.50	
 13.595	-108.042	  2.89718	  0.61857	  1.64504	  0.05267	  2.39334	 -0.08694	  3.14529	710.15997	 28.40	
 13.607	-100.793	  2.89803	  0.76226	  1.47547	  0.01088	  2.45657	 -0.08676	  3.14412	710.07001	 28.50	
 13.601	-93.617	  2.90246	  0.91541	  1.31016	 -0.01435	  2.49755	 -0.08677	  3.14789	710.13000	 28.40	
 13.601	-86.383	  2.90155	  1.07549	  1.14242	 -0.02346	  2.51214	 -0.08775	  3.14442	710.10999	 28.40	
 13.607	-79.207	  2.89979	  1.23942	  0.97828	 -0.01974	  2.50254	 -0.08646	  3.14311	710.03003	 28.40	
 13.595	-71.958	  2.90274	  1.41104	  0.81985	  0.00386	  2.46862	 -0.08712	  3.14493	709.98999	 28.40	
 13.604	-64.789	  2.90147	  1.57642	  0.67345	  0.04017	  2.41105	 -0.08504	  3.14339	710.00000	 28.40	
 13.611	-57.569	  2.90018	  1.73981	  0.53628	  0.09187	  2.33122	 -0.08678	  3.14266	710.06000	 28.40	
 13.596	-50.360	  2.90141	  1.89532	  0.41405	  0.16086	  2.23092	 -0.08923	  3.14338	710.12000	 28.40	
 13.601	-43.175	  2.89888	  2.03962	  0.30189	  0.24093	  2.11250	 -0.08957	  3.14280	710.15002	 28.40	
 13.611	-36.001	  2.90004	  2.17066	  0.20675	  0.33941	  1.97837	 -0.08766	  3.14418	710.16998	 28.40	
 13.609	-28.790	  2.89828	  2.28288	  0.12803	  0.45421	  1.82659	 -0.08267	  3.14302	710.09003	 28.40	
 13.601	-21.647	  2.90018	  2.37771	  0.06422	  0.57880	  1.67047	 -0.08001	  3.14558	710.15002	 28.40	
 13.611	-14.417	  2.89586	  2.44990	  0.01396	  0.71781	  1.50423	 -0.07894	  3.14428	710.13000	 28.40	
 13.608	 -7.147	  2.89567	  2.50248	 -0.01919	  0.86985	  1.33703	 -0.07537	  3.14723	710.17999	 28.40	
 13.600	  0.000	  2.89221	  2.52365	 -0.03768	  1.02531	  1.16559	 -0.07522	  3.14387	710.15002	 28.40	
 13.608	  7.147	  2.88775	  2.52503	 -0.04118	  1.18547	  1.00184	 -0.07141	  3.14210	710.08002	 28.40	
 13.611	 14.417	  2.88811	  2.50508	 -0.02842	  1.35518	  0.84172	 -0.06648	  3.14548	710.09998	 28.40	
 13.601	 21.647	  2.88499	  2.45791	 -0.00382	  1.52475	  0.68516	 -0.06497	  3.14455	710.15997	 28.40	
 13.609	 28.790	  2.88433	  2.39029	  0.03875	  1.68713	  0.54929	 -0.06549	  3.14456	710.02002	 28.40	
 13.611	 36.001	  2.87973	  2.29933	  0.09391	  1.84728	  0.41574	 -0.07204	  3.14338	710.12000	 28.40	
 13.601	 43.175	  2.88074	  2.18992	  0.16724	  1.99894	  0.30044	 -0.07781	  3.14591	710.03998	 28.40	
 13.596	 50.360	  2.88314	  2.06546	  0.25879	  2.13463	  0.20362	 -0.07905	  3.14952	710.07001	 28.40	
 13.611	 57.569	  2.87940	  1.92057	  0.36190	  2.25744	  0.11385	 -0.07830	  3.14769	710.06000	 28.40	
 13.604	 64.789	  2.87407	  1.76375	  0.48066	  2.35898	  0.04165	 -0.07926	  3.14404	710.00000	 28.40	
 13.595	 71.958	  2.87433	  1.60356	  0.60915	  2.44339	 -0.01713	 -0.08265	  3.14759	710.08002	 28.40	
 13.607	 79.207	  2.87177	  1.43324	  0.75419	  2.50585	 -0.05909	 -0.08624	  3.14591	710.19000	 28.40	
 13.601	 86.383	  2.86986	  1.26395	  0.90651	  2.54287	 -0.08440	 -0.09086	  3.14439	710.06000	 28.40	
 13.601	 93.617	  2.86936	  1.09856	  1.06667	  2.55886	 -0.09518	 -0.09421	  3.14615	710.17999	 28.40	
 13.607	100.793	  2.86832	  0.93293	  1.23369	  2.55194	 -0.09260	 -0.09757	  3.14677	710.12000	 28.40	
 13.595	108.042	  2.86971	  0.77825	  1.40533	  2.51794	 -0.06770	 -0.09410	  3.14795	710.15997	 28.40	
 13.604	115.211	  2.86663	  0.63196	  1.57187	  2.45998	 -0.03131	 -0.09547	  3.14574	710.22998	 28.40	
 13.611	122.431	  2.86801	  0.49619	  1.73622	  2.38283	  0.02193	 -0.10002	  3.14633	710.13000	 28.40	
 13.596	129.640	  2.86467	  0.37031	  1.89308	  2.27907	  0.08869	 -0.10635	  3.14278	710.03003	 28.40	
 13.601	136.825	  2.86661	  0.26628	  2.03573	  2.16155	  0.17563	 -0.10829	  3.14210	710.00000	 28.40	
 13.611	143.999	  2.86607	  0.17401	  2.16701	  2.02998	  0.27254	 -0.10804	  3.14256	710.22998	 28.30	
 13.609	151.210	  2.86718	  0.09502	  2.28341	  1.88052	  0.38664	 -0.10766	  3.14245	710.13000	 28.30	
 13.601	158.353	  2.87055	  0.02827	  2.37879	  1.72609	  0.50779	 -0.10808	  3.14472	710.20001	 28.30	
 13.611	165.583	  2.86991	 -0.01768	  2.45390	  1.56077	  0.64888	 -0.11028	  3.14235	710.12000	 28.30	
 13.608	172.853	  2.87388	 -0.04657	  2.50499	  1.39143	  0.80454	 -0.10991	  3.14313	710.12000	 28.30	
 15.298	173.587	  2.79297	 -0.21778	  2.61461	  1.33686	  0.72917	 -0.13392	  3.14312	710.09998	 28.30	
 15.291	167.167	  2.79331	 -0.19015	  2.56858	  1.50654	  0.58053	 -0.13586	  3.14691	710.09003	 28.30	
 15.307	160.676	  2.78966	 -0.15142	  2.49908	  1.67114	  0.43969	 -0.13828	  3.14622	710.07001	 28.30	
 15.300	154.261	  2.78807	 -0.09240	  2.40904	  1.83152	  0.31540	 -0.14010	  3.14279	710.10999	 28.30	
 15.288	147.854	  2.78566	 -0.02675	  2.30437	  1.98448	  0.19710	 -0.14165	  3.14345	710.14001	 28.30	
 15.293	141.428	  2.78418	  0.05406	  2.18065	  2.12907	  0.08906	 -0.14261	  3.14428	710.19000	 28.30	
 15.299	134.985	  2.78365	  0.14878	  2.04474	  2.25873	 -0.00009	 -0.14243	  3.14472	710.17999	 28.30	
 15.305	128.583	  2.78249	  0.25312	  1.89962	  2.37375	 -0.07941	 -0.13826	  3.14622	710.15997	 28.30	
 15.309	122.142	  2.77890	  0.37066	  1.73855	  2.47044	 -0.14560	 -0.13607	  3.14151	709.98999	 28.30	
 15.304	115.711	  2.78072	  0.50508	  1.57316	  2.55214	 -0.19667	 -0.13293	  3.14453	710.03003	 28.30	
 15.297	109.291	  2.78227	  0.64729	  1.40632	  2.61274	 -0.23350	 -0.13072	  3.14632	710.07001	 28.30	
 15.293	102.897	  2.78342	  0.79793	  1.24123	  2.64994	 -0.25486	 -0.13248	  3.14543	710.01001	 28.30	
 15.293	 96.458	  2.78422	  0.95889	  1.07190	  2.66541	 -0.26510	 -0.13204	  3.14540	710.06000	 28.30	
 15.300	 90.000	  2.78769	  1.12298	  0.90882	  2.66429	 -0.26478	 -0.13209	  3.14690	710.03998	 28.30	
 15.293	 83.542	  2.78625	  1.29101	  0.74812	  2.63562	 -0.25054	 -0.12889	  3.14345	710.07001	 28.30	
 15.293	 77.103	  2.78769	  1.46203	  0.59939	  2.58820	 -0.21834	 -0.12385	  3.14415	710.10999	 28.30	
 15.297	 70.709	  2.78994	  1.62807	  0.46008	  2.52765	 -0.18292	 -0.12079	  3.14752	710.08002	 28.30	
 15.304	 64.289	  2.79629	  1.79411	  0.33512	  2.44489	 -0.12444	 -0.11952	  3.15222	710.15997	 28.30	
 15.309	 57.858	  2.79475	  1.94777	  0.22184	  2.33358	 -0.05002	 -0.11677	  3.14573	710.02002	 28.30	
 15.305	 51.417	  2.79538	  2.09342	  0.11445	  2.21410	  0.02889	 -0.11660	  3.14861	710.02002	 28.30	
 15.299	 45.015	  2.79509	  2.22195	  0.02719	  2.07593	  0.12560	 -0.11468	  3.14374	710.06000	 28.30	
 15.293	 38.572	  2.79913	  2.34105	 -0.04901	  1.93311	  0.23002	 -0.11173	  3.14921	710.15997	 28.20	
 15.288	 32.146	  2.80144	  2.44086	 -0.10861	  1.77344	  0.35642	 -0.10468	  3.14713	710.13000	 28.30	
 15.300	 25.739	  2.80380	  2.52217	 -0.15461	  1.61096	  0.48862	 -0.09994	  3.14705	710.06000	 28.30	
 15.307	 19.324	  2.80574	  2.58179	 -0.18864	  1.44411	  0.63349	 -0.09977	  3.14684	710.09998	 28.20	
 15.291	 12.833	  2.80854	  2.62056	 -0.20919	  1.27464	  0.78701	 -0.09979	  3.14782	710.10999	 28.20	
 15.298	  6.413	  2.81089	  2.64020	 -0.21850	  1.10735	  0.94746	 -0.10253	  3.14692	710.15997	 28.20	
 15.300	  0.000	  2.81341	  2.63597	 -0.21596	  0.94713	  1.10790	 -0.10155	  3.14804	710.14001	 28.20	
 15.298	 -6.413	  2.81786	  2.61228	 -0.19706	  0.79142	  1.27855	 -0.10371	  3.14873	710.20001	 28.20	
 15.291	-12.833	  2.81663	  2.56346	 -0.16488	  0.64142	  1.44956	 -0.10532	  3.14582	710.12000	 28.20	
 15.307	-19.324	  2.82097	  2.49992	 -0.12658	  0.50106	  1.61847	 -0.10579	  3.14863	710.13000	 28.20	
 15.300	-25.739	  2.81992	  2.41278	 -0.06757	  0.37362	  1.78009	 -0.10822	  3.14582	710.21002	 28.20	
 15.288	-32.146	  2.82055	  2.30522	  0.00148	  0.25486	  1.93547	 -0.10656	  3.14595	710.12000	 28.20	
 15.293	-38.572	  2.82279	  2.18458	  0.08451	  0.15081	  2.08205	 -0.10779	  3.14720	710.23999	 28.20	
 15.299	-45.015	  2.82425	  2.04959	  0.18007	  0.06171	  2.21075	 -0.10807	  3.14686	710.10999	 28.20	
 15.305	-51.417	  2.82350	  1.90237	  0.28706	 -0.01673	  2.32753	 -0.10621	  3.14529	710.14001	 28.20	
 15.309	-57.858	  2.82461	  1.74625	  0.41217	 -0.07960	  2.42948	 -0.10234	  3.14527	710.10999	 28.20	
 15.304	-64.289	  2.82593	  1.58197	  0.54773	 -0.13070	  2.51289	 -0.09958	  3.14723	710.04999	 28.20	
 15.297	-70.709	  2.82505	  1.41346	  0.69039	 -0.16776	  2.57094	 -0.09799	  3.14682	710.01001	 28.20	
 15.293	-77.103	  2.82570	  1.24668	  0.84389	 -0.19016	  2.61107	 -0.09669	  3.14766	710.01001	 28.20	
 15.293	-83.542	  2.82535	  1.08111	  1.00539	 -0.19772	  2.62477	 -0.09517	  3.14696	710.10999	 28.20	
 15.300	-90.000	  2.82514	  0.91877	  1.17179	 -0.19585	  2.62139	 -0.09511	  3.14807	710.08002	 28.20	
 15.293	-96.458	  2.82375	  0.76208	  1.33975	 -0.17941	  2.59702	 -0.09651	  3.14900	710.03003	 28.20	
 15.293	-102.897	  2.82380	  0.61368	  1.51007	 -0.15123	  2.55062	 -0.09719	  3.15086	710.13000	 28.20	
 15.297	-109.291	  2.81860	  0.47388	  1.67446	 -0.10782	  2.47958	 -0.09525	  3.14816	710.10999	 28.20	
 15.304	-115.711	  2.81800	  0.34634	  1.83341	 -0.05329	  2.39190	 -0.09678	  3.14850	710.06000	 28.20	
 15.309	-122.142	  2.81539	  0.22860	  1.98725	  0.01730	  2.28409	 -0.09825	  3.14697	710.09998	 28.20	
 15.305	-128.583	  2.81253	  0.12399	  2.12830	  0.10023	  2.15805	 -0.10123	  3.14622	709.96997	 28.20	
 15.299	-134.985	  2.81357	  0.03475	  2.25627	  0.19819	  2.02065	 -0.10432	  3.14709	710.00000	 28.20	
 15.293	-141.428	  2.81173	 -0.04396	  2.36984	  0.30326	  1.87513	 -0.10736	  3.14811	710.01001	 28.10	
 15.288	-147.854	  2.80999	 -0.10844	  2.46718	  0.42286	  1.71649	 -0.10972	  3.14863	710.08002	 28.10	
 15.300	-154.261	  2.80823	 -0.15820	  2.54294	  0.55665	  1.55283	 -0.11326	  3.14771	710.06000	 28.10	
 15.307	-160.676	  2.80475	 -0.19898	  2.60057	  0.69624	  1.38445	 -0.11780	  3.14693	710.03003	 28.10	
 15.291	-167.167	  2.80553	 -0.22310	  2.63674	  0.85037	  1.21372	 -0.12198	  3.14889	710.04999	 28.10	
 15.298	-173.587	  2.80395	 -0.23244	  2.65011	  1.01146	  1.04632	 -0.12514	  3.14836	709.96997	 28.10	
 15.300	180.000	  2.80273	 -0.23084	  2.64398	  1.17350	  0.88660	 -0.12757	  3.14783	710.03998	 28.10	
 17.000	180.000	  2.70897	 -0.39304	  2.74294	  1.11506	  0.80763	 -0.14500	  3.14704	710.08002	 28.10	
 16.990	-174.179	  2.71284	 -0.39190	  2.74967	  0.95599	  0.97076	 -0.14088	  3.14822	710.07001	 28.10	
 17.009	-168.383	  2.71323	 -0.38586	  2.73869	  0.79548	  1.13624	 -0.13632	  3.14749	710.08002	 28.10	
 17.000	-162.596	  2.71708	 -0.36237	  2.70860	  0.64978	  1.30360	 -0.13207	  3.14829	710.15002	 28.10	
 16.990	-156.759	  2.71836	 -0.33259	  2.66060	  0.50378	  1.46930	 -0.12698	  3.14838	710.01001	 28.10	
 16.995	-150.919	  2.72089	 -0.28980	  2.59188	  0.36933	  1.63689	 -0.12315	  3.14920	709.97998	 28.10	
 16.988	-145.161	  2.72055	 -0.23486	  2.50460	  0.24740	  1.79605	 -0.11987	  3.14762	710.09998	 28.10	
 17.014	-139.343	  2.72294	 -0.16973	  2.40498	  0.13574	  1.95140	 -0.11284	  3.14960	710.03998	 28.10	
 17.007	-133.546	  2.72464	 -0.09224	  2.28630	  0.03294	  2.09849	 -0.10810	  3.14928	710.08002	 28.10	
 17.001	-127.699	  2.72507	 -0.00044	  2.15514	 -0.05611	  2.23586	 -0.10644	  3.14915	710.07001	 28.10	
 17.006	-121.937	  2.72506	  0.09872	  2.01130	 -0.13533	  2.35618	 -0.10314	  3.14828	710.09003	 28.10	
 17.002	-116.134	  2.72885	  0.21165	  1.86060	 -0.20088	  2.46274	 -0.10098	  3.14902	710.00000	 28.10	
 17.001	-110.310	  2.72959	  0.33467	  1.70032	 -0.25568	  2.55237	 -0.10101	  3.14828	710.04999	 28.10	
 16.988	-104.517	  2.73286	  0.46867	  1.53619	 -0.29798	  2.62528	 -0.10301	  3.14917	710.01001	 28.10	
 17.008	-98.662	  2.73379	  0.61103	  1.36750	 -0.33281	  2.68008	 -0.09916	  3.14958	710.03003	 28.10	
 16.996	-92.909	  2.73493	  0.75960	  1.20057	 -0.35249	  2.71376	 -0.10172	  3.14815	709.94000	 28.10	
 16.996	-87.091	  2.73571	  0.91781	  1.03620	 -0.36095	  2.72940	 -0.10358	  3.14717	710.02002	 28.10	
 17.012	-81.253	  2.73725	  1.08128	  0.86932	 -0.36319	  2.72823	 -0.10634	  3.14980	709.98999	 28.10	
 16.988	-75.483	  2.73913	  1.24635	  0.71635	 -0.34666	  2.70254	 -0.10424	  3.14824	710.03998	 28.00	
 17.001	-69.690	  2.73588	  1.41155	  0.56542	 -0.32290	  2.65768	 -0.10651	  3.14516	710.04999	 28.00	
 17.002	-63.866	  2.73703	  1.57924	  0.42427	 -0.29041	  2.59852	 -0.10648	  3.14736	709.98999	 28.10	
 17.006	-58.063	  2.73335	  1.73953	  0.29110	 -0.24527	  2.51810	 -0.11199	  3.14507	710.03998	 28.00	
 17.001	-52.301	  2.73341	  1.89741	  0.17122	 -0.18424	  2.41901	 -0.11328	  3.14525	710.09998	 28.00	
 17.007	-46.454	  2.73752	  2.05251	  0.06381	 -0.11033	  2.30717	 -0.11621	  3.15101	710.01001	 28.00	
 17.014	-40.657	  2.73652	  2.19226	 -0.03226	 -0.02523	  2.17801	 -0.11846	  3.14917	709.90997	 28.00	
 16.988	-34.839	  2.73608	  2.31803	 -0.11310	  0.07326	  2.03824	 -0.12179	  3.14848	710.03998	 28.00	
 16.995	-29.081	  2.73426	  2.43064	 -0.18978	  0.17501	  1.88759	 -0.12004	  3.14921	709.92999	 28.00	
 16.990	-23.241	  2.73236	  2.52706	 -0.24818	  0.29647	  1.72528	 -0.12482	  3.14794	709.92999	 28.00	
 17.000	-17.404	  2.73098	  2.60938	 -0.30050	  0.42462	  1.56057	 -0.12279	  3.14894	709.91998	 28.00	
 17.009	-11.617	  2.72944	  2.67203	 -0.33899	  0.56049	  1.39491	 -0.12504	  3.14948	710.03998	 28.00	
 16.990	 -5.821	  2.72580	  2.71376	 -0.36443	  0.70884	  1.22465	 -0.12837	  3.14757	710.08002	 28.00	
 17.000	  0.000	  2.72671	  2.74096	 -0.38089	  0.86467	  1.05704	 -0.13048	  3.15081	709.97998	 28.00	
 16.990	  5.821	  2.72641	  2.74578	 -0.38518	  1.03091	  0.88818	 -0.12949	  3.15264	709.95001	 28.00	
 17.009	 11.617	  2.72114	  2.73255	 -0.38358	  1.19545	  0.72523	 -0.13221	  3.15294	709.90002	 28.00	
 17.000	 17.404	  2.71874	  2.69472	 -0.36118	  1.35720	  0.58185	 -0.13348	  3.15008	709.98999	 28.00	
 16.990	 23.241	  2.71746	  2.64261	 -0.33420	  1.52538	  0.43768	 -0.13406	  3.15084	709.90997	 28.00	
 16.995	 29.081	  2.71541	  2.57152	 -0.29655	  1.69578	  0.29644	 -0.13818	  3.15341	709.90002	 28.00	
 16.988	 34.839	  2.71079	  2.48025	 -0.24516	  1.85203	  0.17461	 -0.14240	  3.15088	709.94000	 28.00	
 17.014	 40.657	  2.70776	  2.37275	 -0.18131	  2.00405	  0.06293	 -0.14839	  3.14931	709.88000	 28.00	
 17.007	 46.454	  2.70410	  2.24941	 -0.10658	  2.15015	 -0.04206	 -0.15337	  3.14805	709.81000	 28.00	
 17.001	 52.301	  2.70245	  2.11342	 -0.01914	  2.28529	 -0.13469	 -0.15809	  3.14822	709.87000	 28.00	
 17.006	 58.063	  2.70186	  1.96944	  0.08311	  2.40408	 -0.20838	 -0.16081	  3.14988	709.84003	 28.00	
 17.002	 63.866	  2.70190	  1.81406	  0.19552	  2.50945	 -0.27418	 -0.16076	  3.14991	709.96997	 28.00	
 17.001	 69.690	  2.70081	  1.65126	  0.32013	  2.59828	 -0.32957	 -0.16075	  3.15030	710.03003	 28.00	
 16.988	 75.483	  2.69695	  1.48602	  0.44971	  2.66818	 -0.37223	 -0.16457	  3.14901	710.03998	 28.00	
 17.012	 81.253	  2.69758	  1.32046	  0.59428	  2.72392	 -0.40432	 -0.16948	  3.15077	709.95001	 28.00	
 16.996	 87.091	  2.69438	  1.14991	  0.74724	  2.75426	 -0.42321	 -0.17317	  3.14777	709.97998	 28.00	
 16.996	 92.909	  2.69487	  0.98253	  0.90466	  2.77224	 -0.43455	 -0.17334	  3.15127	709.94000	 27.90	
 17.008	 98.662	  2.69275	  0.82583	  1.06753	  2.76667	 -0.42980	 -0.17647	  3.15006	710.02002	 27.90	
 16.988	104.517	  2.69098	  0.66939	  1.23410	  2.73848	 -0.41262	 -0.17051	  3.14720	709.89001	 27.90	
 17.001	110.310	  2.68999	  0.52449	  1.40224	  2.69753	 -0.38547	 -0.16947	  3.14758	710.01001	 27.90	
 17.002	116.134	  2.69131	  0.38452	  1.56966	  2.63707	 -0.35176	 -0.17108	  3.14966	710.07001	 27.90	
 17.006	121.937	  2.69123	  0.25448	  1.73363	  2.55987	 -0.30584	 -0.17146	  3.15083	710.01001	 27.90	
 17.001	127.699	  2.69340	  0.13995	  1.89072	  2.46654	 -0.24660	 -0.17436	  3.15211	710.03003	 27.90	
 17.007	133.546	  2.69172	  0.03127	  2.04131	  2.34846	 -0.17146	 -0.17599	  3.14905	709.98999	 27.90	
 17.014	139.343	  2.69521	 -0.06183	  2.18492	  2.22198	 -0.08415	 -0.17542	  3.15064	709.85999	 27.90	
 16.988	145.161	  2.69270	 -0.14319	  2.31027	  2.07943	  0.01383	 -0.17360	  3.14642	709.96002	 27.90	
 16.995	150.919	  2.69572	 -0.21203	  2.42361	  1.93495	  0.11811	 -0.16968	  3.14738	709.94000	 27.90	
 16.990	156.759	  2.70171	 -0.27339	  2.52748	  1.77711	  0.23908	 -0.16748	  3.15087	709.89001	 27.90	
 17.000	162.596	  2.70248	 -0.31955	  2.60768	  1.61282	  0.37074	 -0.16163	  3.14850	709.85999	 27.90	
 17.009	168.383	  2.70500	 -0.35966	  2.67344	  1.44951	  0.50403	 -0.15670	  3.14999	709.90997	 27.90	
 16.990	174.179	  2.71010	 -0.37777	  2.71756	  1.28501	  0.65408	 -0.15324	  3.15112	710.01001	 27.90	
 18.709	174.675	  2.60408	 -0.55084	  2.81055	  1.21349	  0.56631	 -0.16648	  3.15091	709.91998	 27.90	
 18.703	169.441	  2.60099	 -0.53008	  2.76623	  1.37848	  0.42083	 -0.17323	  3.15025	710.03003	 27.90	
 18.691	164.085	  2.59806	 -0.49877	  2.70481	  1.54234	  0.28289	 -0.17836	  3.14789	709.94000	 27.90	
 18.706	158.818	  2.59578	 -0.45648	  2.62916	  1.70699	  0.15299	 -0.18427	  3.14945	709.98999	 27.90	
 18.695	153.537	  2.59738	 -0.40334	  2.53747	  1.86886	  0.03625	 -0.19006	  3.15285	709.94000	 27.90	
 18.704	148.255	  2.59117	 -0.33898	  2.42825	  2.01853	 -0.07258	 -0.19503	  3.14847	709.97998	 27.90	
 18.698	142.952	  2.59394	 -0.26546	  2.31262	  2.16315	 -0.18046	 -0.19611	  3.15189	710.01001	 27.90	
 18.699	137.625	  2.58940	 -0.18399	  2.17719	  2.29744	 -0.27284	 -0.20030	  3.14852	709.96002	 27.90	
 18.705	132.343	  2.58794	 -0.09096	  2.03334	  2.42172	 -0.35115	 -0.20279	  3.14922	710.00000	 27.90	
 18.713	127.067	  2.58785	  0.01460	  1.88089	  2.53114	 -0.41743	 -0.20450	  3.14800	710.00000	 27.80	
 18.700	121.794	  2.58877	  0.13163	  1.72483	  2.62546	 -0.47000	 -0.20344	  3.14949	709.94000	 27.90	
 18.698	116.504	  2.58728	  0.25477	  1.56075	  2.70574	 -0.51902	 -0.20263	  3.14824	710.03998	 27.80	
 18.707	111.165	  2.58903	  0.39084	  1.39404	  2.77143	 -0.55606	 -0.20052	  3.14960	709.94000	 27.80	
 18.690	105.863	  2.58954	  0.53442	  1.22759	  2.81574	 -0.57977	 -0.20308	  3.14791	709.91998	 27.80	
 18.696	100.583	  2.59097	  0.68160	  1.06134	  2.84864	 -0.60236	 -0.20573	  3.15080	709.96997	 27.80	
 18.700	 95.309	  2.58763	  0.83762	  0.89485	  2.85678	 -0.61118	 -0.20897	  3.14790	709.96997	 27.80	
 18.700	 90.000	  2.59755	  1.00280	  0.73938	  2.85695	 -0.60443	 -0.20947	  3.15587	709.87000	 27.80	
 18.700	 84.691	  2.59217	  1.16511	  0.58703	  2.82768	 -0.59049	 -0.20783	  3.14737	709.82001	 27.80	
 18.696	 79.417	  2.59455	  1.33041	  0.43879	  2.78822	 -0.57061	 -0.20612	  3.14870	709.87000	 27.80	
 18.690	 74.137	  2.59750	  1.49859	  0.30224	  2.73267	 -0.53714	 -0.20146	  3.15131	710.00000	 27.80	
 18.707	 68.835	  2.59840	  1.66527	  0.17307	  2.65585	 -0.49274	 -0.20036	  3.14901	709.94000	 27.80	
 18.698	 63.496	  2.60021	  1.82721	  0.05726	  2.56333	 -0.43484	 -0.19802	  3.14719	709.87000	 27.80	
 18.700	 58.206	  2.60169	  1.98107	 -0.05094	  2.46026	 -0.37385	 -0.19652	  3.14922	709.91998	 27.80	
 18.713	 52.933	  2.60457	  2.12852	 -0.14967	  2.34284	 -0.30203	 -0.19590	  3.14969	709.98999	 27.80	
 18.705	 47.657	  2.60343	  2.26471	 -0.23565	  2.21295	 -0.21789	 -0.19173	  3.14944	709.88000	 27.80	
 18.699	 42.375	  2.60563	  2.39042	 -0.31078	  2.06848	 -0.12063	 -0.18645	  3.14812	710.08002	 27.80	
 18.698	 37.048	  2.60671	  2.50384	 -0.37693	  1.91478	 -0.01176	 -0.18350	  3.14771	710.03003	 27.80	
 18.704	 31.745	  2.60939	  2.59926	 -0.42883	  1.75534	  0.10499	 -0.17618	  3.14686	710.01001	 27.80	
 18.695	 26.463	  2.61346	  2.68262	 -0.46855	  1.59902	  0.23001	 -0.17275	  3.14962	710.03998	 27.80	
 18.706	 21.182	  2.61359	  2.74564	 -0.50311	  1.42923	  0.36708	 -0.16572	  3.14727	710.00000	 27.80	
 18.691	 15.915	  2.61868	  2.79707	 -0.52931	  1.26420	  0.50979	 -0.16268	  3.15063	709.98999	 27.80	
 18.703	 10.559	  2.62054	  2.82615	 -0.54318	  1.09897	  0.66100	 -0.15919	  3.14947	709.94000	 27.80	
 18.709	  5.325	  2.62095	  2.83502	 -0.54460	  0.93699	  0.81814	 -0.15479	  3.14727	709.98999	 27.80	
 18.700	  0.000	  2.62639	  2.83373	 -0.54175	  0.77640	  0.98291	 -0.15003	  3.15031	709.92999	 27.80	
 18.709	 -5.325	  2.62840	  2.81025	 -0.52351	  0.62813	  1.15073	 -0.14561	  3.14935	709.89001	 27.80	
 18.703	-10.559	  2.63099	  2.77088	 -0.50040	  0.48223	  1.31710	 -0.14493	  3.14942	709.94000	 27.80	
 18.691	-15.915	  2.63252	  2.70934	 -0.46676	  0.34174	  1.48559	 -0.13904	  3.14708	709.94000	 27.80	
 18.706	-21.182	  2.63463	  2.63720	 -0.42570	  0.21407	  1.65105	 -0.13835	  3.14988	709.90002	 27.80	
 18.695	-26.463	  2.63768	  2.54650	 -0.36811	  0.09746	  1.81313	 -0.13372	  3.14895	709.92999	 27.80	
 18.704	-31.745	  2.63666	  2.43961	 -0.30679	 -0.01401	  1.96603	 -0.12881	  3.14756	709.96002	 27.80	
 18.698	-37.048	  2.63641	  2.32030	 -0.23415	 -0.11285	  2.11192	 -0.12675	  3.14822	710.01001	 27.80	
 18.699	-42.375	  2.64026	  2.19047	 -0.15031	 -0.20584	  2.25447	 -0.12417	  3.15267	709.87000	 27.80	
 18.705	-47.657	  2.64213	  2.04807	 -0.05240	 -0.28289	  2.38041	 -0.12157	  3.15412	709.87000	 27.70	
 18.713	-52.933	  2.64064	  1.89723	  0.05686	 -0.34141	  2.48707	 -0.11934	  3.14937	709.90997	 27.70	
 18.700	-58.206	  2.64472	  1.74289	  0.17094	 -0.39895	  2.58209	 -0.11401	  3.15046	709.94000	 27.70	
 18.698	-63.496	  2.64277	  1.57707	  0.29990	 -0.44527	  2.66387	 -0.11312	  3.14782	709.91998	 27.70	
 18.707	-68.835	  2.64319	  1.40899	  0.43886	 -0.48211	  2.73186	 -0.11133	  3.14992	709.97998	 27.70	
 18.690	-74.137	  2.64482	  1.24347	  0.58723	 -0.50493	  2.77876	 -0.10448	  3.15029	709.97998	 27.70	
 18.696	-79.417	  2.64286	  1.07670	  0.73396	 -0.52440	  2.80598	 -0.10544	  3.15094	709.89001	 27.70	
 18.700	-84.691	  2.64077	  0.91678	  0.89570	 -0.52736	  2.81951	 -0.10669	  3.15045	709.84003	 27.70	
 18.700	-90.000	  2.63884	  0.75560	  1.05562	 -0.52714	  2.81093	 -0.10174	  3.15043	709.85999	 27.70	
 18.700	-95.309	  2.63782	  0.60499	  1.22209	 -0.51020	  2.78476	 -0.10118	  3.14919	709.84003	 27.70	
 18.696	-100.583	  2.63617	  0.45995	  1.38921	 -0.48603	  2.74362	 -0.10260	  3.14845	709.88000	 27.70	
 18.690	-105.863	  2.63688	  0.32495	  1.55453	 -0.45285	  2.68674	 -0.10222	  3.15206	709.97998	 27.70	
 18.707	-111.165	  2.63261	  0.19481	  1.71444	 -0.41115	  2.60861	 -0.10259	  3.15055	709.94000	 27.70	
 18.698	-116.504	  2.63009	  0.07510	  1.87483	 -0.35608	  2.51329	 -0.10054	  3.14776	709.82001	 27.70	
 18.700	-121.794	  2.62892	 -0.03209	  2.02744	 -0.29253	  2.40707	 -0.10624	  3.14883	709.84003	 27.70	
 18.713	-127.067	  2.62454	 -0.13221	  2.16932	 -0.22115	  2.28846	 -0.10956	  3.14916	709.89001	 27.70	
 18.705	-132.343	  2.62473	 -0.22223	  2.30482	 -0.13754	  2.15408	 -0.10923	  3.14968	709.96997	 27.70	
 18.699	-137.625	  2.62384	 -0.29847	  2.42629	 -0.04095	  2.01097	 -0.11729	  3.15048	709.84998	 27.70	
 18.698	-142.952	  2.62171	 -0.36624	  2.53286	  0.06514	  1.85489	 -0.12137	  3.14825	709.91998	 27.70	
 18.704	-148.255	  2.61903	 -0.42184	  2.62393	  0.17986	  1.69602	 -0.12456	  3.14654	710.08002	 27.70	
 18.695	-153.537	  2.62013	 -0.46938	  2.70335	  0.30615	  1.53500	 -0.13141	  3.14806	709.96997	 27.70	
 18.706	-158.818	  2.62120	 -0.50856	  2.76758	  0.44088	  1.36699	 -0.13838	  3.15253	710.01001	 27.70	
 18.691	-164.085	  2.61996	 -0.53393	  2.81065	  0.58261	  1.20394	 -0.13949	  3.15282	709.84003	 27.70	
 18.703	-169.441	  2.61599	 -0.55005	  2.83679	  0.73116	  1.03759	 -0.14662	  3.15060	710.03998	 27.70	
 18.709	-174.675	  2.61067	 -0.56100	  2.84217	  0.88602	  0.87063	 -0.14767	  3.14791	710.00000	 27.70	
 18.700	180.000	  2.60812	 -0.56098	  2.83642	  1.04625	  0.71166	 -0.15512	  3.14863	709.89001	 27.70	
 20.400	180.000	  2.49471	 -0.73856	  2.91506	  0.96723	  0.61242	 -0.16407	  3.15020	709.81000	 27.70	
 20.401	-175.153	  2.49472	 -0.73984	  2.92135	  0.80819	  0.76755	 -0.15471	  3.14803	709.82001	 27.70	
 20.407	-170.264	  2.49675	 -0.73491	  2.91465	  0.65170	  0.92999	 -0.14636	  3.14816	709.95001	 27.70	
 20.410	-165.423	  2.50054	 -0.71681	  2.89300	  0.50599	  1.09395	 -0.13796	  3.14813	709.82001	 27.70	
 20.392	-160.496	  2.50211	 -0.69272	  2.85391	  0.36121	  1.26348	 -0.13823	  3.14707	709.92999	 27.70	
 20.401	-155.705	  2.50263	 -0.66365	  2.80211	  0.22689	  1.42658	 -0.13320	  3.14805	709.84998	 27.70	
 20.405	-150.835	  2.50647	 -0.62043	  2.73284	  0.10319	  1.59090	 -0.12589	  3.14819	709.95001	 27.70	
 20.397	-145.903	  2.51022	 -0.56551	  2.64588	 -0.01219	  1.75614	 -0.12242	  3.14888	709.83002	 27.70	
 20.392	-141.062	  2.51122	 -0.50985	  2.54847	 -0.12292	  1.91430	 -0.11448	  3.15006	709.85999	 27.70	
 20.396	-136.227	  2.51085	 -0.43946	  2.43493	 -0.21921	  2.06393	 -0.11204	  3.14826	709.84998	 27.70	
 20.408	-131.372	  2.51099	 -0.36479	  2.31096	 -0.30872	  2.20296	 -0.11362	  3.14650	709.84003	 27.70	
 20.410	-126.511	  2.51442	 -0.27718	  2.17662	 -0.38745	  2.33608	 -0.10705	  3.14861	709.84998	 27.70	
 20.400	-121.604	  2.51571	 -0.18173	  2.02989	 -0.46153	  2.45989	 -0.10331	  3.14942	709.96997	 27.70	
 20.403	-116.741	  2.51702	 -0.07652	  1.87745	 -0.52481	  2.56965	 -0.10266	  3.15160	709.89001	 27.70	
 20.413	-111.900	  2.51803	  0.03934	  1.71953	 -0.57292	  2.66181	 -0.10090	  3.14801	709.97998	 27.70	
 20.398	-107.004	  2.52121	  0.16469	  1.55489	 -0.61818	  2.74190	 -0.09714	  3.14960	709.85999	 27.70	
 20.394	-102.132	  2.52292	  0.29971	  1.39179	 -0.64808	  2.80324	 -0.09870	  3.14847	709.95001	 27.70	
 20.403	-97.332	  2.52722	  0.43696	  1.22905	 -0.67481	  2.85244	 -0.10319	  3.15005	709.91998	 27.70	
 20.392	-92.440	  2.53134	  0.58657	  1.06423	 -0.69033	  2.88577	 -0.10092	  3.15334	709.90002	 27.60	
 20.392	-87.560	  2.52881	  0.73818	  0.90152	 -0.69948	  2.89649	 -0.10425	  3.14937	709.89001	 27.60	
 20.403	-82.668	  2.52917	  0.89587	  0.74144	 -0.70055	  2.89722	 -0.10304	  3.14929	710.02002	 27.60	
 20.394	-77.868	  2.52856	  1.05606	  0.58805	 -0.69266	  2.88033	 -0.10502	  3.14795	709.95001	 27.60	
 20.398	-72.996	  2.53062	  1.21901	  0.44286	 -0.67631	  2.84864	 -0.10600	  3.15004	709.83002	 27.60	
 20.413	-68.100	  2.52986	  1.38350	  0.30018	 -0.65161	  2.80043	 -0.11057	  3.14807	709.92999	 27.60	
 20.403	-63.259	  2.52903	  1.54965	  0.16721	 -0.61668	  2.73602	 -0.11268	  3.14818	709.91998	 27.60	
 20.400	-58.396	  2.53013	  1.71186	  0.04557	 -0.57128	  2.65338	 -0.11223	  3.14758	709.96997	 27.60	
 20.410	-53.489	  2.52813	  1.87158	 -0.07333	 -0.52047	  2.55761	 -0.11880	  3.14875	709.91998	 27.60	
 20.408	-48.628	  2.52770	  2.02516	 -0.17745	 -0.45641	  2.44761	 -0.12073	  3.14771	709.85999	 27.60	
 20.396	-43.773	  2.52774	  2.17026	 -0.27120	 -0.38425	  2.32700	 -0.12205	  3.14958	709.84998	 27.60	
 20.392	-38.938	  2.52700	  2.30477	 -0.35784	 -0.30183	  2.19229	 -0.12641	  3.14908	709.89001	 27.60	
 20.397	-34.097	  2.52540	  2.42792	 -0.43302	 -0.21126	  2.04666	 -0.13299	  3.14708	710.00000	 27.60	
 20.405	-29.165	  2.52358	  2.54368	 -0.50429	 -0.11080	  1.89156	 -0.13699	  3.14848	709.94000	 27.60	
 20.401	-24.295	  2.52404	  2.64589	 -0.56150	  0.00113	  1.73652	 -0.14409	  3.15096	709.87000	 27.60	
 20.392	-19.504	  2.52375	  2.72914	 -0.60824	  0.11919	  1.57405	 -0.14570	  3.15034	709.90997	 27.60	
 20.410	-14.577	  2.52095	  2.80143	 -0.64838	  0.24864	  1.40565	 -0.15269	  3.15153	709.89001	 27.60	
 20.407	 -9.736	  2.51874	  2.85376	 -0.67731	  0.38405	  1.24164	 -0.15576	  3.15034	709.90002	 27.60	
 20.401	 -4.847	  2.51525	  2.88872	 -0.69800	  0.52836	  1.07042	 -0.15653	  3.14746	709.87000	 27.60	
 20.400	  0.000	  2.51410	  2.91135	 -0.71271	  0.68043	  0.90568	 -0.16511	  3.14876	709.87000	 27.60	
 20.401	  4.847	  2.51282	  2.91981	 -0.71839	  0.83651	  0.74601	 -0.17191	  3.15055	709.88000	 27.60	
 20.407	  9.736	  2.50770	  2.90767	 -0.71501	  0.99807	  0.58691	 -0.17564	  3.14827	709.96997	 27.60	
 20.410	 14.577	  2.50413	  2.88491	 -0.70633	  1.15871	  0.43704	 -0.18005	  3.14905	709.91998	 27.60	
 20.392	 19.504	  2.50261	  2.84029	 -0.68548	  1.32824	  0.29204	 -0.18773	  3.14853	709.85999	 27.60	
 20.401	 24.295	  2.50296	  2.78623	 -0.66079	  1.49284	  0.15591	 -0.19472	  3.15475	709.91998	 27.60	
 20.405	 29.165	  2.49716	  2.71670	 -0.63462	  1.64798	  0.02421	 -0.20053	  3.15483	709.90997	 27.60	
 20.397	 34.097	  2.49701	  2.61936	 -0.57457	  1.81714	 -0.09025	 -0.20383	  3.15107	709.88000	 27.60	
 20.392	 38.938	  2.49457	  2.51611	 -0.51828	  1.97466	 -0.20274	 -0.21213	  3.15228	709.71002	 27.60	
 20.396	 43.773	  2.48761	  2.39930	 -0.45986	  2.12239	 -0.30818	 -0.21654	  3.14989	709.85999	 27.60	
 20.408	 48.628	  2.48805	  2.27286	 -0.38517	  2.25988	 -0.39387	 -0.22071	  3.15049	709.90002	 27.60	
 20.410	 53.489	  2.49003	  2.13343	 -0.29715	  2.39364	 -0.47293	 -0.22458	  3.15378	709.83002	 27.60	
 20.400	 58.396	  2.48347	  1.98085	 -0.20536	  2.50825	 -0.54756	 -0.22440	  3.14775	709.88000	 27.60	
 20.403	 63.259	  2.48628	  1.82745	 -0.09662	  2.61905	 -0.60814	 -0.22587	  3.15274	709.94000	 27.60	
 20.413	 68.100	  2.48384	  1.66556	  0.01847	  2.70927	 -0.65770	 -0.22442	  3.15187	709.92999	 27.60	
 20.398	 72.996	  2.48013	  1.49776	  0.14078	  2.78530	 -0.70553	 -0.22797	  3.15076	709.82001	 27.60	
 20.394	 77.868	  2.47918	  1.33038	  0.27304	  2.84728	 -0.74029	 -0.22829	  3.15012	709.94000	 27.60	
 20.403	 82.668	  2.47920	  1.16828	  0.41134	  2.89299	 -0.76267	 -0.22998	  3.15218	709.91998	 27.60	
 20.392	 87.560	  2.47861	  1.00065	  0.56273	  2.92093	 -0.77729	 -0.23368	  3.15081	709.90997	 27.60	
 20.392	 92.440	  2.47729	  0.83809	  0.71681	  2.93651	 -0.78530	 -0.23317	  3.15187	709.98999	 27.50	
 20.403	 97.332	  2.47421	  0.67644	  0.87778	  2.93524	 -0.78648	 -0.22973	  3.15063	710.01001	 27.60	
 20.394	102.132	  2.47341	  0.52671	  1.03865	  2.91802	 -0.77468	 -0.22893	  3.15248	710.01001	 27.60	
 20.398	107.004	  2.47321	  0.38017	  1.20460	  2.88803	 -0.75854	 -0.22683	  3.15391	709.96997	 27.50	
 20.413	111.900	  2.46724	  0.23564	  1.36864	  2.83554	 -0.73646	 -0.22713	  3.15020	709.84998	 27.50	
 20.403	116.741	  2.47054	  0.10531	  1.53844	  2.77287	 -0.69734	 -0.22420	  3.15333	709.88000	 27.50	
 20.400	121.604	  2.46919	 -0.01698	  1.69830	  2.69158	 -0.65513	 -0.22614	  3.15235	709.89001	 27.50	
 20.410	126.511	  2.47308	 -0.12607	  1.86146	  2.59690	 -0.59605	 -0.22213	  3.15341	709.84003	 27.50	
 20.408	131.372	  2.47055	 -0.23115	  2.01433	  2.48496	 -0.53244	 -0.22182	  3.15120	709.91998	 27.50	
 20.396	136.227	  2.47246	 -0.32070	  2.15955	  2.36426	 -0.45677	 -0.21288	  3.15060	709.92999	 27.50	
 20.392	141.062	  2.47652	 -0.40530	  2.29726	  2.23504	 -0.37684	 -0.21017	  3.15437	709.94000	 27.50	
 20.397	145.903	  2.47630	 -0.47872	  2.42145	  2.09131	 -0.28372	 -0.20813	  3.15136	709.95001	 27.50	
 20.405	150.835	  2.47841	 -0.54457	  2.53833	  1.93928	 -0.17940	 -0.20104	  3.15163	709.96997	 27.50	
 20.401	155.705	  2.48036	 -0.60217	  2.64037	  1.78424	 -0.07172	 -0.19932	  3.15199	709.90997	 27.50	
 20.392	160.496	  2.48085	 -0.64914	  2.72299	  1.62280	  0.04562	 -0.18998	  3.15146	709.92999	 27.50	
 20.410	165.423	  2.48618	 -0.68429	  2.79916	  1.45582	  0.18018	 -0.18715	  3.15220	709.88000	 27.50	
 20.407	170.264	  2.48655	 -0.71146	  2.85182	  1.29341	  0.31439	 -0.17713	  3.15025	709.90002	 27.50	
 20.401	175.153	  2.49302	 -0.72787	  2.89382	  1.12917	  0.46325	 -0.17020	  3.15276	709.92999	 27.50	
  0.141	 45.000	  3.16380	  1.39024	  1.38358	  1.42288	  1.33457	  0.07618	  3.15419	709.90997	 27.50	
  4.001	128.691	  3.14586	  1.12424	  1.56241	  1.69220	  1.00000	  0.05043	  3.15117	709.91998	 27.50	
  4.002	 76.995	  3.14720	  1.44181	  1.23396	  1.74264	  0.95445	  0.06312	  3.15133	709.96002	 27.50	
  4.002	 25.892	  3.14850	  1.69607	  1.01776	  1.50454	  1.16187	  0.06750	  3.15151	709.91998	 27.50	
  4.002	-25.892	  3.14945	  1.66656	  1.05032	  1.18650	  1.48561	  0.06131	  3.14844	709.95001	 27.50	
  4.002	-76.995	  3.15016	  1.38961	  1.30470	  1.02867	  1.68210	  0.04935	  3.15002	709.94000	 27.50	
  4.001	-128.691	  3.15007	  1.09672	  1.61901	  1.11675	  1.57825	  0.04363	  3.15044	709.79999	 27.50	
  4.000	180.000	  3.14942	  0.98278	  1.74452	  1.39806	  1.27002	  0.04184	  3.15311	709.82001	 27.50	
  8.000	180.000	  3.08245	  0.54145	  2.10602	  1.35821	  1.15841	 -0.01443	  3.15185	710.00000	 27.50	
  7.991	-152.370	  3.08829	  0.59922	  2.04193	  0.99990	  1.53876	 -0.01268	  3.15324	709.88000	 27.50	
  7.997	-124.550	  3.09233	  0.80035	  1.79874	  0.73242	  1.86132	 -0.01540	  3.15255	709.83002	 27.50	
  8.006	-96.837	  3.09619	  1.11736	  1.44330	  0.59655	  2.04345	 -0.01448	  3.15388	709.87000	 27.50	
  7.988	-69.228	  3.09610	  1.48860	  1.07604	  0.61322	  2.02374	 -0.00356	  3.15279	709.96997	 27.50	
  7.997	-41.563	  3.09511	  1.83252	  0.77620	  0.77320	  1.81407	  0.00604	  3.15144	709.96997	 27.50	
  8.008	-13.821	  3.09334	  2.05096	  0.60273	  1.06247	  1.47218	  0.01980	  3.15243	709.84003	 27.50	
  8.008	 13.821	  3.08873	  2.08175	  0.57013	  1.42254	  1.09930	  0.02896	  3.15222	709.95001	 27.40	
  7.997	 41.563	  3.08630	  1.91467	  0.69042	  1.78316	  0.77882	  0.02728	  3.15151	710.06000	 27.50	
  7.988	 69.228	  3.08431	  1.59996	  0.94492	  2.04490	  0.56620	  0.02195	  3.15638	709.94000	 27.40	
  8.006	 96.837	  3.07867	  1.21845	  1.30147	  2.13291	  0.49380	  0.01083	  3.15400	709.96997	 27.40	
  7.997	124.550	  3.07866	  0.87322	  1.67966	  2.01327	  0.58615	  0.00271	  3.15405	710.01001	 27.40	
  7.991	152.370	  3.07979	  0.63501	  1.97434	  1.72904	  0.81924	 -0.00589	  3.15312	710.00000	 27.40	
 12.009	161.059	  2.95039	  0.17394	  2.31969	  1.66310	  0.66258	 -0.07667	  3.15369	709.94000	 27.40	
 12.013	142.081	  2.94321	  0.34261	  2.07487	  2.01447	  0.37371	 -0.07591	  3.14942	710.02002	 27.40	
 12.006	123.113	  2.94280	  0.60234	  1.73772	  2.28303	  0.17366	 -0.06659	  3.15163	709.94000	 27.40	
 12.007	104.200	  2.94422	  0.93882	  1.35227	  2.42918	  0.07453	 -0.05990	  3.15219	710.07001	 27.40	
 11.989	 85.301	  2.94759	  1.32383	  0.96757	  2.43127	  0.07327	 -0.05565	  3.15265	709.91998	 27.40	
 12.013	 66.294	  2.94893	  1.71369	  0.62262	  2.29052	  0.16819	 -0.04643	  3.15135	709.85999	 27.40	
 12.012	 47.388	  2.95153	  2.05383	  0.36287	  2.02663	  0.36429	 -0.04447	  3.15083	710.03003	 27.40	
 11.990	 28.440	  2.95891	  2.29854	  0.19908	  1.67223	  0.65543	 -0.03557	  3.15164	709.98999	 27.40	
 11.991	  9.464	  2.96232	  2.41104	  0.12751	  1.28211	  1.00972	 -0.03790	  3.14996	710.01001	 27.40	
 11.991	 -9.464	  2.97107	  2.38015	  0.15822	  0.90990	  1.40130	 -0.04666	  3.15227	709.89001	 27.40	
 11.990	-28.440	  2.97665	  2.20778	  0.28693	  0.58899	  1.78273	 -0.05530	  3.15493	709.81000	 27.40	
 12.012	-47.388	  2.97478	  1.91581	  0.50081	  0.34232	  2.10219	 -0.06533	  3.15190	709.87000	 27.40	
 12.013	-66.294	  2.97556	  1.54779	  0.80648	  0.19218	  2.31498	 -0.06700	  3.15214	709.89001	 27.40	
 11.989	-85.301	  2.97591	  1.15651	  1.17870	  0.14489	  2.38885	 -0.07036	  3.15245	709.92999	 27.40	
 12.007	-104.200	  2.97269	  0.79236	  1.56796	  0.19257	  2.31732	 -0.07012	  3.15262	709.91998	 27.40	
 12.006	-123.113	  2.96921	  0.48662	  1.93375	  0.33839	  2.10885	 -0.07332	  3.15353	709.98999	 27.40	
 12.013	-142.081	  2.96382	  0.26046	  2.22674	  0.57565	  1.78855	 -0.07827	  3.15311	709.98999	 27.40	
 12.009	-161.059	  2.96105	  0.13614	  2.39634	  0.89662	  1.41048	 -0.07901	  3.15368	709.96997	 27.40	
 16.000	180.000	  2.76818	 -0.29909	  2.69283	  1.14825	  0.84611	 -0.13568	  3.15209	709.95001	 27.40	
 15.990	-165.604	  2.77375	 -0.28640	  2.67803	  0.77387	  1.22852	 -0.12599	  3.15259	709.91998	 27.40	
 16.002	-151.165	  2.78037	 -0.20302	  2.55496	  0.44022	  1.62515	 -0.11232	  3.15604	709.85999	 27.40	
 16.002	-136.836	  2.78534	 -0.05024	  2.32711	  0.16742	  1.98995	 -0.10394	  3.15459	709.84998	 27.40	
 15.995	-122.439	  2.78633	  0.16774	  2.01491	 -0.04360	  2.30002	 -0.09752	  3.15379	709.83002	 27.40	
 15.993	-107.966	  2.79466	  0.45646	  1.64571	 -0.18395	  2.52720	 -0.09724	  3.15643	709.94000	 27.40	
 16.005	-93.629	  2.79826	  0.79719	  1.25333	 -0.25769	  2.64743	 -0.09551	  3.15567	710.01001	 27.40	
 15.992	-79.234	  2.79636	  1.17328	  0.86708	 -0.26459	  2.65529	 -0.09487	  3.15331	709.94000	 27.40	
 16.009	-64.774	  2.79823	  1.56793	  0.51544	 -0.20395	  2.55370	 -0.10289	  3.15497	709.94000	 27.40	
 15.997	-50.364	  2.79804	  1.94366	  0.21867	 -0.06881	  2.33813	 -0.10902	  3.15501	709.90002	 27.40	
 15.997	-36.045	  2.79534	  2.26733	 -0.01297	  0.13004	  2.03817	 -0.11199	  3.15507	709.89001	 27.40	
 16.000	-21.597	  2.79019	  2.51261	 -0.17437	  0.40012	  1.66968	 -0.11059	  3.15226	709.83002	 27.40	
 16.003	 -7.169	  2.78421	  2.65376	 -0.26374	  0.73094	  1.27721	 -0.11267	  3.15005	709.89001	 27.30	
 16.003	  7.169	  2.78175	  2.68759	 -0.28677	  1.10152	  0.88948	 -0.11232	  3.15320	709.84998	 27.30	
 16.000	 21.597	  2.77779	  2.61074	 -0.24799	  1.49447	  0.52983	 -0.11000	  3.15471	709.88000	 27.30	
 15.997	 36.045	  2.76902	  2.42007	 -0.13831	  1.87775	  0.21668	 -0.11998	  3.15316	709.89001	 27.30	
 15.997	 50.364	  2.76490	  2.13921	  0.03956	  2.21327	 -0.02603	 -0.12995	  3.15196	709.89001	 27.30	
 16.009	 64.774	  2.76121	  1.78733	  0.29185	  2.48099	 -0.20254	 -0.13296	  3.15244	709.90002	 27.30	
 15.992	 79.234	  2.75780	  1.39876	  0.60844	  2.65150	 -0.30954	 -0.14005	  3.15094	709.90002	 27.30	
 16.005	 93.629	  2.75500	  1.00608	  0.97022	  2.71647	 -0.34916	 -0.14849	  3.15425	709.89001	 27.30	
 15.993	107.966	  2.75238	  0.64142	  1.36132	  2.66496	 -0.31524	 -0.14466	  3.15239	709.89001	 27.30	
 15.995	122.439	  2.75050	  0.31758	  1.75075	  2.50583	 -0.22039	 -0.14761	  3.15193	709.89001	 27.30	
 16.002	136.836	  2.75297	  0.06072	  2.10735	  2.24964	 -0.04859	 -0.15611	  3.15284	709.89001	 27.30	
 16.002	151.165	  2.75782	 -0.13002	  2.39949	  1.92029	  0.18553	 -0.15294	  3.15563	709.89001	 27.30	
 15.990	165.604	  2.76217	 -0.24725	  2.59764	  1.54206	  0.49032	 -0.14316	  3.15283	709.82001	 27.30	
 20.003	168.362	  2.51748	 -0.65998	  2.82008	  1.37230	  0.28880	 -0.17843	  3.15567	709.77002	 27.30	
 20.008	156.764	  2.50917	 -0.57325	  2.64959	  1.75365	 -0.01286	 -0.19478	  3.15406	709.83002	 27.30	
 20.000	145.147	  2.50294	 -0.43010	  2.39551	  2.11195	 -0.26259	 -0.21008	  3.15033	709.83002	 27.30	
 19.995	133.545	  2.50204	 -0.23609	  2.07946	  2.42660	 -0.46391	 -0.21532	  3.15291	709.95001	 27.30	
 20.009	121.926	  2.49815	  0.00935	  1.71573	  2.67442	 -0.61196	 -0.22084	  3.15259	709.85999	 27.30	
 20.005	110.327	  2.49893	  0.30930	  1.32688	  2.83918	 -0.70749	 -0.22234	  3.15312	709.90002	 27.30	
 19.989	 98.733	  2.50188	  0.65468	  0.94076	  2.91560	 -0.74708	 -0.22681	  3.15169	709.78003	 27.30	
 19.999	 87.075	  2.50813	  1.03257	  0.57252	  2.90601	 -0.73951	 -0.22784	  3.15418	709.90002	 27.30	
 19.992	 75.457	  2.51105	  1.42501	  0.23630	  2.80550	 -0.68494	 -0.22444	  3.15280	709.88000	 27.30	
 20.009	 63.844	  2.51571	  1.81270	 -0.05106	  2.62239	 -0.57813	 -0.21964	  3.15675	709.71997	 27.30	
 19.989	 52.269	  2.52094	  2.16598	 -0.27853	  2.35625	 -0.41598	 -0.21824	  3.15592	709.78998	 27.30	
 19.999	 40.602	  2.52332	  2.47049	 -0.46022	  2.02891	 -0.20394	 -0.20748	  3.15557	709.81000	 27.30	
 20.004	 29.051	  2.53014	  2.70137	 -0.58283	  1.66270	  0.06320	 -0.19450	  3.15650	709.83002	 27.30	
 20.005	 17.433	  2.53404	  2.84784	 -0.65636	  1.27324	  0.37782	 -0.18242	  3.15364	709.84003	 27.30	
 20.006	  5.780	  2.53919	  2.90269	 -0.68128	  0.88632	  0.73521	 -0.16700	  3.15269	709.81000	 27.30	
 20.006	 -5.780	  2.54623	  2.87151	 -0.65426	  0.53047	  1.12118	 -0.15399	  3.15280	709.90997	 27.30	
 20.005	-17.433	  2.55303	  2.74834	 -0.58133	  0.20775	  1.51433	 -0.14745	  3.15327	709.85999	 27.30	
 20.004	-29.051	  2.55347	  2.53554	 -0.46363	 -0.07200	  1.89231	 -0.14075	  3.14931	709.77002	 27.30	
 19.999	-40.602	  2.55899	  2.25811	 -0.29319	 -0.29293	  2.23536	 -0.13047	  3.15417	709.84003	 27.30	
 19.989	-52.269	  2.56372	  1.91727	 -0.05812	 -0.45726	  2.52077	 -0.11986	  3.15290	709.81000	 27.30	
 20.009	-63.844	  2.56280	  1.54083	  0.21576	 -0.57915	  2.73099	 -0.11158	  3.15370	709.76001	 27.30	
 19.992	-75.457	  2.56192	  1.15235	  0.54499	 -0.64382	  2.85216	 -0.10371	  3.15318	709.82001	 27.20	
 19.999	-87.075	  2.56033	  0.77510	  0.91098	 -0.65760	  2.88361	 -0.10479	  3.15421	709.75000	 27.30	
 19.989	-98.733	  2.55795	  0.42139	  1.29685	 -0.62762	  2.82529	 -0.10562	  3.15638	709.72998	 27.20	
 20.005	-110.327	  2.54742	  0.10790	  1.67742	 -0.55003	  2.67575	 -0.10533	  3.15279	709.70001	 27.20	
 20.009	-121.926	  2.54564	 -0.15409	  2.04342	 -0.41759	  2.44411	 -0.10992	  3.15425	709.73999	 27.20	
 19.995	-133.545	  2.53752	 -0.36766	  2.36267	 -0.23691	  2.13796	 -0.11299	  3.14971	709.72998	 27.20	
 20.000	-145.147	  2.53823	 -0.52143	  2.62445	  0.00215	  1.78522	 -0.12109	  3.15412	709.78003	 27.20	
 20.008	-156.764	  2.53324	 -0.63236	  2.80587	  0.28518	  1.40402	 -0.13479	  3.15488	709.77002	 27.20	
 20.003	-168.362	  2.52821	 -0.68739	  2.89682	  0.61840	  1.01502	 -0.14459	  3.15284	709.83002	 27.20	
 20.000	180.000	  2.52387	 -0.69543	  2.90198	  0.98592	  0.63921	 -0.16537	  3.15386	709.66998	 27.20	
