FileType=PCF
NHL=14
Date=03/13/19	14:26:54
Facility=APL
Serial=16071-4
Customer=NASA
NP=6
Mach=0.150000
Calibration=1:1
CalPts=490
TstPts=95
PortNumbering=AP Standard
Units=Torr C m/s kg/m^3 deg mm 
Theta[deg]	Phi[deg]	P1[Torr]	P2[Torr]	P3[Torr]	P4[Torr]	P5[Torr]	P6[Torr]	Pt[Torr]	Ps[Abs,Torr]	Ts[C]	
  0.000	  0.000	 10.86706	  4.99438	  4.43481	  4.91607	  4.50618	  0.25635	 10.86928	710.67999	 28.80	
  1.691	128.401	 10.85855	  4.64041	  4.75276	  5.34391	  4.05928	  0.24522	 10.86368	710.71002	 28.80	
  1.692	 77.194	 10.86397	  5.09576	  4.28064	  5.42623	  3.96460	  0.26705	 10.87272	710.71002	 28.70	
  1.699	 26.182	 10.85689	  5.46538	  3.92214	  5.10229	  4.25857	  0.27198	 10.86743	710.65002	 28.70	
  1.699	-26.182	 10.85711	  5.48034	  3.93012	  4.63134	  4.74678	  0.26277	 10.86490	710.66998	 28.70	
  1.692	-77.194	 10.86292	  5.10669	  4.32177	  4.36580	  5.05308	  0.24313	 10.86626	710.64001	 28.70	
  1.691	-128.401	 10.86270	  4.65280	  4.79014	  4.49796	  4.93403	  0.23028	 10.86839	710.65997	 28.70	
  1.700	180.000	 10.85938	  4.44186	  4.99188	  4.92964	  4.48546	  0.23144	 10.86559	710.69000	 28.70	
  3.400	180.000	 10.85880	  3.89072	  5.54116	  4.91142	  4.44054	  0.18364	 10.86719	710.62000	 28.70	
  3.388	-152.325	 10.85748	  4.01280	  5.41810	  4.41265	  4.96183	  0.17888	 10.86738	710.69000	 28.70	
  3.397	-124.529	 10.85431	  4.34595	  5.05243	  4.01228	  5.39117	  0.18250	 10.86821	710.58002	 28.70	
  3.399	-96.763	 10.84848	  4.81694	  4.54112	  3.80452	  5.60621	  0.19137	 10.86288	710.59998	 28.60	
  3.394	-69.283	 10.84765	  5.33147	  4.02581	  3.83328	  5.54361	  0.20942	 10.86879	710.66998	 28.60	
  3.400	-41.398	 10.83661	  5.78640	  3.57804	  4.10173	  5.19834	  0.23181	 10.86537	710.65002	 28.60	
  3.401	-14.021	 10.82964	  6.04519	  3.32947	  4.53632	  4.72027	  0.25609	 10.87064	710.64001	 28.60	
  3.401	 14.021	 10.82190	  6.04887	  3.30725	  5.04179	  4.19002	  0.27285	 10.86660	710.64001	 28.60	
  3.400	 41.398	 10.81941	  5.78013	  3.52142	  5.54605	  3.73315	  0.26924	 10.86193	710.69000	 28.60	
  3.394	 69.283	 10.82740	  5.32374	  3.91845	  5.89081	  3.43174	  0.26373	 10.86984	710.71997	 28.60	
  3.399	 96.763	 10.83051	  4.80205	  4.45307	  5.97726	  3.37178	  0.22730	 10.86440	710.71002	 28.60	
  3.397	124.529	 10.84111	  4.32804	  4.97651	  5.82358	  3.54747	  0.21958	 10.86360	710.65002	 28.60	
  3.388	152.325	 10.84853	  4.00158	  5.36990	  5.42011	  3.93846	  0.19836	 10.86505	710.67999	 28.60	
  5.099	161.165	 10.80771	  3.35299	  5.95949	  5.38865	  3.83215	  0.10980	 10.86321	710.57001	 28.50	
  5.109	142.013	 10.80116	  3.58765	  5.65099	  5.89838	  3.34980	  0.12852	 10.86680	710.56000	 28.50	
  5.095	123.033	 10.77697	  3.96928	  5.17539	  6.28722	  2.99050	  0.14760	 10.85825	710.65997	 28.50	
  5.105	104.191	 10.76796	  4.45484	  4.62838	  6.50035	  2.79080	  0.16514	 10.86284	710.70001	 28.50	
  5.093	 85.207	 10.75513	  5.00381	  4.05985	  6.51473	  2.76009	  0.18976	 10.86284	710.65997	 28.50	
  5.104	 66.290	 10.74519	  5.54309	  3.53481	  6.35164	  2.87079	  0.22995	 10.86127	710.70001	 28.50	
  5.094	 47.331	 10.74213	  6.03448	  3.12962	  5.99500	  3.16780	  0.21969	 10.86515	710.69000	 28.50	
  5.089	 28.397	 10.74329	  6.40388	  2.83296	  5.50037	  3.59240	  0.24087	 10.86588	710.63000	 28.50	
  5.096	  9.576	 10.74116	  6.59743	  2.68767	  4.95012	  4.09353	  0.23920	 10.85933	710.65997	 28.50	
  5.096	 -9.576	 10.75164	  6.59848	  2.71347	  4.42078	  4.64749	  0.22092	 10.86259	710.71002	 28.50	
  5.089	-28.397	 10.76356	  6.39182	  2.89537	  3.93291	  5.19440	  0.20598	 10.86041	710.71997	 28.40	
  5.094	-47.331	 10.78046	  6.02435	  3.23241	  3.54115	  5.67726	  0.16429	 10.86293	710.72998	 28.40	
  5.104	-66.290	 10.78609	  5.53147	  3.68162	  3.28649	  5.99128	  0.13118	 10.85349	710.65002	 28.40	
  5.093	-85.207	 10.80575	  4.99626	  4.22300	  3.20249	  6.14077	  0.11312	 10.86348	710.56000	 28.40	
  5.105	-104.191	 10.81268	  4.46398	  4.77582	  3.26554	  6.08973	  0.09961	 10.86283	710.65997	 28.40	
  5.095	-123.033	 10.82288	  3.97456	  5.30934	  3.48873	  5.83597	  0.09246	 10.86229	710.59003	 28.40	
  5.109	-142.013	 10.81808	  3.59050	  5.73227	  3.84450	  5.42965	  0.08752	 10.85749	710.63000	 28.40	
  5.099	-161.165	 10.81204	  3.35546	  5.99928	  4.32258	  4.90681	  0.09347	 10.85358	710.63000	 28.40	
  5.100	180.000	 10.81161	  3.27261	  6.08002	  4.85639	  4.35192	  0.09993	 10.85443	710.66998	 28.40	
  6.800	180.000	 10.74034	  2.62780	  6.62385	  4.77116	  4.22800	  0.01924	 10.86010	710.48999	 28.40	
  6.796	-166.229	 10.74723	  2.68379	  6.57418	  4.23233	  4.78296	  0.01032	 10.85970	710.59998	 28.40	
  6.808	-152.311	 10.75187	  2.85539	  6.37921	  3.72507	  5.33460	  0.00940	 10.86064	710.64001	 28.40	
  6.795	-138.383	 10.75036	  3.13745	  6.04680	  3.30113	  5.82138	  0.01046	 10.85977	710.69000	 28.40	
  6.792	-124.591	 10.74932	  3.50790	  5.61394	  2.96561	  6.22313	  0.00734	 10.86194	710.59003	 28.30	
  6.787	-110.754	 10.74090	  3.96150	  5.09823	  2.72257	  6.51389	  0.00675	 10.86016	710.60999	 28.30	
  6.800	-96.985	 10.73046	  4.46504	  4.54463	  2.58106	  6.67393	  0.01485	 10.85911	710.62000	 28.30	
  6.800	-83.015	 10.71737	  5.00739	  3.98730	  2.55889	  6.67823	  0.02466	 10.85921	710.60999	 28.30	
  6.787	-69.246	 10.70276	  5.54503	  3.46904	  2.65701	  6.52888	  0.04224	 10.86034	710.60999	 28.30	
  6.792	-55.409	 10.68493	  6.06156	  2.99241	  2.85396	  6.24852	  0.06186	 10.85779	710.59998	 28.30	
  6.795	-41.617	 10.67063	  6.50486	  2.60492	  3.16039	  5.85169	  0.08503	 10.86025	710.57001	 28.30	
  6.808	-27.689	 10.64735	  6.84868	  2.30630	  3.55088	  5.36845	  0.10734	 10.85925	710.52002	 28.30	
  6.796	-13.771	 10.63507	  7.06612	  2.12903	  4.03376	  4.81866	  0.12722	 10.85754	710.75000	 28.30	
  6.800	  0.000	 10.62564	  7.14291	  2.05409	  4.55520	  4.26643	  0.14924	 10.86137	710.65997	 28.30	
  6.796	 13.771	 10.61717	  7.07626	  2.09062	  5.08793	  3.73568	  0.16442	 10.85816	710.60999	 28.30	
  6.808	 27.689	 10.61622	  6.86611	  2.23407	  5.63197	  3.24069	  0.17239	 10.86347	710.67999	 28.30	
  6.795	 41.617	 10.61806	  6.52485	  2.49253	  6.13551	  2.81894	  0.16821	 10.86305	710.64001	 28.20	
  6.792	 55.409	 10.61899	  6.08313	  2.84248	  6.54267	  2.49268	  0.14947	 10.85891	710.66998	 28.20	
  6.787	 69.246	 10.63196	  5.56710	  3.29511	  6.83868	  2.27390	  0.13994	 10.86020	710.72998	 28.20	
  6.800	 83.015	 10.63477	  5.02351	  3.79683	  7.01734	  2.14495	  0.12794	 10.85745	710.69000	 28.20	
  6.800	 96.985	 10.64984	  4.47635	  4.35124	  7.04795	  2.14354	  0.10126	 10.86357	710.59003	 28.20	
  6.787	110.754	 10.67204	  3.97043	  4.91387	  6.92943	  2.25871	  0.08485	 10.86416	710.63000	 28.20	
  6.792	124.591	 10.68537	  3.50896	  5.44589	  6.68205	  2.46598	  0.07338	 10.86328	710.65002	 28.20	
  6.795	138.383	 10.69403	  3.13584	  5.90366	  6.30527	  2.78153	  0.05764	 10.85510	710.53998	 28.20	
  6.808	152.311	 10.71193	  2.86279	  6.27825	  5.83338	  3.20899	  0.03290	 10.85351	710.59998	 28.20	
  6.796	166.229	 10.73233	  2.69769	  6.52297	  5.30216	  3.71272	  0.02857	 10.85454	710.58002	 28.20	
  8.491	168.704	 10.61231	  2.01862	  7.06286	  5.21224	  3.54400	 -0.07139	 10.86070	710.60999	 28.20	
  8.502	157.493	 10.58877	  2.15035	  6.84808	  5.76494	  3.01793	 -0.06767	 10.85437	710.59003	 28.20	
  8.494	146.194	 10.57961	  2.38902	  6.51955	  6.28974	  2.55877	 -0.05051	 10.85873	710.66998	 28.20	
  8.495	135.039	 10.55791	  2.70396	  6.10126	  6.73199	  2.17182	 -0.02667	 10.85659	710.66998	 28.20	
  8.487	123.723	 10.53445	  3.09271	  5.59932	  7.09973	  1.86365	 -0.01566	 10.84985	710.66998	 28.10	
  8.492	112.575	 10.52033	  3.54968	  5.06303	  7.37038	  1.64148	 -0.01569	 10.85620	710.53003	 28.10	
  8.510	101.220	 10.50096	  4.07113	  4.47943	  7.53345	  1.50488	  0.00132	 10.85949	710.54999	 28.10	
  8.500	 90.000	 10.48958	  4.61890	  3.91086	  7.56195	  1.47107	  0.02787	 10.85954	710.72998	 28.10	
  8.510	 78.780	 10.46913	  5.17851	  3.36300	  7.46888	  1.52556	  0.04006	 10.85334	710.62000	 28.10	
  8.492	 67.425	 10.46458	  5.74536	  2.85008	  7.25287	  1.68080	  0.04506	 10.85786	710.62000	 28.10	
  8.487	 56.277	 10.45708	  6.26343	  2.41484	  6.93338	  1.91020	  0.05894	 10.85763	710.45001	 28.10	
  8.495	 44.961	 10.45502	  6.73198	  2.04433	  6.52621	  2.22453	  0.08267	 10.86215	710.66998	 28.10	
  8.494	 33.806	 10.44698	  7.11192	  1.75527	  6.04874	  2.60381	  0.08766	 10.85720	710.57001	 28.10	
  8.502	 22.507	 10.45056	  7.40728	  1.54602	  5.50617	  3.07065	  0.08102	 10.85766	710.71002	 28.10	
  8.491	 11.296	 10.45141	  7.58223	  1.43578	  4.94022	  3.58868	  0.07282	 10.85670	710.48999	 28.10	
  8.500	  0.000	 10.45856	  7.64231	  1.40665	  4.38699	  4.13330	  0.06819	 10.85351	710.48999	 28.10	
  8.491	-11.296	 10.47352	  7.57765	  1.47065	  3.84386	  4.71322	  0.04908	 10.85646	710.48999	 28.10	
  8.502	-22.507	 10.48581	  7.39232	  1.62404	  3.34098	  5.27990	  0.01816	 10.85822	710.58002	 28.10	
  8.494	-33.806	 10.50563	  7.09119	  1.87245	  2.91155	  5.81241	  0.00334	 10.85791	710.59998	 28.00	
  8.495	-44.961	 10.52521	  6.70096	  2.19812	  2.54304	  6.28628	 -0.01695	 10.85820	710.57001	 28.00	
  8.487	-56.277	 10.54379	  6.22615	  2.60201	  2.24911	  6.68302	 -0.03556	 10.85320	710.54999	 28.00	
  8.492	-67.425	 10.56465	  5.70975	  3.06868	  2.04443	  6.97781	 -0.05991	 10.86078	710.58002	 28.00	
  8.510	-78.780	 10.57596	  5.14347	  3.60111	  1.91881	  7.16730	 -0.07724	 10.85621	710.53003	 28.00	
  8.500	-90.000	 10.59049	  4.58113	  4.15867	  1.89676	  7.21933	 -0.07858	 10.85509	710.53998	 28.00	
  8.510	-101.220	 10.59858	  4.03941	  4.72610	  1.95675	  7.15170	 -0.09091	 10.85285	710.62000	 28.00	
  8.492	-112.575	 10.61389	  3.52435	  5.30217	  2.12556	  6.94946	 -0.10169	 10.85382	710.64001	 28.00	
  8.487	-123.723	 10.62191	  3.08074	  5.81843	  2.36968	  6.64411	 -0.09771	 10.85290	710.63000	 28.00	
  8.495	-135.039	 10.62675	  2.69021	  6.28729	  2.70189	  6.23862	 -0.08685	 10.84843	710.64001	 28.00	
  8.494	-146.194	 10.62609	  2.38460	  6.66328	  3.10010	  5.76284	 -0.08698	 10.84919	710.56000	 28.00	
  8.502	-157.493	 10.62399	  2.15199	  6.94460	  3.56583	  5.23112	 -0.08838	 10.84794	710.59998	 28.00	
  8.491	-168.704	 10.62602	  2.01999	  7.10804	  4.09508	  4.66481	 -0.08227	 10.85136	710.63000	 27.90	
  8.500	180.000	 10.61167	  1.96894	  7.14716	  4.65087	  4.08435	 -0.07489	 10.84969	710.56000	 27.90	
 10.200	180.000	 10.45489	  1.32618	  7.63981	  4.52027	  3.92603	 -0.17315	 10.85165	710.59003	 27.90	
 10.191	-170.497	 10.46881	  1.36498	  7.61219	  3.95501	  4.51068	 -0.17957	 10.85339	710.52002	 27.90	
 10.210	-161.034	 10.46807	  1.47367	  7.47847	  3.41294	  5.09322	 -0.18480	 10.84807	710.64001	 27.90	
 10.194	-151.526	 10.47520	  1.66496	  7.23943	  2.92925	  5.64985	 -0.18099	 10.85159	710.52002	 27.90	
 10.190	-142.105	 10.47519	  1.92315	  6.91183	  2.48062	  6.17551	 -0.17691	 10.85039	710.53998	 27.90	
 10.215	-132.646	 10.46306	  2.25182	  6.48721	  2.08738	  6.64544	 -0.18487	 10.84540	710.48999	 27.90	
 10.203	-123.092	 10.46375	  2.65360	  6.00194	  1.77081	  7.06013	 -0.19432	 10.85464	710.51001	 27.90	
 10.192	-113.678	 10.45425	  3.10549	  5.46699	  1.54055	  7.35918	 -0.19472	 10.85508	710.63000	 27.90	
 10.208	-104.249	 10.44328	  3.60048	  4.90149	  1.37156	  7.57696	 -0.18280	 10.85470	710.58002	 27.90	
 10.210	-94.801	 10.42956	  4.14240	  4.31338	  1.27368	  7.68902	 -0.17571	 10.85060	710.57001	 27.90	
 10.210	-85.199	 10.41192	  4.70850	  3.72905	  1.25578	  7.69093	 -0.17619	 10.84827	710.52002	 27.90	
 10.208	-75.751	 10.38953	  5.27253	  3.17688	  1.31518	  7.58466	 -0.17431	 10.84293	710.53998	 27.90	
 10.192	-66.322	 10.37835	  5.83575	  2.65945	  1.44546	  7.38519	 -0.16276	 10.84978	710.71002	 27.90	
 10.203	-56.908	 10.35506	  6.36306	  2.19172	  1.63576	  7.09376	 -0.14305	 10.85266	710.58002	 27.90	
 10.215	-47.354	 10.33351	  6.85591	  1.77731	  1.91363	  6.69306	 -0.13105	 10.85096	710.58002	 27.90	
 10.190	-37.895	 10.31287	  7.28400	  1.43442	  2.27206	  6.21655	 -0.11118	 10.84875	710.51001	 27.80	
 10.194	-28.474	 10.29961	  7.63620	  1.16241	  2.67538	  5.70218	 -0.09414	 10.85631	710.62000	 27.80	
 10.210	-18.966	 10.27688	  7.89614	  0.95166	  3.12986	  5.14569	 -0.07613	 10.85216	710.57001	 27.80	
 10.191	 -9.503	 10.26248	  8.05017	  0.82595	  3.64493	  4.56346	 -0.04885	 10.84774	710.65997	 27.80	
 10.200	  0.000	 10.24665	  8.10573	  0.76972	  4.18961	  3.97702	 -0.02860	 10.84453	710.52002	 27.80	
 10.191	  9.503	 10.24170	  8.05725	  0.78997	  4.75322	  3.42693	 -0.02235	 10.84972	710.67999	 27.80	
 10.210	 18.966	 10.23109	  7.91019	  0.87518	  5.33305	  2.88703	 -0.01625	 10.84701	710.54999	 27.80	
 10.194	 28.474	 10.22934	  7.65004	  1.04420	  5.89481	  2.40102	 -0.00597	 10.85122	710.60999	 27.80	
 10.190	 37.895	 10.23657	  7.31562	  1.28621	  6.41103	  1.99186	 -0.00179	 10.85132	710.58002	 27.80	
 10.215	 47.354	 10.23365	  6.89080	  1.59150	  6.88802	  1.61657	 -0.02093	 10.84810	710.56000	 27.80	
 10.203	 56.908	 10.23997	  6.40076	  1.97123	  7.30089	  1.31923	 -0.04663	 10.84946	710.44000	 27.80	
 10.192	 66.322	 10.24842	  5.87121	  2.41138	  7.62583	  1.09580	 -0.06008	 10.84614	710.52002	 27.80	
 10.208	 75.751	 10.26109	  5.30930	  2.90113	  7.86892	  0.93443	 -0.06742	 10.85258	710.52002	 27.80	
 10.210	 85.199	 10.27459	  4.73737	  3.44111	  8.00601	  0.85215	 -0.07089	 10.85485	710.59003	 27.80	
 10.210	 94.801	 10.27918	  4.15932	  4.01335	  8.02547	  0.84460	 -0.08755	 10.83987	710.53003	 27.80	
 10.208	104.249	 10.30015	  3.61636	  4.60366	  7.95407	  0.91354	 -0.10944	 10.84289	710.58002	 27.80	
 10.192	113.678	 10.32535	  3.11701	  5.17874	  7.77337	  1.06069	 -0.12158	 10.84707	710.56000	 27.80	
 10.203	123.092	 10.34833	  2.66717	  5.73128	  7.50285	  1.27630	 -0.12147	 10.84712	710.63000	 27.80	
 10.215	132.646	 10.36829	  2.26152	  6.25099	  7.13444	  1.56866	 -0.12956	 10.84553	710.54999	 27.70	
 10.190	142.105	 10.38542	  1.93150	  6.70403	  6.68337	  1.93725	 -0.14402	 10.84631	710.53998	 27.70	
 10.194	151.526	 10.40700	  1.66740	  7.08291	  6.20016	  2.35032	 -0.16239	 10.84654	710.50000	 27.70	
 10.210	161.034	 10.41719	  1.47220	  7.36838	  5.64887	  2.83688	 -0.16738	 10.83820	710.44000	 27.70	
 10.191	170.497	 10.44468	  1.37020	  7.55828	  5.08598	  3.37489	 -0.16714	 10.84761	710.58002	 27.70	
 11.899	171.783	 10.24480	  0.73169	  8.02953	  4.92573	  3.18429	 -0.26373	 10.85092	710.50000	 27.70	
 11.890	163.610	 10.22709	  0.83069	  7.85651	  5.50218	  2.65076	 -0.26829	 10.84663	710.47998	 27.70	
 11.889	155.445	 10.20533	  0.98785	  7.59739	  6.06295	  2.15212	 -0.26987	 10.84639	710.56000	 27.70	
 11.909	147.299	 10.18663	  1.20204	  7.26499	  6.58260	  1.70914	 -0.26318	 10.84855	710.51001	 27.70	
 11.902	139.148	 10.16778	  1.47974	  6.84878	  7.07306	  1.31405	 -0.25095	 10.84722	710.64001	 27.70	
 11.894	130.867	 10.14174	  1.82786	  6.36411	  7.50509	  0.96884	 -0.23497	 10.84571	710.64001	 27.70	
 11.897	122.732	 10.12179	  2.22601	  5.83299	  7.86438	  0.68989	 -0.23339	 10.84826	710.58002	 27.70	
 11.903	114.597	 10.10189	  2.67263	  5.28138	  8.14277	  0.48671	 -0.23463	 10.84656	710.48999	 27.70	
 11.893	106.346	 10.08724	  3.17362	  4.69779	  8.34153	  0.34638	 -0.22325	 10.84848	710.47998	 27.70	
 11.892	 98.155	 10.06807	  3.71543	  4.09937	  8.44818	  0.26281	 -0.20363	 10.84585	710.56000	 27.70	
 11.900	 90.000	 10.05645	  4.27068	  3.52298	  8.47122	  0.23299	 -0.18698	 10.85784	710.46997	 27.70	
 11.892	 81.845	 10.03906	  4.83837	  2.97074	  8.38824	  0.27734	 -0.17941	 10.84759	710.50000	 27.70	
 11.893	 73.654	 10.02873	  5.42367	  2.44322	  8.22378	  0.37785	 -0.18315	 10.85471	710.52002	 27.70	
 11.903	 65.403	 10.00810	  5.98686	  1.95053	  7.96701	  0.52803	 -0.17514	 10.84858	710.48999	 27.70	
 11.897	 57.268	  9.99279	  6.51643	  1.52123	  7.63389	  0.74197	 -0.15782	 10.84307	710.47998	 27.70	
 11.894	 49.133	  9.99247	  7.01808	  1.14601	  7.23421	  1.01851	 -0.13357	 10.84978	710.51001	 27.70	
 11.902	 40.852	  9.98869	  7.47205	  0.82651	  6.75414	  1.36451	 -0.10777	 10.84967	710.59003	 27.60	
 11.909	 32.701	  9.98517	  7.84997	  0.56944	  6.23715	  1.75995	 -0.10200	 10.84750	710.50000	 27.60	
 11.889	 24.555	  9.98952	  8.14724	  0.38537	  5.69539	  2.20488	 -0.10952	 10.85129	710.59003	 27.60	
 11.890	 16.390	  9.99514	  8.36516	  0.25411	  5.12081	  2.70490	 -0.11843	 10.84997	710.56000	 27.60	
 11.899	  8.217	  9.99830	  8.49686	  0.17564	  4.53813	  3.24191	 -0.12200	 10.84824	710.51001	 27.60	
 11.900	  0.000	 10.00215	  8.53705	  0.15006	  3.97551	  3.79215	 -0.12873	 10.84874	710.64001	 27.60	
 11.899	 -8.217	 10.01932	  8.49064	  0.19194	  3.42280	  4.38492	 -0.14406	 10.85038	710.52002	 27.60	
 11.890	-16.390	 10.03399	  8.34863	  0.29684	  2.89842	  4.97663	 -0.17413	 10.85303	710.45001	 27.60	
 11.889	-24.555	 10.05027	  8.12490	  0.46054	  2.43045	  5.54206	 -0.19271	 10.85164	710.54999	 27.60	
 11.909	-32.701	 10.06315	  7.82103	  0.68501	  1.99628	  6.09173	 -0.20725	 10.84600	710.51001	 27.60	
 11.902	-40.852	 10.08734	  7.43394	  0.97842	  1.61554	  6.60723	 -0.22019	 10.85256	710.57001	 27.60	
 11.894	-49.133	 10.11021	  6.97022	  1.34598	  1.29470	  7.06540	 -0.23023	 10.85139	710.56000	 27.60	
 11.897	-57.268	 10.13481	  6.47211	  1.76269	  1.04178	  7.44854	 -0.23858	 10.84933	710.44000	 27.60	
 11.903	-65.403	 10.15717	  5.93642	  2.23089	  0.85336	  7.76317	 -0.25151	 10.84880	710.50000	 27.60	
 11.893	-73.654	 10.17733	  5.36986	  2.74985	  0.72429	  7.98949	 -0.25403	 10.84550	710.42999	 27.60	
 11.892	-81.845	 10.19638	  4.79029	  3.29994	  0.64757	  8.12739	 -0.25218	 10.85045	710.52002	 27.60	
 11.900	-90.000	 10.21166	  4.22598	  3.86354	  0.63276	  8.16853	 -0.24633	 10.84984	710.54999	 27.60	
 11.892	-98.155	 10.22557	  3.67660	  4.44108	  0.68086	  8.11330	 -0.25008	 10.84712	710.53998	 27.60	
 11.893	-106.346	 10.23975	  3.14544	  5.03446	  0.79615	  7.96245	 -0.25538	 10.84235	710.34998	 27.60	
 11.903	-114.597	 10.25261	  2.65548	  5.61237	  0.97267	  7.72817	 -0.26350	 10.84537	710.38000	 27.50	
 11.897	-122.732	 10.26762	  2.21279	  6.15555	  1.21346	  7.40892	 -0.26406	 10.85249	710.45001	 27.50	
 11.894	-130.867	 10.27115	  1.81982	  6.64996	  1.50366	  7.01812	 -0.26132	 10.84943	710.51001	 27.50	
 11.902	-139.148	 10.27407	  1.47492	  7.10187	  1.86429	  6.54984	 -0.25523	 10.84735	710.42999	 27.50	
 11.909	-147.299	 10.27651	  1.19504	  7.47472	  2.27771	  6.03512	 -0.26148	 10.85080	710.46002	 27.50	
 11.889	-155.445	 10.27589	  0.98917	  7.75723	  2.74735	  5.47959	 -0.26925	 10.84447	710.47998	 27.50	
 11.890	-163.610	 10.27398	  0.83093	  7.96542	  3.24668	  4.91424	 -0.27170	 10.85072	710.52002	 27.50	
 11.899	-171.783	 10.26504	  0.73642	  8.08337	  3.79028	  4.32379	 -0.27064	 10.84979	710.51001	 27.50	
 11.900	180.000	 10.25987	  0.70135	  8.10507	  4.36110	  3.74086	 -0.26520	 10.85237	710.53998	 27.50	
 13.600	180.000	 10.01551	  0.08259	  8.53846	  4.16483	  3.51756	 -0.34331	 10.84729	710.41998	 27.50	
 13.608	-172.853	 10.02895	  0.10426	  8.53152	  3.60330	  4.09762	 -0.34749	 10.85627	710.48999	 27.50	
 13.611	-165.583	 10.03257	  0.18218	  8.43350	  3.05195	  4.68968	 -0.34128	 10.85217	710.52002	 27.50	
 13.601	-158.353	 10.03640	  0.32080	  8.24140	  2.54474	  5.27053	 -0.33669	 10.84967	710.42999	 27.50	
 13.609	-151.210	 10.03735	  0.50290	  7.98607	  2.06657	  5.84281	 -0.31964	 10.84406	710.44000	 27.50	
 13.611	-143.999	 10.03513	  0.74011	  7.64408	  1.62700	  6.39263	 -0.30706	 10.84030	710.48999	 27.50	
 13.601	-136.825	 10.04251	  1.03344	  7.24704	  1.25201	  6.89357	 -0.30037	 10.85035	710.51001	 27.50	
 13.596	-129.640	 10.03722	  1.36821	  6.78787	  0.91921	  7.34468	 -0.29912	 10.85410	710.46002	 27.50	
 13.611	-122.431	 10.02265	  1.75428	  6.27257	  0.62709	  7.74637	 -0.29555	 10.85309	710.46002	 27.50	
 13.604	-115.211	 10.00810	  2.19047	  5.71979	  0.39706	  8.07155	 -0.29596	 10.84682	710.48999	 27.50	
 13.595	-108.042	 10.00390	  2.66330	  5.15027	  0.22523	  8.32482	 -0.29155	 10.85484	710.53998	 27.50	
 13.607	-100.793	  9.97845	  3.17659	  4.55346	  0.09617	  8.49407	 -0.28071	 10.84278	710.46002	 27.50	
 13.601	-93.617	  9.96275	  3.72155	  3.95964	  0.02848	  8.58030	 -0.28123	 10.84102	710.52002	 27.40	
 13.601	-86.383	  9.95599	  4.28595	  3.38326	  0.00908	  8.59882	 -0.28468	 10.84915	710.52002	 27.40	
 13.607	-79.207	  9.93349	  4.85269	  2.82093	  0.03940	  8.51919	 -0.29095	 10.84899	710.46002	 27.40	
 13.595	-71.958	  9.91927	  5.43651	  2.28618	  0.13048	  8.35033	 -0.29524	 10.85025	710.48999	 27.40	
 13.604	-64.789	  9.89804	  5.99793	  1.79226	  0.26399	  8.11282	 -0.29931	 10.85286	710.44000	 27.40	
 13.611	-57.569	  9.87809	  6.54532	  1.33532	  0.45827	  7.79189	 -0.29848	 10.84843	710.44000	 27.40	
 13.596	-50.360	  9.85270	  7.05889	  0.92872	  0.70638	  7.39481	 -0.29840	 10.84621	710.40997	 27.40	
 13.601	-43.175	  9.82184	  7.52358	  0.57325	  0.99630	  6.95104	 -0.29807	 10.84199	710.46997	 27.40	
 13.611	-36.001	  9.80599	  7.94103	  0.27081	  1.33759	  6.46276	 -0.29652	 10.84887	710.34998	 27.40	
 13.609	-28.790	  9.78240	  8.29136	  0.02848	  1.73532	  5.91417	 -0.28743	 10.84851	710.46002	 27.40	
 13.601	-21.647	  9.76427	  8.57264	 -0.16668	  2.17664	  5.34799	 -0.27408	 10.84607	710.33002	 27.40	
 13.611	-14.417	  9.74051	  8.78158	 -0.32532	  2.64391	  4.76842	 -0.26184	 10.85168	710.46002	 27.40	
 13.608	 -7.147	  9.72941	  8.90779	 -0.42094	  3.17007	  4.16892	 -0.24515	 10.85032	710.40997	 27.40	
 13.600	  0.000	  9.71951	  8.95006	 -0.46434	  3.71572	  3.59270	 -0.22808	 10.85041	710.34003	 27.40	
 13.608	  7.147	  9.70958	  8.91748	 -0.46185	  4.27261	  3.03687	 -0.22798	 10.84867	710.44000	 27.40	
 13.611	 14.417	  9.69746	  8.79257	 -0.40424	  4.85902	  2.48872	 -0.22591	 10.84491	710.46002	 27.40	
 13.601	 21.647	  9.70086	  8.59659	 -0.28539	  5.45225	  1.98298	 -0.21650	 10.85252	710.38000	 27.40	
 13.609	 28.790	  9.69933	  8.32771	 -0.12152	  6.01177	  1.52735	 -0.21125	 10.84881	710.28003	 27.40	
 13.611	 36.001	  9.69941	  7.98226	  0.10193	  6.56017	  1.10877	 -0.21423	 10.84559	710.38000	 27.40	
 13.601	 43.175	  9.70323	  7.57743	  0.37200	  7.06543	  0.74359	 -0.22744	 10.84815	710.47998	 27.40	
 13.596	 50.360	  9.71364	  7.11765	  0.69478	  7.52427	  0.43778	 -0.24998	 10.85172	710.38000	 27.40	
 13.611	 57.569	  9.71657	  6.60282	  1.06702	  7.93021	  0.18012	 -0.27527	 10.84544	710.40002	 27.40	
 13.604	 64.789	  9.72875	  6.06218	  1.49271	  8.27095	 -0.02822	 -0.29894	 10.84839	710.31000	 27.40	
 13.595	 71.958	  9.74534	  5.49952	  1.95916	  8.54893	 -0.18728	 -0.30830	 10.85580	710.38000	 27.40	
 13.607	 79.207	  9.75281	  4.91360	  2.46796	  8.73875	 -0.29948	 -0.30659	 10.85179	710.37000	 27.30	
 13.601	 86.383	  9.76497	  4.33413	  3.01125	  8.85001	 -0.35694	 -0.30347	 10.85054	710.35999	 27.40	
 13.601	 93.617	  9.78475	  3.76888	  3.57546	  8.88187	 -0.36588	 -0.31454	 10.85391	710.51001	 27.40	
 13.607	100.793	  9.80162	  3.21883	  4.16246	  8.83317	 -0.32760	 -0.33160	 10.85092	710.44000	 27.30	
 13.595	108.042	  9.81937	  2.69827	  4.75842	  8.69179	 -0.22123	 -0.34270	 10.84715	710.40002	 27.30	
 13.604	115.211	  9.84112	  2.21554	  5.34056	  8.48360	 -0.07386	 -0.34286	 10.84875	710.39001	 27.30	
 13.611	122.431	  9.86136	  1.77379	  5.91170	  8.19347	  0.12796	 -0.34194	 10.84656	710.46002	 27.30	
 13.596	129.640	  9.88328	  1.37423	  6.44925	  7.83817	  0.38316	 -0.34284	 10.84595	710.41998	 27.30	
 13.601	136.825	  9.90342	  1.03144	  6.94263	  7.42184	  0.69111	 -0.34860	 10.84762	710.40002	 27.30	
 13.611	143.999	  9.92887	  0.74306	  7.39091	  6.95030	  1.05965	 -0.36328	 10.85070	710.34998	 27.30	
 13.609	151.210	  9.94845	  0.50661	  7.77018	  6.42640	  1.47936	 -0.37470	 10.84523	710.44000	 27.30	
 13.601	158.353	  9.96327	  0.31960	  8.07809	  5.88831	  1.92286	 -0.36648	 10.84860	710.40997	 27.30	
 13.611	165.583	  9.98545	  0.17653	  8.32489	  5.31867	  2.42294	 -0.35468	 10.85443	710.37000	 27.30	
 13.608	172.853	 10.00385	  0.10413	  8.47967	  4.73226	  2.96968	 -0.34275	 10.85372	710.40997	 27.30	
 15.298	173.587	  9.72203	 -0.48406	  8.86725	  4.51033	  2.72793	 -0.40668	 10.84276	710.38000	 27.30	
 15.291	167.167	  9.71190	 -0.41804	  8.73247	  5.09507	  2.19418	 -0.42700	 10.85412	710.35999	 27.30	
 15.307	160.676	  9.69115	 -0.31219	  8.51631	  5.67522	  1.68725	 -0.44974	 10.84910	710.42999	 27.30	
 15.300	154.261	  9.67099	 -0.15611	  8.22825	  6.22197	  1.23336	 -0.46828	 10.84539	710.40997	 27.30	
 15.288	147.854	  9.65994	  0.04861	  7.88282	  6.76613	  0.81655	 -0.46985	 10.85457	710.40002	 27.30	
 15.293	141.428	  9.62670	  0.29720	  7.45513	  7.26810	  0.42617	 -0.46175	 10.84449	710.28003	 27.30	
 15.299	134.985	  9.60849	  0.59506	  6.99266	  7.72719	  0.09966	 -0.45096	 10.84616	710.35999	 27.30	
 15.305	128.583	  9.58626	  0.93233	  6.49022	  8.13937	 -0.18950	 -0.44414	 10.84401	710.44000	 27.30	
 15.309	122.142	  9.55842	  1.31466	  5.94441	  8.49431	 -0.43351	 -0.44898	 10.84651	710.42999	 27.30	
 15.304	115.711	  9.53625	  1.74910	  5.36969	  8.78502	 -0.62715	 -0.45884	 10.84376	710.37000	 27.20	
 15.297	109.291	  9.52394	  2.21773	  4.79264	  9.01321	 -0.77552	 -0.46846	 10.84989	710.37000	 27.30	
 15.293	102.897	  9.49357	  2.71646	  4.20031	  9.15335	 -0.87341	 -0.45860	 10.83988	710.28998	 27.20	
 15.293	 96.458	  9.48038	  3.25565	  3.61105	  9.23819	 -0.93310	 -0.44298	 10.84592	710.32001	 27.20	
 15.300	 90.000	  9.46223	  3.81240	  3.03738	  9.24901	 -0.94650	 -0.42836	 10.85090	710.35999	 27.20	
 15.293	 83.542	  9.44769	  4.38817	  2.48476	  9.17909	 -0.91914	 -0.43209	 10.84791	710.34998	 27.20	
 15.293	 77.103	  9.43477	  4.97280	  1.96064	  9.04427	 -0.85102	 -0.43894	 10.85100	710.23999	 27.20	
 15.297	 70.709	  9.41808	  5.53920	  1.47069	  8.82901	 -0.74220	 -0.43964	 10.84863	710.28003	 27.20	
 15.304	 64.289	  9.41149	  6.10545	  1.02128	  8.55283	 -0.58555	 -0.42733	 10.84890	710.28998	 27.20	
 15.309	 57.858	  9.40339	  6.65852	  0.60600	  8.20715	 -0.38731	 -0.40541	 10.85601	710.20001	 27.20	
 15.305	 51.417	  9.39492	  7.17229	  0.24481	  7.79394	 -0.13676	 -0.37252	 10.84885	710.25000	 27.20	
 15.299	 45.015	  9.39132	  7.64645	 -0.06419	  7.34397	  0.15299	 -0.34754	 10.85270	710.27002	 27.20	
 15.293	 38.572	  9.38385	  8.06724	 -0.33515	  6.84951	  0.48211	 -0.32970	 10.84851	710.31000	 27.20	
 15.288	 32.146	  9.37832	  8.43856	 -0.55787	  6.31359	  0.86677	 -0.32223	 10.84813	710.26001	 27.20	
 15.300	 25.739	  9.38064	  8.75556	 -0.73850	  5.75277	  1.29770	 -0.32760	 10.84617	710.23999	 27.20	
 15.307	 19.324	  9.38037	  9.00051	 -0.87538	  5.18614	  1.75765	 -0.33490	 10.85009	710.28003	 27.20	
 15.291	 12.833	  9.38594	  9.17416	 -0.96063	  4.60124	  2.26898	 -0.33475	 10.84671	710.41998	 27.20	
 15.298	  6.413	  9.39370	  9.28306	 -1.01600	  4.01562	  2.81297	 -0.33584	 10.85226	710.41998	 27.20	
 15.300	  0.000	  9.39618	  9.31267	 -1.03880	  3.45596	  3.35140	 -0.32622	 10.85035	710.40997	 27.20	
 15.298	 -6.413	  9.41178	  9.27404	 -1.02222	  2.91225	  3.93171	 -0.33579	 10.85060	710.44000	 27.20	
 15.291	-12.833	  9.42502	  9.15986	 -0.94403	  2.39328	  4.52681	 -0.33950	 10.85006	710.52002	 27.20	
 15.307	-19.324	  9.43848	  8.97799	 -0.82312	  1.91176	  5.11309	 -0.35179	 10.84656	710.28998	 27.20	
 15.300	-25.739	  9.45841	  8.72397	 -0.65451	  1.45987	  5.69244	 -0.35570	 10.84290	710.46002	 27.20	
 15.288	-32.146	  9.48186	  8.40206	 -0.45067	  1.05134	  6.25501	 -0.35310	 10.85262	710.32001	 27.20	
 15.293	-38.572	  9.50885	  8.01850	 -0.18296	  0.69219	  6.77994	 -0.34633	 10.85357	710.38000	 27.20	
 15.299	-45.015	  9.52873	  7.58543	  0.12404	  0.37245	  7.26826	 -0.33275	 10.85297	710.37000	 27.20	
 15.305	-51.417	  9.55505	  7.10539	  0.46903	  0.09156	  7.71589	 -0.32489	 10.85504	710.35999	 27.20	
 15.309	-57.858	  9.56702	  6.57338	  0.87332	 -0.13630	  8.09826	 -0.31694	 10.84254	710.37000	 27.20	
 15.304	-64.289	  9.59574	  6.02516	  1.32830	 -0.31505	  8.42517	 -0.31424	 10.84800	710.29999	 27.20	
 15.297	-70.709	  9.62373	  5.47006	  1.82658	 -0.43312	  8.67587	 -0.30408	 10.85242	710.22998	 27.20	
 15.293	-77.103	  9.64524	  4.90304	  2.34464	 -0.51591	  8.85121	 -0.29704	 10.85233	710.38000	 27.20	
 15.293	-83.542	  9.66700	  4.32277	  2.89869	 -0.56032	  8.96004	 -0.28796	 10.85388	710.33002	 27.20	
 15.300	-90.000	  9.68520	  3.75769	  3.46728	 -0.56793	  8.99041	 -0.28444	 10.84989	710.21997	 27.10	
 15.293	-96.458	  9.70128	  3.20989	  4.05172	 -0.52879	  8.94521	 -0.28235	 10.85165	710.23999	 27.10	
 15.293	-102.897	  9.70812	  2.67744	  4.64414	 -0.44802	  8.82203	 -0.28201	 10.84531	710.25000	 27.10	
 15.297	-109.291	  9.72560	  2.18639	  5.23129	 -0.32673	  8.64216	 -0.28664	 10.85248	710.23999	 27.10	
 15.304	-115.711	  9.73527	  1.72177	  5.80420	 -0.16286	  8.38628	 -0.29286	 10.85234	710.28998	 27.10	
 15.309	-122.142	  9.74058	  1.29365	  6.35445	  0.05314	  8.04638	 -0.29657	 10.84955	710.21997	 27.10	
 15.305	-128.583	  9.75550	  0.91653	  6.87451	  0.32361	  7.65096	 -0.30166	 10.84754	710.28003	 27.10	
 15.299	-134.985	  9.76264	  0.58238	  7.34645	  0.63977	  7.19641	 -0.30518	 10.84863	710.29999	 27.10	
 15.293	-141.428	  9.77109	  0.29437	  7.77644	  1.00452	  6.70331	 -0.31774	 10.84764	710.29999	 27.10	
 15.288	-147.854	  9.76799	  0.04203	  8.14489	  1.40374	  6.16976	 -0.33203	 10.84764	710.21002	 27.10	
 15.300	-154.261	  9.76691	 -0.15850	  8.44968	  1.84809	  5.60960	 -0.34949	 10.84678	710.25000	 27.10	
 15.307	-160.676	  9.76648	 -0.31090	  8.68669	  2.33036	  5.02954	 -0.37036	 10.85513	710.37000	 27.10	
 15.291	-167.167	  9.76199	 -0.41926	  8.83830	  2.84377	  4.44340	 -0.38448	 10.84869	710.35999	 27.10	
 15.298	-173.587	  9.75228	 -0.48676	  8.92848	  3.38769	  3.85542	 -0.39502	 10.85235	710.35999	 27.10	
 15.300	180.000	  9.73636	 -0.51010	  8.93355	  3.94884	  3.27611	 -0.39989	 10.84474	710.28998	 27.10	
 17.000	180.000	  9.42605	 -1.07855	  9.30115	  3.70904	  3.01806	 -0.43457	 10.84917	710.34998	 27.10	
 16.990	-174.179	  9.43967	 -1.05852	  9.28850	  3.15426	  3.58795	 -0.41644	 10.84879	710.39001	 27.10	
 17.009	-168.383	  9.43988	 -1.01009	  9.21829	  2.60645	  4.17412	 -0.40067	 10.84425	710.42999	 27.10	
 17.000	-162.596	  9.45848	 -0.91507	  9.08340	  2.11078	  4.75371	 -0.38225	 10.85536	710.40002	 27.10	
 16.990	-156.759	  9.46158	 -0.77867	  8.86891	  1.62316	  5.34035	 -0.35527	 10.85080	710.25000	 27.10	
 16.995	-150.919	  9.45923	 -0.61229	  8.59278	  1.16651	  5.91605	 -0.33790	 10.85337	710.34003	 27.10	
 16.988	-145.161	  9.46275	 -0.39993	  8.26117	  0.77318	  6.45558	 -0.32319	 10.85048	710.28998	 27.10	
 17.014	-139.343	  9.45224	 -0.15376	  7.86629	  0.38741	  6.98066	 -0.30455	 10.84711	710.21002	 27.10	
 17.007	-133.546	  9.45055	  0.13650	  7.42524	  0.04615	  7.47688	 -0.28769	 10.85470	710.26001	 27.10	
 17.001	-127.699	  9.43701	  0.47408	  6.92767	 -0.24838	  7.92643	 -0.28352	 10.85053	710.29999	 27.00	
 17.006	-121.937	  9.43140	  0.84108	  6.41278	 -0.49387	  8.31142	 -0.27493	 10.84996	710.25000	 27.10	
 17.002	-116.134	  9.41956	  1.25154	  5.85809	 -0.69330	  8.64135	 -0.27367	 10.84827	710.21997	 27.00	
 17.001	-110.310	  9.40836	  1.70195	  5.28189	 -0.86218	  8.91867	 -0.26116	 10.84647	710.25000	 27.00	
 16.988	-104.517	  9.40087	  2.17820	  4.69963	 -0.98368	  9.12332	 -0.26273	 10.84473	710.31000	 27.00	
 17.008	-98.662	  9.38045	  2.68715	  4.10363	 -1.08434	  9.27125	 -0.26336	 10.84906	710.34003	 27.00	
 16.996	-92.909	  9.36557	  3.21683	  3.52310	 -1.13346	  9.34341	 -0.25998	 10.85195	710.26001	 27.00	
 16.996	-87.091	  9.34896	  3.76618	  2.95187	 -1.15094	  9.34998	 -0.26336	 10.85260	710.15997	 27.00	
 17.012	-81.253	  9.32126	  4.32904	  2.38883	 -1.13450	  9.28503	 -0.27369	 10.84518	710.17999	 27.00	
 16.988	-75.483	  9.31110	  4.90208	  1.86297	 -1.06812	  9.15346	 -0.28717	 10.84914	710.22998	 27.00	
 17.001	-69.690	  9.29084	  5.47305	  1.35946	 -0.97762	  8.96273	 -0.29186	 10.85172	710.22998	 27.00	
 17.002	-63.866	  9.26248	  6.03509	  0.89180	 -0.84547	  8.69287	 -0.29980	 10.84210	710.22998	 27.00	
 17.006	-58.063	  9.24278	  6.58783	  0.45873	 -0.67855	  8.37141	 -0.31297	 10.85015	710.15002	 27.00	
 17.001	-52.301	  9.22432	  7.10233	  0.07754	 -0.47808	  8.00167	 -0.32717	 10.85618	710.17999	 27.00	
 17.007	-46.454	  9.18827	  7.58889	 -0.27593	 -0.22433	  7.55487	 -0.33779	 10.84515	710.15997	 27.00	
 17.014	-40.657	  9.16636	  8.04916	 -0.57969	  0.07040	  7.07436	 -0.35592	 10.84894	710.19000	 27.00	
 16.988	-34.839	  9.14994	  8.46086	 -0.83667	  0.41444	  6.55516	 -0.37275	 10.85094	710.14001	 27.00	
 16.995	-29.081	  9.12765	  8.80834	 -1.05552	  0.77630	  6.02026	 -0.38601	 10.85511	710.16998	 27.00	
 16.990	-23.241	  9.10935	  9.10289	 -1.23276	  1.19660	  5.44759	 -0.39839	 10.85014	710.22998	 27.00	
 17.000	-17.404	  9.09148	  9.33856	 -1.37472	  1.64840	  4.85751	 -0.40316	 10.84903	710.21997	 27.00	
 17.009	-11.617	  9.07736	  9.50941	 -1.48468	  2.11859	  4.28265	 -0.39865	 10.85543	710.26001	 27.00	
 16.990	 -5.821	  9.06302	  9.60241	 -1.54712	  2.63238	  3.69917	 -0.40396	 10.84937	710.15997	 27.00	
 17.000	  0.000	  9.04162	  9.63746	 -1.59014	  3.17054	  3.11552	 -0.40561	 10.84616	710.09003	 27.00	
 16.990	  5.821	  9.04179	  9.61182	 -1.57413	  3.73461	  2.56919	 -0.42494	 10.85006	710.12000	 27.00	
 17.009	 11.617	  9.03222	  9.52397	 -1.53707	  4.31049	  2.03209	 -0.43311	 10.85696	710.15002	 27.00	
 17.000	 17.404	  9.02286	  9.36069	 -1.45817	  4.88517	  1.52952	 -0.44606	 10.84635	710.20001	 27.00	
 16.990	 23.241	  9.02346	  9.13672	 -1.34564	  5.45754	  1.06267	 -0.44291	 10.84296	710.14001	 26.90	
 16.995	 29.081	  9.02252	  8.85604	 -1.19826	  6.03235	  0.62434	 -0.43873	 10.84891	710.28998	 27.00	
 16.988	 34.839	  9.02557	  8.51252	 -1.01489	  6.57589	  0.22951	 -0.44719	 10.84957	710.00000	 26.90	
 17.014	 40.657	  9.02767	  8.12547	 -0.78614	  7.09726	 -0.11605	 -0.45953	 10.85030	710.15002	 26.90	
 17.007	 46.454	  9.03446	  7.68024	 -0.51336	  7.58662	 -0.42308	 -0.47338	 10.85146	710.01001	 26.90	
 17.001	 52.301	  9.04013	  7.18865	 -0.19855	  8.03628	 -0.69661	 -0.50562	 10.84785	710.13000	 26.90	
 17.006	 58.063	  9.04229	  6.67619	  0.14373	  8.43443	 -0.93087	 -0.53729	 10.84750	710.15997	 26.90	
 17.002	 63.866	  9.05397	  6.12701	  0.54637	  8.77915	 -1.11566	 -0.55801	 10.84775	710.10999	 26.90	
 17.001	 69.690	  9.07547	  5.56785	  0.98602	  9.07601	 -1.26354	 -0.56808	 10.85644	710.09998	 26.90	
 16.988	 75.483	  9.09409	  4.99830	  1.46320	  9.30263	 -1.36885	 -0.56859	 10.85729	710.20001	 26.90	
 17.012	 81.253	  9.09863	  4.42055	  1.95601	  9.46513	 -1.45495	 -0.56546	 10.85218	710.06000	 26.90	
 16.996	 87.091	  9.11723	  3.84347	  2.49721	  9.56014	 -1.49418	 -0.55961	 10.85166	710.20001	 26.90	
 16.996	 92.909	  9.13234	  3.28674	  3.05339	  9.58957	 -1.49671	 -0.56402	 10.84991	710.09998	 26.90	
 17.008	 98.662	  9.14471	  2.74471	  3.62621	  9.55410	 -1.47643	 -0.57854	 10.85055	710.09998	 26.90	
 16.988	104.517	  9.17335	  2.22795	  4.21934	  9.45043	 -1.39854	 -0.58422	 10.85619	710.03998	 26.90	
 17.001	110.310	  9.18704	  1.73558	  4.80208	  9.28760	 -1.30115	 -0.58744	 10.85233	710.00000	 26.90	
 17.002	116.134	  9.20257	  1.27854	  5.38415	  9.05419	 -1.15902	 -0.57700	 10.84915	710.15997	 26.90	
 17.006	121.937	  9.22635	  0.86352	  5.95662	  8.76460	 -0.98069	 -0.56365	 10.85184	710.12000	 26.90	
 17.001	127.699	  9.24524	  0.48911	  6.49466	  8.40874	 -0.75405	 -0.55541	 10.83959	710.12000	 26.90	
 17.007	133.546	  9.27847	  0.15484	  7.02216	  8.00718	 -0.48021	 -0.54889	 10.85340	710.12000	 26.90	
 17.014	139.343	  9.29439	 -0.14645	  7.50319	  7.54940	 -0.17275	 -0.55115	 10.85101	710.20001	 26.90	
 16.988	145.161	  9.31356	 -0.39871	  7.93249	  7.06378	  0.17190	 -0.55951	 10.84970	710.12000	 26.90	
 16.995	150.919	  9.34073	 -0.60609	  8.31588	  6.54495	  0.54876	 -0.55335	 10.85411	710.14001	 26.90	
 16.990	156.759	  9.36464	 -0.77408	  8.64683	  5.98932	  0.98913	 -0.53577	 10.85063	710.15997	 26.90	
 17.000	162.596	  9.38025	 -0.91183	  8.91122	  5.42538	  1.44489	 -0.50565	 10.85196	710.16998	 26.90	
 17.009	168.383	  9.39617	 -1.00589	  9.10862	  4.85022	  1.93854	 -0.47599	 10.85022	710.15997	 26.90	
 16.990	174.179	  9.41382	 -1.06302	  9.23334	  4.27336	  2.46944	 -0.44724	 10.84797	710.07001	 26.90	
 18.709	174.675	  9.06180	 -1.62232	  9.56959	  4.00792	  2.19687	 -0.46987	 10.85251	710.22998	 26.90	
 18.703	169.441	  9.04866	 -1.57274	  9.45328	  4.57651	  1.67949	 -0.50522	 10.85121	710.20001	 26.90	
 18.691	164.085	  9.03280	 -1.48948	  9.26396	  5.15664	  1.18386	 -0.53541	 10.85063	710.22998	 26.90	
 18.706	158.818	  9.00719	 -1.37821	  9.02023	  5.71266	  0.72935	 -0.56947	 10.84552	710.25000	 26.90	
 18.695	153.537	  8.99302	 -1.22745	  8.71682	  6.27525	  0.30232	 -0.59983	 10.84945	710.19000	 26.90	
 18.704	148.255	  8.97077	 -1.04669	  8.36322	  6.81403	 -0.09473	 -0.61918	 10.85337	710.20001	 26.90	
 18.698	142.952	  8.94950	 -0.82355	  7.95683	  7.31813	 -0.43526	 -0.63238	 10.84703	710.21002	 26.90	
 18.699	137.625	  8.92311	 -0.57277	  7.50293	  7.80265	 -0.75448	 -0.63917	 10.84587	710.21002	 26.90	
 18.705	132.343	  8.90481	 -0.28164	  7.01454	  8.25194	 -1.04739	 -0.64956	 10.85440	710.15997	 26.80	
 18.713	127.067	  8.87847	  0.04444	  6.48805	  8.64604	 -1.29722	 -0.66178	 10.85301	710.27002	 26.80	
 18.700	121.794	  8.85904	  0.41208	  5.94329	  8.98493	 -1.49596	 -0.67018	 10.84679	710.16998	 26.80	
 18.698	116.504	  8.83616	  0.80993	  5.37528	  9.28244	 -1.67629	 -0.68381	 10.85181	710.26001	 26.80	
 18.707	111.165	  8.81457	  1.25349	  4.78459	  9.52472	 -1.81987	 -0.69945	 10.85181	710.16998	 26.80	
 18.690	105.863	  8.79233	  1.72494	  4.19871	  9.69880	 -1.92292	 -0.70420	 10.84879	710.20001	 26.80	
 18.696	100.583	  8.77865	  2.21987	  3.62295	  9.82251	 -1.99666	 -0.70017	 10.85386	710.17999	 26.80	
 18.700	 95.309	  8.75951	  2.74575	  3.04619	  9.88380	 -2.03873	 -0.69339	 10.85225	710.21002	 26.80	
 18.700	 90.000	  8.73687	  3.28785	  2.48816	  9.88216	 -2.05107	 -0.69107	 10.84841	710.06000	 26.80	
 18.700	 84.691	  8.71929	  3.84624	  1.94626	  9.81936	 -2.02609	 -0.68873	 10.84272	710.10999	 26.80	
 18.696	 79.417	  8.70094	  4.41958	  1.43263	  9.69812	 -1.97063	 -0.69002	 10.83973	710.17999	 26.80	
 18.690	 74.137	  8.69457	  4.99105	  0.94997	  9.51624	 -1.89102	 -0.69159	 10.85076	710.20001	 26.80	
 18.707	 68.835	  8.68349	  5.55992	  0.50256	  9.28242	 -1.77620	 -0.68685	 10.84993	710.15002	 26.80	
 18.698	 63.496	  8.67627	  6.12933	  0.08420	  8.98475	 -1.62119	 -0.67561	 10.85188	710.12000	 26.80	
 18.700	 58.206	  8.65903	  6.66853	 -0.29785	  8.63278	 -1.44581	 -0.66063	 10.84897	710.21002	 26.80	
 18.713	 52.933	  8.64841	  7.18378	 -0.63754	  8.24817	 -1.24625	 -0.63770	 10.85264	710.13000	 26.80	
 18.705	 47.657	  8.64267	  7.67511	 -0.94720	  7.80314	 -0.99312	 -0.60477	 10.84701	710.09003	 26.80	
 18.699	 42.375	  8.63983	  8.13386	 -1.21513	  7.32055	 -0.70467	 -0.59357	 10.84677	710.27002	 26.80	
 18.698	 37.048	  8.64017	  8.55062	 -1.44296	  6.80393	 -0.37134	 -0.57443	 10.84982	710.10999	 26.80	
 18.704	 31.745	  8.63476	  8.90851	 -1.64161	  6.27483	 -0.02334	 -0.56445	 10.85118	710.15002	 26.80	
 18.695	 26.463	  8.64085	  9.22682	 -1.79916	  5.72175	  0.38006	 -0.55647	 10.86075	710.01001	 26.80	
 18.706	 21.182	  8.63362	  9.48563	 -1.92839	  5.14263	  0.81512	 -0.54624	 10.84987	710.10999	 26.80	
 18.691	 15.915	  8.63905	  9.69175	 -2.02660	  4.57577	  1.28072	 -0.53563	 10.85821	710.09998	 26.80	
 18.703	 10.559	  8.63416	  9.83149	 -2.09509	  3.98741	  1.78404	 -0.52215	 10.85276	709.98999	 26.80	
 18.709	  5.325	  8.64355	  9.91576	 -2.12996	  3.42357	  2.30609	 -0.49654	 10.85195	710.03998	 26.80	
 18.700	  0.000	  8.65260	  9.93820	 -2.13539	  2.87641	  2.84276	 -0.47498	 10.84802	710.07001	 26.80	
 18.709	 -5.325	  8.66397	  9.90482	 -2.10946	  2.33879	  3.41721	 -0.45598	 10.84800	710.14001	 26.80	
 18.703	-10.559	  8.68124	  9.81818	 -2.04948	  1.83462	  3.99810	 -0.44531	 10.85510	710.08002	 26.80	
 18.691	-15.915	  8.70272	  9.66481	 -1.95265	  1.36319	  4.58179	 -0.42851	 10.85759	710.12000	 26.80	
 18.706	-21.182	  8.71215	  9.44797	 -1.83200	  0.91246	  5.16251	 -0.41646	 10.85300	710.08002	 26.80	
 18.695	-26.463	  8.72999	  9.17159	 -1.67800	  0.49851	  5.73226	 -0.39396	 10.84587	710.03998	 26.80	
 18.704	-31.745	  8.75101	  8.84878	 -1.52261	  0.12707	  6.27822	 -0.37679	 10.84790	710.04999	 26.80	
 18.698	-37.048	  8.77519	  8.47833	 -1.30480	 -0.22149	  6.82003	 -0.35311	 10.85213	710.03998	 26.80	
 18.699	-42.375	  8.79656	  8.05112	 -1.04527	 -0.53719	  7.33277	 -0.33800	 10.85208	710.01001	 26.80	
 18.705	-47.657	  8.82669	  7.58852	 -0.74566	 -0.80884	  7.80877	 -0.31791	 10.85846	709.96997	 26.80	
 18.713	-52.933	  8.84874	  7.09536	 -0.40205	 -1.03424	  8.22921	 -0.30125	 10.85179	710.00000	 26.80	
 18.700	-58.206	  8.87450	  6.57043	 -0.01225	 -1.23090	  8.61047	 -0.28756	 10.85168	710.06000	 26.70	
 18.698	-63.496	  8.89469	  6.02181	  0.42754	 -1.38378	  8.93240	 -0.27621	 10.84758	710.02002	 26.70	
 18.707	-68.835	  8.91940	  5.45589	  0.88574	 -1.51719	  9.21344	 -0.26773	 10.85542	709.97998	 26.70	
 18.690	-74.137	  8.93816	  4.88945	  1.37248	 -1.60253	  9.41279	 -0.25846	 10.84062	710.06000	 26.70	
 18.696	-79.417	  8.96031	  4.32437	  1.88475	 -1.66820	  9.57044	 -0.25519	 10.85277	709.96002	 26.70	
 18.700	-84.691	  8.98049	  3.75658	  2.42849	 -1.70080	  9.65828	 -0.24607	 10.85030	709.92999	 26.70	
 18.700	-90.000	  8.99990	  3.20570	  2.98782	 -1.70057	  9.67761	 -0.24952	 10.84855	710.01001	 26.70	
 18.700	-95.309	  9.01635	  2.67007	  3.56175	 -1.67012	  9.64199	 -0.24368	 10.85535	709.96997	 26.70	
 18.696	-100.583	  9.03504	  2.15842	  4.14993	 -1.61046	  9.54600	 -0.24528	 10.85105	710.01001	 26.70	
 18.690	-105.863	  9.04787	  1.67476	  4.73017	 -1.51211	  9.38439	 -0.24204	 10.85124	709.91998	 26.70	
 18.707	-111.165	  9.05758	  1.21374	  5.30986	 -1.39043	  9.16519	 -0.24775	 10.84870	709.95001	 26.70	
 18.698	-116.504	  9.07184	  0.78483	  5.89321	 -1.22229	  8.87780	 -0.24460	 10.84446	710.06000	 26.70	
 18.700	-121.794	  9.08236	  0.38912	  6.43944	 -1.02653	  8.54024	 -0.25343	 10.85053	709.96002	 26.70	
 18.713	-127.067	  9.08976	  0.03081	  6.96408	 -0.79457	  8.15167	 -0.26105	 10.84945	710.01001	 26.70	
 18.705	-132.343	  9.10196	 -0.29385	  7.45826	 -0.52021	  7.71745	 -0.26973	 10.84919	709.96997	 26.70	
 18.699	-137.625	  9.10383	 -0.58425	  7.91413	 -0.21135	  7.23944	 -0.28369	 10.84705	709.91998	 26.70	
 18.698	-142.952	  9.11188	 -0.83460	  8.32663	  0.13794	  6.72540	 -0.29303	 10.84735	709.88000	 26.70	
 18.704	-148.255	  9.11027	 -1.05265	  8.69037	  0.52748	  6.18070	 -0.31466	 10.84724	709.82001	 26.70	
 18.695	-153.537	  9.11225	 -1.23207	  8.99381	  0.93622	  5.62769	 -0.33346	 10.85067	709.96002	 26.70	
 18.706	-158.818	  9.10798	 -1.38325	  9.24973	  1.38551	  5.04181	 -0.35004	 10.84998	709.90997	 26.70	
 18.691	-164.085	  9.10674	 -1.48892	  9.43224	  1.87147	  4.45554	 -0.37560	 10.84778	709.98999	 26.70	
 18.703	-169.441	  9.09449	 -1.57508	  9.56052	  2.36914	  3.87422	 -0.39271	 10.84889	709.95001	 26.70	
 18.709	-174.675	  9.08528	 -1.62317	  9.62407	  2.89645	  3.30011	 -0.41510	 10.84965	709.95001	 26.70	
 18.700	180.000	  9.07300	 -1.63642	  9.62434	  3.45103	  2.73138	 -0.44233	 10.84844	709.98999	 26.70	
 20.400	180.000	  8.69219	 -2.18103	  9.91929	  3.17463	  2.43573	 -0.44271	 10.85104	709.97998	 26.70	
 20.401	-175.153	  8.70102	 -2.16840	  9.91788	  2.63068	  2.99326	 -0.40809	 10.84571	709.96997	 26.70	
 20.407	-170.264	  8.71673	 -2.12816	  9.86899	  2.10550	  3.57342	 -0.37859	 10.85477	709.96997	 26.70	
 20.410	-165.423	  8.72044	 -2.06251	  9.75876	  1.61343	  4.14317	 -0.35304	 10.85395	709.96997	 26.70	
 20.392	-160.496	  8.72768	 -1.95521	  9.58061	  1.13158	  4.74045	 -0.33761	 10.85221	710.06000	 26.70	
 20.401	-155.705	  8.72920	 -1.83708	  9.35679	  0.68737	  5.31173	 -0.31743	 10.84979	710.04999	 26.70	
 20.405	-150.835	  8.73494	 -1.67527	  9.07844	  0.27768	  5.87702	 -0.30261	 10.85420	710.02002	 26.70	
 20.397	-145.903	  8.73396	 -1.47871	  8.73463	 -0.11824	  6.43913	 -0.28263	 10.85319	710.03998	 26.70	
 20.392	-141.062	  8.73704	 -1.26500	  8.35788	 -0.47412	  6.96788	 -0.27839	 10.85308	709.96002	 26.70	
 20.396	-136.227	  8.73217	 -1.01234	  7.93561	 -0.78714	  7.46331	 -0.26558	 10.85263	710.04999	 26.70	
 20.408	-131.372	  8.72028	 -0.73589	  7.47574	 -1.08128	  7.92711	 -0.25383	 10.85208	710.03003	 26.70	
 20.410	-126.511	  8.71167	 -0.42019	  6.97273	 -1.33651	  8.36274	 -0.24615	 10.85659	710.01001	 26.70	
 20.400	-121.604	  8.69617	 -0.06527	  6.43612	 -1.55440	  8.74278	 -0.24034	 10.84844	710.10999	 26.70	
 20.403	-116.741	  8.68640	  0.31325	  5.88605	 -1.75385	  9.08713	 -0.23251	 10.85313	710.04999	 26.70	
 20.413	-111.900	  8.67997	  0.72328	  5.32659	 -1.90824	  9.37881	 -0.23015	 10.86163	710.13000	 26.70	
 20.398	-107.004	  8.67247	  1.17547	  4.74034	 -2.02227	  9.60439	 -0.22829	 10.85398	710.09003	 26.70	
 20.394	-102.132	  8.65569	  1.63997	  4.16163	 -2.11110	  9.77144	 -0.23306	 10.84833	710.01001	 26.70	
 20.403	-97.332	  8.63834	  2.12315	  3.58906	 -2.18214	  9.89030	 -0.23739	 10.85426	710.07001	 26.70	
 20.392	-92.440	  8.62590	  2.64730	  3.01048	 -2.21651	  9.95412	 -0.23488	 10.85184	709.92999	 26.70	
 20.392	-87.560	  8.60575	  3.18128	  2.45414	 -2.23511	  9.95687	 -0.23643	 10.85473	709.90002	 26.60	
 20.403	-82.668	  8.58275	  3.73183	  1.90282	 -2.22625	  9.91036	 -0.23686	 10.85670	709.90002	 26.70	
 20.394	-77.868	  8.56153	  4.28334	  1.38431	 -2.18353	  9.80175	 -0.23739	 10.84827	709.97998	 26.60	
 20.398	-72.996	  8.54062	  4.84553	  0.89426	 -2.12072	  9.64246	 -0.24475	 10.85284	710.03998	 26.70	
 20.413	-68.100	  8.51769	  5.41466	  0.41671	 -2.03533	  9.42477	 -0.25574	 10.85166	710.03998	 26.60	
 20.403	-63.259	  8.48674	  5.96539	 -0.01973	 -1.91680	  9.14822	 -0.25948	 10.84826	709.89001	 26.60	
 20.400	-58.396	  8.47166	  6.50936	 -0.41190	 -1.76284	  8.82307	 -0.28105	 10.85455	709.96002	 26.60	
 20.410	-53.489	  8.44983	  7.04402	 -0.78632	 -1.57577	  8.45163	 -0.29146	 10.85479	709.96002	 26.60	
 20.408	-48.628	  8.42659	  7.54378	 -1.11494	 -1.34914	  8.02008	 -0.30902	 10.85430	709.79999	 26.60	
 20.396	-43.773	  8.39798	  8.00926	 -1.40791	 -1.10469	  7.56073	 -0.31720	 10.85014	709.95001	 26.60	
 20.392	-38.938	  8.38239	  8.44456	 -1.66682	 -0.83246	  7.07859	 -0.33732	 10.85693	709.95001	 26.60	
 20.397	-34.097	  8.35398	  8.83738	 -1.89069	 -0.51319	  6.54737	 -0.35519	 10.84931	709.82001	 26.60	
 20.405	-29.165	  8.32679	  9.19250	 -2.09352	 -0.16109	  5.98831	 -0.37472	 10.84830	709.91998	 26.60	
 20.401	-24.295	  8.30491	  9.49567	 -2.25898	  0.21038	  5.42983	 -0.39980	 10.85443	709.96002	 26.60	
 20.392	-19.504	  8.29118	  9.74032	 -2.38774	  0.62531	  4.86182	 -0.41563	 10.85237	709.88000	 26.60	
 20.410	-14.577	  8.27229	  9.94293	 -2.49917	  1.06957	  4.26923	 -0.43485	 10.84980	709.89001	 26.60	
 20.407	 -9.736	  8.25907	 10.08256	 -2.58165	  1.53479	  3.70744	 -0.46337	 10.85871	709.96997	 26.60	
 20.401	 -4.847	  8.25398	 10.17122	 -2.63046	  2.04090	  3.12899	 -0.48471	 10.86069	709.96002	 26.60	
 20.400	  0.000	  8.24003	 10.19773	 -2.65266	  2.57184	  2.57055	 -0.51259	 10.85895	709.94000	 26.60	
 20.401	  4.847	  8.22245	 10.16764	 -2.64747	  3.09603	  2.03870	 -0.53532	 10.84936	709.87000	 26.60	
 20.407	  9.736	  8.21137	 10.09412	 -2.62558	  3.66161	  1.51404	 -0.56374	 10.85037	709.84998	 26.60	
 20.410	 14.577	  8.20603	  9.96736	 -2.57526	  4.22818	  1.01621	 -0.58927	 10.85330	709.85999	 26.60	
 20.392	 19.504	  8.21426	  9.78712	 -2.48663	  4.80422	  0.56168	 -0.61041	 10.85489	709.92999	 26.60	
 20.401	 24.295	  8.20757	  9.55109	 -2.38723	  5.36516	  0.12115	 -0.63703	 10.85926	709.89001	 26.60	
 20.405	 29.165	  8.20761	  9.26174	 -2.24828	  5.92892	 -0.27576	 -0.65540	 10.85234	709.87000	 26.60	
 20.397	 34.097	  8.21877	  8.91776	 -2.06657	  6.48606	 -0.63500	 -0.67751	 10.85177	709.90997	 26.60	
 20.392	 38.938	  8.22106	  8.53510	 -1.87430	  7.01077	 -0.97307	 -0.69766	 10.85681	709.94000	 26.60	
 20.396	 43.773	  8.22008	  8.11098	 -1.64471	  7.51271	 -1.27867	 -0.70961	 10.85481	709.90002	 26.60	
 20.408	 48.628	  8.21686	  7.64417	 -1.38897	  7.97417	 -1.54488	 -0.72030	 10.85172	710.00000	 26.60	
 20.410	 53.489	  8.23257	  7.15564	 -1.08802	  8.41233	 -1.77326	 -0.74728	 10.85191	710.01001	 26.60	
 20.400	 58.396	  8.23270	  6.62338	 -0.75513	  8.80089	 -1.97555	 -0.76527	 10.84386	709.96997	 26.60	
 20.403	 63.259	  8.24835	  6.08637	 -0.39077	  9.15852	 -2.14876	 -0.78108	 10.85438	709.96997	 26.60	
 20.413	 68.100	  8.25543	  5.52969	  0.00474	  9.46179	 -2.29559	 -0.78644	 10.85383	709.84998	 26.60	
 20.398	 72.996	  8.27229	  4.96434	  0.44509	  9.70911	 -2.40371	 -0.79302	 10.85528	709.79999	 26.60	
 20.394	 77.868	  8.28100	  4.39415	  0.90649	  9.89471	 -2.48925	 -0.79681	 10.85006	709.84998	 26.60	
 20.403	 82.668	  8.29451	  3.83198	  1.39007	 10.03551	 -2.54704	 -0.79974	 10.84973	709.96997	 26.60	
 20.392	 87.560	  8.31623	  3.27473	  1.91505	 10.11933	 -2.56829	 -0.79851	 10.84906	709.96002	 26.60	
 20.392	 92.440	  8.33110	  2.72591	  2.45586	 10.14763	 -2.57745	 -0.79961	 10.85006	709.95001	 26.60	
 20.403	 97.332	  8.34847	  2.18948	  3.01692	 10.12732	 -2.56628	 -0.80500	 10.85401	709.84998	 26.60	
 20.394	102.132	  8.37284	  1.69512	  3.58445	 10.05604	 -2.51606	 -0.80215	 10.86154	709.95001	 26.60	
 20.398	107.004	  8.39079	  1.21333	  4.16319	  9.92116	 -2.44076	 -0.79437	 10.85604	710.00000	 26.60	
 20.413	111.900	  8.40417	  0.75258	  4.74759	  9.73031	 -2.34149	 -0.79379	 10.85381	709.96002	 26.60	
 20.403	116.741	  8.43431	  0.33721	  5.33624	  9.49301	 -2.19878	 -0.77472	 10.86218	709.96997	 26.60	
 20.400	121.604	  8.45583	 -0.04346	  5.89191	  9.19125	 -2.02252	 -0.75954	 10.85042	709.96002	 26.60	
 20.410	126.511	  8.48344	 -0.40578	  6.45457	  8.84940	 -1.82126	 -0.74329	 10.85831	709.90002	 26.60	
 20.408	131.372	  8.49732	 -0.72737	  6.97857	  8.45386	 -1.59481	 -0.73185	 10.84906	709.98999	 26.60	
 20.396	136.227	  8.52547	 -1.00799	  7.47375	  8.03083	 -1.33197	 -0.71012	 10.85924	709.96997	 26.60	
 20.392	141.062	  8.55006	 -1.26325	  7.93788	  7.56057	 -1.03816	 -0.69481	 10.85781	709.96002	 26.60	
 20.397	145.903	  8.57253	 -1.47597	  8.36077	  7.06165	 -0.71015	 -0.66865	 10.85641	709.92999	 26.60	
 20.405	150.835	  8.58703	 -1.67814	  8.74648	  6.53196	 -0.35238	 -0.63977	 10.85518	709.94000	 26.60	
 20.401	155.705	  8.61113	 -1.83401	  9.08114	  5.98510	  0.03935	 -0.60673	 10.85957	709.97998	 26.60	
 20.392	160.496	  8.62907	 -1.95483	  9.35152	  5.42656	  0.46702	 -0.57667	 10.85063	709.91998	 26.60	
 20.410	165.423	  8.64441	 -2.06415	  9.58879	  4.85803	  0.91099	 -0.53709	 10.85906	709.90002	 26.60	
 20.407	170.264	  8.66610	 -2.12353	  9.75503	  4.29741	  1.39831	 -0.51182	 10.85574	709.96997	 26.60	
 20.401	175.153	  8.68550	 -2.16663	  9.86755	  3.72266	  1.91591	 -0.46710	 10.85278	709.94000	 26.60	
  0.141	 45.000	 10.85978	  5.02798	  4.40295	  4.95729	  4.47474	  0.26726	 10.85760	710.01001	 26.60	
  4.001	128.691	 10.82755	  4.12337	  5.15282	  5.92376	  3.43060	  0.19376	 10.86224	710.03998	 26.60	
  4.002	 76.995	 10.80088	  5.18420	  3.99645	  6.13327	  3.17888	  0.23148	 10.85742	709.96997	 26.60	
  4.002	 25.892	 10.79433	  6.12685	  3.17021	  5.32603	  3.85843	  0.24694	 10.86016	710.04999	 26.50	
  4.002	-25.892	 10.80731	  6.12309	  3.23088	  4.21582	  5.00589	  0.22055	 10.85498	709.91998	 26.50	
  4.002	-76.995	 10.83085	  5.19110	  4.11471	  3.61060	  5.77933	  0.19017	 10.85872	709.90002	 26.50	
  4.001	-128.691	 10.84128	  4.12118	  5.24759	  3.89845	  5.47767	  0.16390	 10.85775	709.98999	 26.50	
  4.000	180.000	 10.83873	  3.67250	  5.73446	  4.89317	  4.41118	  0.16521	 10.85664	710.03003	 26.50	
  8.000	180.000	 10.65684	  2.16523	  6.99795	  4.69289	  4.12410	 -0.04581	 10.85416	709.95001	 26.50	
  7.991	-152.370	 10.67490	  2.43356	  6.70441	  3.46875	  5.44121	 -0.05632	 10.85920	709.92999	 26.50	
  7.997	-124.550	 10.66165	  3.18717	  5.79247	  2.56695	  6.50730	 -0.06478	 10.85485	709.98999	 26.50	
  8.006	-96.837	 10.63570	  4.31379	  4.51342	  2.11539	  7.04843	 -0.05262	 10.85134	710.03998	 26.50	
  7.988	-69.228	 10.60417	  5.59606	  3.25207	  2.21196	  6.86875	 -0.03128	 10.84785	709.88000	 26.50	
  7.997	-41.563	 10.56623	  6.73402	  2.24769	  2.80125	  6.06052	  0.02391	 10.85246	709.90997	 26.50	
  8.008	-13.821	 10.52659	  7.40893	  1.67702	  3.81473	  4.83471	  0.07040	 10.85834	709.91998	 26.50	
  8.008	 13.821	 10.49674	  7.41412	  1.62979	  5.07792	  3.53640	  0.09940	 10.85107	710.03003	 26.50	
  7.997	 41.563	 10.49664	  6.75674	  2.10376	  6.31951	  2.46135	  0.11178	 10.85712	709.90002	 26.50	
  7.988	 69.228	 10.51546	  5.62776	  3.03603	  7.16897	  1.82224	  0.07348	 10.85728	709.92999	 26.50	
  8.006	 96.837	 10.53499	  4.32941	  4.28395	  7.41231	  1.67144	  0.03987	 10.84740	710.01001	 26.50	
  7.997	124.550	 10.58290	  3.18877	  5.58676	  6.96411	  2.05643	  0.01073	 10.85573	710.03998	 26.50	
  7.991	152.370	 10.62272	  2.42079	  6.58615	  5.95935	  2.92249	 -0.03201	 10.84911	710.03003	 26.50	
 12.009	161.059	 10.20979	  0.82146	  7.82172	  5.68836	  2.45975	 -0.27561	 10.85527	710.01001	 26.50	
 12.013	142.081	 10.16529	  1.33029	  7.02885	  6.92305	  1.41294	 -0.25808	 10.85904	709.92999	 26.50	
 12.006	123.113	 10.11418	  2.17858	  5.87261	  7.88010	  0.67148	 -0.23797	 10.85372	709.96997	 26.50	
 12.007	104.200	 10.06414	  3.28922	  4.53791	  8.40907	  0.27726	 -0.22641	 10.85066	710.07001	 26.50	
 11.989	 85.301	 10.03264	  4.59104	  3.18802	  8.46346	  0.20894	 -0.18910	 10.85781	710.03998	 26.50	
 12.013	 66.294	  9.99862	  5.93209	  1.97741	  8.02881	  0.46503	 -0.18848	 10.85640	709.96997	 26.50	
 12.012	 47.388	  9.97850	  7.13696	  1.03937	  7.15971	  1.04798	 -0.13528	 10.85721	710.03003	 26.50	
 11.990	 28.440	  9.97650	  8.03676	  0.43017	  5.96382	  1.95595	 -0.10958	 10.85345	709.96002	 26.50	
 11.991	  9.464	  9.98728	  8.51142	  0.13705	  4.62448	  3.13656	 -0.12701	 10.85310	709.91998	 26.50	
 11.991	 -9.464	 10.00793	  8.50437	  0.16867	  3.32687	  4.46820	 -0.15164	 10.85258	709.96002	 26.50	
 11.990	-28.440	 10.04664	  8.00692	  0.55187	  2.20519	  5.81308	 -0.20437	 10.84929	709.90997	 26.50	
 12.012	-47.388	 10.09819	  7.09233	  1.25227	  1.34064	  6.99380	 -0.23079	 10.85442	709.84003	 26.50	
 12.013	-66.294	 10.14689	  5.88315	  2.26020	  0.80899	  7.81178	 -0.24975	 10.84926	709.85999	 26.50	
 11.989	-85.301	 10.19704	  4.54480	  3.52466	  0.60527	  8.18166	 -0.25145	 10.85193	709.92999	 26.50	
 12.007	-104.200	 10.22211	  3.25899	  4.88087	  0.72337	  8.03704	 -0.25918	 10.84600	709.84003	 26.50	
 12.006	-123.113	 10.25435	  2.16785	  6.18947	  1.19273	  7.41247	 -0.26736	 10.85385	709.91998	 26.50	
 12.013	-142.081	 10.27009	  1.33665	  7.26760	  1.98293	  6.38500	 -0.25980	 10.85815	709.78003	 26.50	
 12.009	-161.059	 10.26259	  0.83195	  7.94457	  3.06684	  5.09070	 -0.27155	 10.84925	709.95001	 26.50	
 16.000	180.000	  9.62249	 -0.74406	  9.09716	  3.85896	  3.17342	 -0.41402	 10.86062	709.84003	 26.50	
 15.990	-165.604	  9.64228	 -0.63229	  8.96033	  2.58297	  4.53176	 -0.38706	 10.85139	709.89001	 26.50	
 16.002	-151.165	  9.64501	 -0.29968	  8.44062	  1.44895	  5.89111	 -0.34098	 10.85056	709.89001	 26.50	
 16.002	-136.836	  9.64557	  0.27798	  7.56801	  0.53945	  7.12148	 -0.30745	 10.85625	709.96997	 26.40	
 15.995	-122.439	  9.62312	  1.08515	  6.41659	 -0.15536	  8.13842	 -0.28459	 10.85407	710.02002	 26.50	
 15.993	-107.966	  9.60429	  2.12823	  5.09265	 -0.57923	  8.82170	 -0.27814	 10.85456	709.91998	 26.40	
 16.005	-93.629	  9.56169	  3.32614	  3.71346	 -0.79262	  9.12901	 -0.26925	 10.85233	709.88000	 26.40	
 15.992	-79.234	  9.52092	  4.64080	  2.39183	 -0.77494	  9.04075	 -0.28721	 10.84581	709.96997	 26.50	
 16.009	-64.774	  9.47370	  5.97647	  1.20868	 -0.54442	  8.57544	 -0.31155	 10.85221	709.90002	 26.40	
 15.997	-50.364	  9.42250	  7.22734	  0.23834	 -0.07649	  7.73798	 -0.32854	 10.85445	709.77002	 26.40	
 15.997	-36.045	  9.36706	  8.26902	 -0.47834	  0.63299	  6.61859	 -0.36075	 10.85351	709.90997	 26.40	
 16.000	-21.597	  9.31496	  9.02043	 -0.95863	  1.57739	  5.31238	 -0.37747	 10.85328	709.79999	 26.40	
 16.003	 -7.169	  9.27662	  9.40560	 -1.20939	  2.71657	  3.93742	 -0.36294	 10.85213	709.85999	 26.40	
 16.003	  7.169	  9.25837	  9.42089	 -1.24334	  4.00187	  2.62291	 -0.37187	 10.86109	709.78003	 26.40	
 16.000	 21.597	  9.24083	  9.04519	 -1.06049	  5.35365	  1.43111	 -0.37848	 10.85207	709.84998	 26.40	
 15.997	 36.045	  9.23871	  8.31738	 -0.65864	  6.67058	  0.43009	 -0.37465	 10.85344	709.90002	 26.40	
 15.997	 50.364	  9.25110	  7.30100	 -0.01692	  7.80011	 -0.30880	 -0.41962	 10.85216	709.88000	 26.40	
 16.009	 64.774	  9.26732	  6.05748	  0.87006	  8.68966	 -0.83010	 -0.48384	 10.85480	709.89001	 26.40	
 15.992	 79.234	  9.30331	  4.71681	  1.98784	  9.23238	 -1.10808	 -0.49233	 10.85607	709.84998	 26.40	
 16.005	 93.629	  9.34034	  3.38497	  3.26588	  9.40294	 -1.17506	 -0.49343	 10.85363	709.89001	 26.40	
 15.993	107.966	  9.37972	  2.16037	  4.62811	  9.18510	 -1.03618	 -0.51985	 10.85322	709.92999	 26.40	
 15.995	122.439	  9.43281	  1.10248	  5.99210	  8.59777	 -0.64982	 -0.49745	 10.85527	709.96002	 26.40	
 16.002	136.836	  9.48266	  0.28317	  7.20991	  7.66969	 -0.02006	 -0.49272	 10.84898	709.88000	 26.40	
 16.002	151.165	  9.53180	 -0.29294	  8.18267	  6.50718	  0.83537	 -0.50608	 10.84929	709.87000	 26.40	
 15.990	165.604	  9.58338	 -0.62878	  8.82795	  5.20035	  1.91746	 -0.45314	 10.85208	709.83002	 26.40	
 20.003	168.362	  8.75130	 -1.97643	  9.63014	  4.56350	  1.28752	 -0.52723	 10.85134	709.94000	 26.40	
 20.008	156.764	  8.70695	 -1.73431	  9.09143	  5.88121	  0.23447	 -0.60356	 10.85129	709.91998	 26.40	
 20.000	145.147	  8.66536	 -1.32157	  8.26435	  7.13686	 -0.65437	 -0.66315	 10.85865	709.88000	 26.40	
 19.995	133.545	  8.60413	 -0.73638	  7.18308	  8.24127	 -1.36046	 -0.70819	 10.84632	709.97998	 26.40	
 20.009	121.926	  8.55686	  0.04208	  5.94055	  9.12902	 -1.89293	 -0.74109	 10.85420	709.90002	 26.40	
 20.005	110.327	  8.49702	  1.01090	  4.58511	  9.74064	 -2.24715	 -0.76998	 10.84830	709.96997	 26.40	
 19.989	 98.733	  8.45668	  2.13325	  3.23807	 10.05188	 -2.42548	 -0.77583	 10.85569	709.88000	 26.40	
 19.999	 87.075	  8.40876	  3.38953	  1.93401	 10.05552	 -2.45160	 -0.77629	 10.84944	709.84003	 26.40	
 19.992	 75.457	  8.38366	  4.71621	  0.76596	  9.76555	 -2.31952	 -0.77239	 10.85783	709.96002	 26.40	
 20.009	 63.844	  8.35100	  6.03704	 -0.23950	  9.15356	 -2.04092	 -0.76177	 10.85247	710.04999	 26.40	
 19.989	 52.269	  8.33330	  7.27203	 -1.05043	  8.28007	 -1.59093	 -0.71686	 10.84578	709.94000	 26.40	
 19.999	 40.602	  8.32184	  8.37194	 -1.68181	  7.18430	 -0.97078	 -0.67652	 10.85311	709.97998	 26.40	
 20.004	 29.051	  8.31279	  9.22580	 -2.13063	  5.94220	 -0.16568	 -0.64090	 10.85608	709.91998	 26.40	
 20.005	 17.433	  8.30712	  9.81463	 -2.40738	  4.59971	  0.84046	 -0.59536	 10.85158	709.89001	 26.40	
 20.006	  5.780	  8.31991	 10.10051	 -2.52366	  3.27060	  2.00983	 -0.53688	 10.84813	709.90002	 26.40	
 20.006	 -5.780	  8.34945	 10.09610	 -2.50518	  2.02704	  3.29249	 -0.47436	 10.85292	709.96997	 26.40	
 20.005	-17.433	  8.37748	  9.77955	 -2.33212	  0.90521	  4.64046	 -0.43238	 10.85010	709.96002	 26.40	
 20.004	-29.051	  8.42712	  9.16211	 -1.97417	 -0.03701	  5.98476	 -0.38663	 10.85186	709.96002	 26.40	
 19.999	-40.602	  8.48511	  8.28014	 -1.46377	 -0.81450	  7.23212	 -0.33917	 10.85347	709.81000	 26.40	
 19.989	-52.269	  8.55157	  7.17386	 -0.74686	 -1.38411	  8.30772	 -0.30069	 10.85581	709.91998	 26.40	
 20.009	-63.844	  8.59299	  5.92411	  0.13782	 -1.80213	  9.13676	 -0.26584	 10.85020	709.95001	 26.40	
 19.992	-75.457	  8.65033	  4.61247	  1.22287	 -2.03092	  9.66956	 -0.24547	 10.85161	709.89001	 26.40	
 19.999	-87.075	  8.69735	  3.30104	  2.46844	 -2.10571	  9.89130	 -0.23839	 10.85069	709.96002	 26.40	
 19.989	-98.733	  8.74242	  2.06868	  3.80667	 -2.02973	  9.79871	 -0.23811	 10.84814	709.88000	 26.40	
 20.005	-110.327	  8.76569	  0.96639	  5.15709	 -1.81964	  9.39731	 -0.23225	 10.85144	709.94000	 26.40	
 20.009	-121.926	  8.79408	  0.02754	  6.47161	 -1.41820	  8.68236	 -0.23322	 10.85123	709.85999	 26.40	
 19.995	-133.545	  8.82149	 -0.74298	  7.66208	 -0.82541	  7.69744	 -0.25824	 10.85520	709.96997	 26.40	
 20.000	-145.147	  8.83228	 -1.32486	  8.63805	 -0.05811	  6.52535	 -0.29091	 10.85124	709.98999	 26.40	
 20.008	-156.764	  8.82363	 -1.74015	  9.36041	  0.88145	  5.21079	 -0.32570	 10.85653	709.94000	 26.40	
 20.003	-168.362	  8.81170	 -1.97814	  9.76455	  2.00280	  3.84083	 -0.37608	 10.85144	709.95001	 26.40	
 20.000	180.000	  8.79181	 -2.05132	  9.85748	  3.24714	  2.50983	 -0.44087	 10.85277	709.98999	 26.40	
