FileType=PCF
NHL=14
Date=08/25/17	14:02:06
Facility=APL
Serial=16328-6
Customer=NASA
NP=6
Mach=0.200000
Calibration=1:1
CalPts=490
TstPts=95
PortNumbering=AP Standard
Units=Torr C m/s kg/m^3 deg mm 
Theta[deg]	Phi[deg]	P1[Torr]	P2[Torr]	P3[Torr]	P4[Torr]	P5[Torr]	P6[Torr]	Pt[Torr]	Ps[Abs,Torr]	Ts[C]	
  0.000	  0.000	 19.41952	 10.30680	 10.09501	 10.01723	 10.41055	  0.17922	 19.38617	708.48199	 23.00	
  1.691	128.401	 19.46319	  9.75549	 10.71614	 10.69980	  9.68244	  0.16361	 19.43291	708.26398	 23.00	
  1.692	 77.194	 19.46069	 10.54151	  9.88073	 10.90270	  9.53445	  0.17696	 19.43317	708.33099	 23.00	
  1.699	 26.182	 19.43902	 11.09762	  9.19397	 10.38680	  9.98200	  0.17775	 19.41371	708.34003	 23.00	
  1.699	-26.182	 19.44762	 11.07585	  9.19478	  9.58202	 10.83833	  0.16293	 19.41451	708.38501	 23.00	
  1.692	-77.194	 19.43984	 10.45714	  9.86291	  9.11513	 11.35845	  0.15820	 19.42426	708.40302	 23.00	
  1.691	-128.401	 19.45064	  9.68787	 10.70294	  9.30148	 11.17671	  0.16217	 19.43135	708.36401	 23.00	
  1.700	180.000	 19.46361	  9.35314	 11.09651	  9.98392	 10.40931	  0.17381	 19.44228	708.39301	 23.00	
  3.400	180.000	 19.38444	  8.30048	 12.03130	  9.85178	 10.29650	  0.14579	 19.39445	708.28497	 23.00	
  3.388	-152.325	 19.41288	  8.50313	 11.81600	  9.01664	 11.23346	  0.13406	 19.43262	708.42603	 23.00	
  3.397	-124.529	 19.38986	  9.08870	 11.14304	  8.39112	 11.95789	  0.12656	 19.41202	708.28900	 23.00	
  3.399	-96.763	 19.37892	  9.94880	 10.21704	  8.06533	 12.28799	  0.07487	 19.40433	708.29999	 23.00	
  3.394	-69.283	 19.41392	 10.83659	  9.28343	  8.19677	 12.20147	  0.09926	 19.43259	708.28497	 23.00	
  3.400	-41.398	 19.38941	 11.58702	  8.50594	  8.69765	 11.62028	  0.11737	 19.40184	708.28601	 23.00	
  3.401	-14.021	 19.41620	 12.07888	  8.15459	  9.47301	 10.78887	  0.13159	 19.41727	708.21503	 23.00	
  3.401	 14.021	 19.41187	 12.09835	  8.13972	 10.35040	  9.89053	  0.14799	 19.41685	708.38702	 23.00	
  3.400	 41.398	 19.43059	 11.65928	  8.54280	 11.18724	  9.14227	  0.14713	 19.42194	708.28497	 23.00	
  3.394	 69.283	 19.44914	 10.90233	  9.31579	 11.75508	  8.66573	  0.13254	 19.43450	708.22101	 23.00	
  3.399	 96.763	 19.41365	 10.00539	 10.24388	 11.84999	  8.53921	  0.13229	 19.40296	708.22900	 23.00	
  3.397	124.529	 19.45152	  9.16953	 11.15926	 11.51246	  8.87700	  0.13397	 19.43773	708.31097	 23.00	
  3.388	152.325	 19.43196	  8.58510	 11.81518	 10.75692	  9.46283	  0.13932	 19.42458	708.42902	 23.00	
  5.099	161.165	 19.31610	  7.40292	 12.79007	 10.65672	  9.27481	  0.04024	 19.41512	708.31897	 23.00	
  5.109	142.013	 19.31372	  7.79943	 12.31040	 11.57086	  8.45571	  0.06500	 19.39844	708.24597	 23.00	
  5.095	123.033	 19.31418	  8.50046	 11.51736	 12.25863	  7.92399	  0.00881	 19.38660	708.34003	 23.00	
  5.105	104.191	 19.34185	  9.38113	 10.60093	 12.71005	  7.52937	 -0.01035	 19.40725	708.30499	 23.00	
  5.093	 85.207	 19.34678	 10.33483	  9.60419	 12.78371	  7.49564	  0.01835	 19.40675	708.46600	 23.00	
  5.104	 66.290	 19.34450	 11.22973	  8.67094	 12.53793	  7.70926	  0.02182	 19.41116	708.31702	 23.00	
  5.094	 47.331	 19.34964	 12.09175	  7.93301	 11.98150	  8.22855	  0.05124	 19.41776	708.42603	 23.00	
  5.089	 28.397	 19.33017	 12.71899	  7.35967	 11.14306	  8.90749	  0.05355	 19.40759	708.39600	 23.00	
  5.096	  9.576	 19.32812	 13.04319	  7.07635	 10.26032	  9.72184	  0.04818	 19.40912	708.21503	 23.00	
  5.096	 -9.576	 19.33275	 13.02765	  7.08368	  9.33471	 10.68192	  0.02223	 19.42798	708.24103	 23.00	
  5.089	-28.397	 19.30776	 12.65666	  7.37603	  8.45531	 11.59249	 -0.00662	 19.41516	708.27197	 23.00	
  5.094	-47.331	 19.27857	 11.99540	  7.88426	  7.68106	 12.40532	 -0.01935	 19.40706	708.24701	 23.00	
  5.104	-66.290	 19.28968	 11.12252	  8.63983	  7.15487	 13.00245	 -0.04679	 19.42746	708.34998	 23.00	
  5.093	-85.207	 19.26649	 10.25630	  9.54336	  6.93971	 13.23956	 -0.03396	 19.40807	708.34198	 23.00	
  5.105	-104.191	 19.26554	  9.29530	 10.56742	  6.98753	 13.16643	 -0.02395	 19.41973	708.34698	 23.00	
  5.095	-123.033	 19.25912	  8.45159	 11.50589	  7.35605	 12.73250	  0.00697	 19.40443	708.32501	 23.00	
  5.109	-142.013	 19.27777	  7.75178	 12.29388	  7.96213	 12.02527	  0.03517	 19.41945	708.31299	 23.00	
  5.099	-161.165	 19.28716	  7.34036	 12.77495	  8.79349	 11.12284	  0.05907	 19.41508	708.22998	 23.00	
  5.100	180.000	 19.29132	  7.21508	 12.94846	  9.71903	 10.16818	  0.05876	 19.40780	708.21802	 23.00	
  6.800	180.000	 19.11858	  6.08698	 13.85556	  9.50217	  9.98558	 -0.03752	 19.41270	708.18201	 23.00	
  6.796	-166.229	 19.08997	  6.13844	 13.71953	  8.58198	 10.88456	 -0.01953	 19.39796	708.41302	 23.00	
  6.808	-152.311	 19.07355	  6.40731	 13.35174	  7.68554	 11.82342	 -0.04209	 19.39470	708.12799	 23.00	
  6.795	-138.383	 19.11638	  6.88290	 12.78026	  6.90791	 12.70733	 -0.07782	 19.44567	708.25201	 23.00	
  6.792	-124.591	 19.06503	  7.55801	 11.97552	  6.27916	 13.37052	 -0.10182	 19.41304	708.26001	 23.00	
  6.787	-110.754	 19.05961	  8.39080	 11.07009	  5.88721	 13.84827	 -0.14186	 19.41132	708.28497	 23.00	
  6.800	-96.985	 19.05532	  9.29149	 10.09307	  5.74802	 14.09454	 -0.16111	 19.39601	708.37799	 23.00	
  6.800	-83.015	 19.06990	 10.24335	  9.10590	  5.77886	 14.09700	 -0.18367	 19.41177	708.50299	 23.00	
  6.787	-69.246	 19.09113	 11.12221	  8.21575	  5.98454	 13.86207	 -0.18454	 19.42290	708.32703	 23.00	
  6.792	-55.409	 19.08789	 12.02193	  7.43651	  6.37328	 13.38709	 -0.16411	 19.39629	708.27197	 23.00	
  6.795	-41.617	 19.10652	 12.81785	  6.81297	  7.01406	 12.70563	 -0.13605	 19.40661	708.21802	 23.00	
  6.808	-27.689	 19.10384	 13.42907	  6.28690	  7.80358	 11.84408	 -0.11570	 19.38889	708.31299	 23.00	
  6.796	-13.771	 19.16045	 13.83778	  6.00016	  8.70016	 10.92986	 -0.08922	 19.43430	708.35400	 22.90	
  6.800	  0.000	 19.16439	 13.97326	  5.90819	  9.58606	 10.01442	 -0.06231	 19.42409	708.37903	 22.90	
  6.796	 13.771	 19.17819	 13.88150	  5.99859	 10.46657	  9.10547	 -0.03621	 19.43527	708.26898	 22.90	
  6.808	 27.689	 19.18321	 13.53057	  6.30760	 11.42640	  8.25924	 -0.04916	 19.43102	708.35797	 22.90	
  6.795	 41.617	 19.18451	 12.93839	  6.81883	 12.26808	  7.54916	 -0.05609	 19.41825	708.17902	 23.00	
  6.792	 55.409	 19.19300	 12.17873	  7.50978	 12.95959	  6.97281	 -0.06362	 19.41613	708.32501	 22.90	
  6.787	 69.246	 19.20515	 11.28637	  8.24954	 13.44508	  6.56562	 -0.08827	 19.42770	708.39899	 22.90	
  6.800	 83.015	 19.22931	 10.40214	  9.16239	 13.71086	  6.36593	 -0.12239	 19.44131	708.25500	 22.90	
  6.800	 96.985	 19.20785	  9.43845	 10.14686	 13.69420	  6.37318	 -0.12955	 19.42161	708.62598	 22.90	
  6.787	110.754	 19.17668	  8.51053	 11.09879	 13.41721	  6.52486	 -0.13178	 19.39834	708.35400	 23.00	
  6.792	124.591	 19.19130	  7.67689	 12.01378	 12.93626	  6.93416	 -0.11725	 19.41993	708.36200	 22.90	
  6.795	138.383	 19.17399	  6.96411	 12.78179	 12.24158	  7.49472	 -0.09541	 19.41882	708.28802	 22.90	
  6.808	152.311	 19.16576	  6.45673	 13.38002	 11.39759	  8.23085	 -0.06074	 19.42141	708.27698	 22.90	
  6.796	166.229	 19.17871	  6.24162	 13.75931	 10.46348	  9.11250	 -0.05566	 19.45604	708.22998	 22.90	
  8.491	168.704	 18.89598	  5.02873	 14.59879	 10.23556	  8.83533	 -0.18513	 19.42277	708.32800	 22.90	
  8.502	157.493	 18.92186	  5.19749	 14.31129	 11.21102	  7.94242	 -0.20047	 19.42752	708.22900	 22.90	
  8.494	146.194	 18.92444	  5.60755	 13.80355	 12.13487	  7.10282	 -0.22443	 19.42194	708.30499	 22.90	
  8.495	135.039	 18.94397	  6.15618	 13.14876	 12.96449	  6.37421	 -0.27475	 19.42642	708.24902	 22.90	
  8.487	123.723	 18.96615	  6.87873	 12.32932	 13.66333	  5.79841	 -0.30615	 19.42893	708.35400	 22.90	
  8.492	112.575	 18.96329	  7.76507	 11.39905	 14.14834	  5.43331	 -0.31041	 19.41374	708.28198	 22.90	
  8.510	101.220	 18.97882	  8.71683	 10.41635	 14.47505	  5.23432	 -0.31745	 19.41824	708.41302	 22.90	
  8.500	 90.000	 18.96766	  9.67497	  9.41041	 14.56525	  5.15516	 -0.30843	 19.40998	708.27802	 22.90	
  8.510	 78.780	 18.99624	 10.64174	  8.45489	 14.48308	  5.20593	 -0.27959	 19.43515	708.26001	 22.90	
  8.492	 67.425	 18.97658	 11.58682	  7.56532	 14.16750	  5.50315	 -0.22415	 19.41944	708.31097	 22.90	
  8.487	 56.277	 18.97206	 12.48105	  6.80187	 13.67713	  5.88610	 -0.19161	 19.42372	708.25403	 22.90	
  8.495	 44.961	 18.94872	 13.29792	  6.03966	 12.98001	  6.42070	 -0.18800	 19.41730	708.23798	 22.90	
  8.494	 33.806	 18.94319	 13.95733	  5.44174	 12.16002	  7.11905	 -0.17568	 19.42094	708.24701	 22.90	
  8.502	 22.507	 18.92151	 14.43510	  4.99263	 11.22603	  7.94642	 -0.16268	 19.40841	708.30298	 22.90	
  8.491	 11.296	 18.91582	 14.71320	  4.78535	 10.26263	  8.83779	 -0.17698	 19.40935	708.35602	 22.90	
  8.500	  0.000	 18.89948	 14.80167	  4.68952	  9.30424	  9.77430	 -0.19721	 19.40509	708.16998	 22.90	
  8.491	-11.296	 18.87246	 14.65885	  4.75100	  8.37439	 10.70783	 -0.23154	 19.38488	708.21002	 22.90	
  8.502	-22.507	 18.91683	 14.38781	  4.97783	  7.50180	 11.70571	 -0.23697	 19.44758	708.36401	 22.90	
  8.494	-33.806	 18.88445	 13.84553	  5.46735	  6.63345	 12.60986	 -0.24463	 19.42355	708.25403	 22.90	
  8.495	-44.961	 18.86478	 13.16596	  6.02941	  5.86539	 13.40515	 -0.27413	 19.42650	708.23700	 22.90	
  8.487	-56.277	 18.81533	 12.30744	  6.68707	  5.32411	 14.03101	 -0.30293	 19.38368	708.29199	 22.90	
  8.492	-67.425	 18.81061	 11.40019	  7.45401	  4.93418	 14.53681	 -0.34257	 19.40248	708.35101	 22.90	
  8.510	-78.780	 18.80795	 10.47353	  8.37888	  4.66370	 14.86266	 -0.35644	 19.41402	708.31598	 22.90	
  8.500	-90.000	 18.78220	  9.49524	  9.34792	  4.56599	 14.93657	 -0.33598	 19.39100	708.22900	 22.90	
  8.510	-101.220	 18.77604	  8.53239	 10.35234	  4.62848	 14.83839	 -0.28849	 19.38990	708.14502	 22.90	
  8.492	-112.575	 18.78663	  7.60543	 11.35780	  4.80756	 14.51705	 -0.25354	 19.40342	708.20203	 22.90	
  8.487	-123.723	 18.80270	  6.75628	 12.27148	  5.18536	 14.03489	 -0.21465	 19.40866	708.06598	 22.90	
  8.495	-135.039	 18.81252	  6.06500	 13.09381	  5.71199	 13.38953	 -0.20279	 19.42150	708.08099	 22.90	
  8.494	-146.194	 18.80972	  5.52068	 13.76215	  6.44040	 12.56592	 -0.19621	 19.40768	708.29199	 22.90	
  8.502	-157.493	 18.84942	  5.18482	 14.28811	  7.35349	 11.64837	 -0.15310	 19.42512	708.19299	 22.90	
  8.491	-168.704	 18.85246	  4.96499	 14.58714	  8.29838	 10.67722	 -0.14153	 19.41765	708.16998	 22.90	
  8.500	180.000	 18.89545	  4.90998	 14.70899	  9.26203	  9.77595	 -0.16694	 19.43228	708.16699	 22.90	
 10.200	180.000	 18.52252	  3.60640	 15.46284	  8.94934	  9.48047	 -0.32479	 19.39151	708.24701	 22.90	
 10.191	-170.497	 18.50949	  3.65370	 15.38237	  7.94995	 10.39231	 -0.29431	 19.40272	708.29999	 22.90	
 10.210	-161.034	 18.50890	  3.81271	 15.13201	  6.97175	 11.37939	 -0.29882	 19.42288	708.27100	 22.90	
 10.194	-151.526	 18.49818	  4.14430	 14.68938	  6.05406	 12.34740	 -0.32590	 19.42418	708.29999	 22.90	
 10.190	-142.105	 18.46980	  4.61122	 14.09601	  5.25895	 13.21348	 -0.34668	 19.41323	708.16699	 22.90	
 10.215	-132.646	 18.46441	  5.21165	 13.37478	  4.55799	 13.99725	 -0.33816	 19.41842	708.16199	 22.90	
 10.203	-123.092	 18.43374	  5.92515	 12.50536	  4.00220	 14.63827	 -0.35004	 19.39349	708.24701	 22.90	
 10.192	-113.678	 18.43886	  6.75738	 11.57773	  3.60659	 15.15398	 -0.38894	 19.40422	708.12201	 22.90	
 10.208	-104.249	 18.43097	  7.68388	 10.59901	  3.38427	 15.50843	 -0.43942	 19.40258	708.16101	 22.90	
 10.210	-94.801	 18.46112	  8.67854	  9.60598	  3.22941	 15.70483	 -0.48382	 19.42283	708.23700	 22.90	
 10.210	-85.199	 18.47416	  9.67840	  8.57625	  3.31696	 15.72208	 -0.51943	 19.42842	708.21301	 22.90	
 10.208	-75.751	 18.47181	 10.63682	  7.60271	  3.47400	 15.54423	 -0.53350	 19.41504	708.28497	 22.90	
 10.192	-66.322	 18.49436	 11.61247	  6.69196	  3.80923	 15.20701	 -0.52045	 19.42075	708.09802	 22.90	
 10.203	-56.908	 18.53605	 12.56578	  5.87225	  4.21415	 14.72279	 -0.48142	 19.44455	708.08002	 22.90	
 10.215	-47.354	 18.52693	 13.40784	  5.16199	  4.71823	 14.05065	 -0.41849	 19.41748	708.20203	 22.90	
 10.190	-37.895	 18.51852	 14.12850	  4.56091	  5.34476	 13.25318	 -0.39481	 19.39916	708.26898	 22.90	
 10.194	-28.474	 18.55974	 14.76075	  4.09009	  6.13293	 12.39100	 -0.37860	 19.42031	708.08899	 22.90	
 10.210	-18.966	 18.54964	 15.20965	  3.75255	  7.06109	 11.41684	 -0.38691	 19.40845	708.13898	 22.90	
 10.191	 -9.503	 18.58425	 15.49642	  3.58488	  8.03847	 10.45295	 -0.37818	 19.42755	708.14301	 22.90	
 10.200	  0.000	 18.60236	 15.60609	  3.53281	  8.98947	  9.50562	 -0.35354	 19.44110	708.09100	 22.90	
 10.191	  9.503	 18.59331	 15.52680	  3.59053	  9.97971	  8.52486	 -0.32092	 19.41287	708.24701	 22.90	
 10.210	 18.966	 18.59341	 15.28605	  3.79231	 10.95977	  7.59926	 -0.32091	 19.41442	708.19202	 22.90	
 10.194	 28.474	 18.64968	 14.89749	  4.13974	 11.94864	  6.74581	 -0.32381	 19.44740	708.20697	 22.90	
 10.190	 37.895	 18.61818	 14.29455	  4.57768	 12.82594	  5.91270	 -0.31829	 19.40619	708.19800	 22.90	
 10.215	 47.354	 18.64043	 13.59519	  5.16796	 13.64072	  5.20545	 -0.31829	 19.41133	708.22400	 22.90	
 10.203	 56.908	 18.68849	 12.78122	  5.97592	 14.33304	  4.66896	 -0.33446	 19.45090	708.34399	 22.90	
 10.192	 66.322	 18.66223	 11.84313	  6.76573	 14.80295	  4.36660	 -0.36550	 19.40627	708.24701	 22.90	
 10.208	 75.751	 18.68456	 10.89429	  7.65124	 15.18624	  4.02654	 -0.43095	 19.42546	708.20697	 22.90	
 10.210	 85.199	 18.65647	  9.90555	  8.60794	 15.33537	  3.86812	 -0.48827	 19.39369	708.08801	 22.90	
 10.210	 94.801	 18.68687	  8.90527	  9.65594	 15.35847	  3.86001	 -0.52146	 19.42750	708.14203	 22.90	
 10.208	104.249	 18.66799	  7.90799	 10.65683	 15.16896	  3.99747	 -0.52268	 19.41035	708.18701	 22.80	
 10.192	113.678	 18.64664	  6.95567	 11.63216	 14.79885	  4.27286	 -0.51161	 19.39722	708.15900	 22.90	
 10.203	123.092	 18.64980	  6.11290	 12.56341	 14.29777	  4.68586	 -0.47694	 19.41250	708.10602	 22.90	
 10.215	132.646	 18.62848	  5.34507	 13.40749	 13.63932	  5.21771	 -0.44391	 19.41586	708.10797	 22.90	
 10.190	142.105	 18.60579	  4.72247	 14.13072	 12.82998	  5.90142	 -0.39625	 19.40803	708.20099	 22.90	
 10.194	151.526	 18.61951	  4.26616	 14.72614	 11.93824	  6.73904	 -0.33961	 19.43101	708.04999	 22.90	
 10.210	161.034	 18.58814	  3.90645	 15.14748	 10.95111	  7.61596	 -0.33434	 19.41887	708.09998	 22.90	
 10.191	170.497	 18.57456	  3.70770	 15.39423	  9.98524	  8.53655	 -0.32620	 19.42238	708.16998	 22.90	
 11.899	171.783	 18.15086	  2.51888	 16.11097	  9.64645	  8.18182	 -0.47902	 19.40298	708.20099	 22.90	
 11.890	163.610	 18.18683	  2.68785	 15.90498	 10.63700	  7.28262	 -0.47966	 19.41317	708.18500	 22.80	
 11.889	155.445	 18.21626	  2.98454	 15.54968	 11.63202	  6.38310	 -0.48630	 19.43504	708.20898	 22.80	
 11.909	147.299	 18.22175	  3.38270	 15.04138	 12.59184	  5.42765	 -0.52156	 19.42694	708.16998	 22.80	
 11.902	139.148	 18.22422	  3.92670	 14.37557	 13.44210	  4.66896	 -0.58583	 19.40697	708.09497	 22.90	
 11.894	130.867	 18.27521	  4.60317	 13.62812	 14.22906	  4.06842	 -0.62404	 19.43061	708.13599	 22.80	
 11.897	122.732	 18.28923	  5.33502	 12.78012	 14.88526	  3.55923	 -0.67323	 19.42771	708.14203	 22.80	
 11.903	114.597	 18.29092	  6.13546	 11.84883	 15.40759	  3.12975	 -0.70383	 19.41727	708.15002	 22.90	
 11.893	106.346	 18.29287	  7.05765	 10.84837	 15.79756	  2.81563	 -0.73791	 19.40998	708.12598	 22.80	
 11.892	 98.155	 18.30428	  8.05933	  9.83649	 16.03376	  2.64152	 -0.73425	 19.41289	708.07202	 22.80	
 11.900	 90.000	 18.30255	  9.06648	  8.81868	 16.11947	  2.59295	 -0.71714	 19.41620	708.16101	 22.80	
 11.892	 81.845	 18.31371	 10.08603	  7.82545	 16.03681	  2.67739	 -0.68170	 19.42568	708.00403	 22.80	
 11.893	 73.654	 18.28768	 11.06484	  6.84230	 15.76677	  2.86150	 -0.59204	 19.40047	708.08801	 22.80	
 11.903	 65.403	 18.28096	 12.04085	  5.91533	 15.38628	  3.16008	 -0.52367	 19.39553	708.17102	 22.80	
 11.897	 57.268	 18.30245	 12.98426	  5.15283	 14.87076	  3.62363	 -0.46474	 19.42877	708.09100	 22.80	
 11.894	 49.133	 18.26705	 13.80683	  4.40630	 14.20797	  4.09932	 -0.45640	 19.40987	708.05200	 22.80	
 11.902	 40.852	 18.26623	 14.57873	  3.76321	 13.45633	  4.70091	 -0.46173	 19.43412	708.08801	 22.80	
 11.909	 32.701	 18.22066	 15.18557	  3.23950	 12.56271	  5.43244	 -0.45687	 19.40085	708.10602	 22.80	
 11.889	 24.555	 18.22547	 15.68771	  2.85643	 11.62294	  6.29053	 -0.46120	 19.41546	708.16101	 22.80	
 11.890	 16.390	 18.20478	 16.03703	  2.55496	 10.63479	  7.21280	 -0.46312	 19.40604	708.22998	 22.80	
 11.899	  8.217	 18.17916	 16.26074	  2.37088	  9.65981	  8.14970	 -0.48203	 19.39746	708.09100	 22.80	
 11.900	  0.000	 18.18460	 16.32185	  2.31346	  8.64810	  9.14509	 -0.51431	 19.40732	708.18201	 22.80	
 11.899	 -8.217	 18.19804	 16.26025	  2.35613	  7.63781	 10.14280	 -0.52804	 19.43771	708.09698	 22.80	
 11.890	-16.390	 18.15258	 15.95819	  2.52224	  6.64700	 11.08374	 -0.53656	 19.39483	708.16803	 22.80	
 11.889	-24.555	 18.16545	 15.57816	  2.79695	  5.70570	 12.08744	 -0.51387	 19.42559	708.10602	 22.80	
 11.909	-32.701	 18.12774	 15.03575	  3.18214	  4.86592	 12.98972	 -0.50761	 19.40342	708.20099	 22.80	
 11.902	-40.852	 18.13480	 14.38453	  3.72690	  4.12674	 13.83996	 -0.52268	 19.41819	708.17603	 22.80	
 11.894	-49.133	 18.12851	 13.59797	  4.37977	  3.50673	 14.60894	 -0.56678	 19.42189	708.11200	 22.80	
 11.897	-57.268	 18.09999	 12.71589	  5.10729	  3.02071	 15.23359	 -0.61745	 19.40671	708.17798	 22.80	
 11.903	-65.403	 18.09271	 11.79150	  5.87829	  2.60490	 15.76016	 -0.65618	 19.41908	708.04602	 22.80	
 11.893	-73.654	 18.06253	 10.78988	  6.78282	  2.30612	 16.11264	 -0.68867	 19.40685	708.03003	 22.80	
 11.892	-81.845	 18.06084	  9.80454	  7.75336	  2.11871	 16.33330	 -0.68572	 19.41304	708.17902	 22.80	
 11.900	-90.000	 18.06151	  8.79373	  8.75870	  2.04738	 16.42083	 -0.64188	 19.42679	708.15399	 22.80	
 11.892	-98.155	 18.05664	  7.78136	  9.77649	  2.06865	 16.34261	 -0.61739	 19.42718	708.06598	 22.80	
 11.893	-106.346	 18.05475	  6.80751	 10.78380	  2.23827	 16.12281	 -0.56815	 19.43640	708.12299	 22.80	
 11.903	-114.597	 18.02385	  5.88558	 11.76471	  2.52064	 15.72231	 -0.51932	 19.40966	708.17902	 22.80	
 11.897	-122.732	 18.03730	  5.07842	 12.69289	  2.94687	 15.21168	 -0.48148	 19.41379	708.04602	 22.80	
 11.894	-130.867	 18.04515	  4.40854	 13.54474	  3.49550	 14.55341	 -0.47485	 19.40270	708.04901	 22.80	
 11.902	-139.148	 18.07946	  3.79946	 14.33343	  4.13307	 13.80499	 -0.48311	 19.42485	708.10303	 22.80	
 11.909	-147.299	 18.10448	  3.31241	 15.00276	  4.85444	 12.97502	 -0.48236	 19.44871	708.10498	 22.80	
 11.889	-155.445	 18.08078	  2.90692	 15.48214	  5.66744	 12.02420	 -0.46064	 19.40194	708.19501	 22.80	
 11.890	-163.610	 18.12550	  2.63549	 15.89252	  6.60653	 11.06879	 -0.45137	 19.42942	708.16803	 22.80	
 11.899	-171.783	 18.12043	  2.48348	 16.11297	  7.58103	 10.08691	 -0.46423	 19.40792	707.99500	 22.80	
 11.900	180.000	 18.17434	  2.44505	 16.22075	  8.62625	  9.15915	 -0.47650	 19.44120	707.93597	 22.80	
 13.600	180.000	 17.67085	  1.23666	 16.84574	  8.21137	  8.70902	 -0.62790	 19.41212	708.05298	 22.80	
 13.608	-172.853	 17.65201	  1.26759	 16.78945	  7.19789	  9.68284	 -0.62747	 19.42597	708.21301	 22.80	
 13.611	-165.583	 17.63803	  1.42012	 16.58017	  6.20747	 10.66422	 -0.60833	 19.42027	708.02399	 22.80	
 13.601	-158.353	 17.61584	  1.68799	 16.22590	  5.29067	 11.65957	 -0.62689	 19.40947	708.13098	 22.80	
 13.609	-151.210	 17.58428	  2.00575	 15.75928	  4.44130	 12.58982	 -0.64319	 19.40507	707.98999	 22.80	
 13.611	-143.999	 17.58009	  2.44611	 15.17366	  3.67570	 13.49286	 -0.62048	 19.41235	708.16199	 22.80	
 13.601	-136.825	 17.58192	  2.96699	 14.48908	  3.00129	 14.32139	 -0.59889	 19.42398	708.15601	 22.80	
 13.596	-129.640	 17.56501	  3.57957	 13.68781	  2.39177	 15.06031	 -0.59445	 19.41059	708.23297	 22.80	
 13.611	-122.431	 17.54336	  4.27271	 12.80819	  1.87669	 15.67907	 -0.60633	 19.40154	708.21600	 22.80	
 13.604	-115.211	 17.54615	  5.07371	 11.87637	  1.48020	 16.20331	 -0.63188	 19.40434	708.15100	 22.80	
 13.595	-108.042	 17.54535	  5.94287	 10.89315	  1.17014	 16.59871	 -0.66904	 19.40074	708.11401	 22.80	
 13.607	-100.793	 17.54381	  6.83481	  9.88402	  0.91836	 16.88122	 -0.69577	 19.40639	708.26898	 22.80	
 13.601	-93.617	 17.54311	  7.83083	  8.87033	  0.81725	 17.01111	 -0.71440	 19.39459	708.22400	 22.80	
 13.601	-86.383	 17.56178	  8.86677	  7.85916	  0.84317	 17.03035	 -0.73371	 19.41270	708.13098	 22.80	
 13.607	-79.207	 17.57284	  9.89288	  6.86775	  0.97659	 16.91039	 -0.75575	 19.41282	708.27197	 22.80	
 13.595	-71.958	 17.61726	 10.89513	  5.95831	  1.23653	 16.65930	 -0.76683	 19.43739	708.21301	 22.80	
 13.604	-64.789	 17.62748	 11.88446	  5.08198	  1.52258	 16.26838	 -0.74740	 19.42404	708.14697	 22.80	
 13.611	-57.569	 17.62477	 12.82151	  4.28365	  1.92074	 15.74829	 -0.69586	 19.41575	708.13702	 22.80	
 13.596	-50.360	 17.67441	 13.73088	  3.54717	  2.39743	 15.14801	 -0.64295	 19.44275	708.16699	 22.80	
 13.601	-43.175	 17.68030	 14.53001	  2.90456	  2.99587	 14.39268	 -0.62301	 19.43738	708.23999	 22.80	
 13.611	-36.001	 17.66490	 15.21047	  2.35062	  3.68268	 13.53492	 -0.61530	 19.39630	708.22900	 22.80	
 13.609	-28.790	 17.69708	 15.81002	  1.92385	  4.47119	 12.66096	 -0.62059	 19.40982	708.24902	 22.80	
 13.601	-21.647	 17.73315	 16.31051	  1.58077	  5.29192	 11.75682	 -0.64244	 19.44446	708.33600	 22.80	
 13.611	-14.417	 17.71700	 16.64942	  1.30640	  6.23627	 10.75162	 -0.64679	 19.41796	708.28802	 22.80	
 13.608	 -7.147	 17.73330	 16.87589	  1.13772	  7.23124	  9.76539	 -0.62478	 19.43114	708.22302	 22.80	
 13.600	  0.000	 17.73922	 16.96258	  1.11214	  8.25084	  8.78631	 -0.60997	 19.42805	708.73102	 22.80	
 13.608	  7.147	 17.75017	 16.91874	  1.15861	  9.28701	  7.77875	 -0.57909	 19.43360	708.21802	 22.80	
 13.611	 14.417	 17.74823	 16.72817	  1.31682	 10.27256	  6.78872	 -0.55873	 19.41940	708.19800	 22.80	
 13.601	 21.647	 17.76594	 16.40705	  1.58026	 11.27073	  5.87010	 -0.56996	 19.41090	708.24902	 22.80	
 13.609	 28.790	 17.76434	 15.96059	  1.92973	 12.22466	  5.03325	 -0.58763	 19.40226	708.28198	 22.80	
 13.611	 36.001	 17.78511	 15.41469	  2.37031	 13.13475	  4.26960	 -0.58013	 19.41109	708.25702	 22.80	
 13.601	 43.175	 17.81867	 14.75404	  2.92878	 13.98495	  3.58740	 -0.57642	 19.43280	708.23199	 22.80	
 13.596	 50.360	 17.83147	 13.98171	  3.56977	 14.74779	  2.98077	 -0.57726	 19.43077	708.19299	 22.80	
 13.611	 57.569	 17.82731	 13.10993	  4.30750	 15.40542	  2.48219	 -0.60055	 19.41830	708.30902	 22.80	
 13.604	 64.789	 17.85903	 12.19449	  5.12403	 15.95427	  2.07545	 -0.66099	 19.43122	708.15601	 22.80	
 13.595	 71.958	 17.82556	 11.19717	  5.95022	 16.32553	  1.73900	 -0.73543	 19.39125	708.10498	 22.90	
 13.607	 79.207	 17.85772	 10.23407	  6.92592	 16.62349	  1.53200	 -0.81311	 19.41411	708.15900	 22.90	
 13.601	 86.383	 17.85107	  9.20921	  7.91396	 16.73932	  1.43773	 -0.87066	 19.40045	708.15100	 22.90	
 13.601	 93.617	 17.86128	  8.17802	  8.95044	 16.74782	  1.43207	 -0.90109	 19.41302	708.19501	 22.90	
 13.607	100.793	 17.86011	  7.17231	  9.97444	 16.62445	  1.52120	 -0.90792	 19.42359	708.07202	 22.90	
 13.595	108.042	 17.86952	  6.25195	 10.99178	 16.35391	  1.75814	 -0.91113	 19.43138	708.01898	 22.90	
 13.604	115.211	 17.86847	  5.35806	 11.98647	 15.97612	  2.04670	 -0.88671	 19.45009	708.03497	 22.90	
 13.611	122.431	 17.83016	  4.54475	 12.90535	 15.41253	  2.44883	 -0.87070	 19.42081	708.11902	 22.90	
 13.596	129.640	 17.83058	  3.82854	 13.78500	 14.76965	  2.96941	 -0.82073	 19.43411	708.11603	 22.90	
 13.601	136.825	 17.82141	  3.17688	 14.57311	 14.00772	  3.57684	 -0.76454	 19.43256	708.03302	 22.90	
 13.611	143.999	 17.79481	  2.61216	 15.24686	 13.17341	  4.23782	 -0.71352	 19.43583	708.11200	 22.90	
 13.609	151.210	 17.76031	  2.11391	 15.81608	 12.25405	  4.95949	 -0.65912	 19.42661	708.20099	 22.90	
 13.601	158.353	 17.71379	  1.72674	 16.25114	 11.26536	  5.82952	 -0.63554	 19.40052	708.26801	 22.90	
 13.611	165.583	 17.72377	  1.45422	 16.60813	 10.29381	  6.77629	 -0.63278	 19.43361	708.15399	 22.90	
 13.608	172.853	 17.71202	  1.28499	 16.80978	  9.26747	  7.75479	 -0.63114	 19.43511	708.06897	 22.90	
 15.298	173.587	 17.17070	  0.03002	 17.37906	  8.82984	  7.26337	 -0.76818	 19.42253	708.17603	 22.90	
 15.291	167.167	 17.19423	  0.20163	 17.21856	  9.85644	  6.30758	 -0.76959	 19.43095	708.09698	 22.90	
 15.307	160.676	 17.21582	  0.48300	 16.92453	 10.85240	  5.38046	 -0.77408	 19.42593	708.17401	 22.90	
 15.300	154.261	 17.24244	  0.84254	 16.51784	 11.84659	  4.56076	 -0.79769	 19.42666	708.16998	 22.90	
 15.288	147.854	 17.27039	  1.26746	 16.00142	 12.78382	  3.79286	 -0.83615	 19.42558	708.20099	 22.90	
 15.293	141.428	 17.26362	  1.75927	 15.35981	 13.65506	  3.06374	 -0.87320	 19.41219	708.21002	 22.90	
 15.299	134.985	 17.27809	  2.33226	 14.64654	 14.48733	  2.40514	 -0.93137	 19.40486	708.42102	 22.90	
 15.305	128.583	 17.28557	  2.98809	 13.84137	 15.22678	  1.83582	 -0.96536	 19.41321	708.13000	 22.90	
 15.309	122.142	 17.30454	  3.71745	 12.97300	 15.86735	  1.35705	 -0.99256	 19.40669	708.13702	 22.90	
 15.304	115.711	 17.34996	  4.53084	 12.06008	 16.41936	  0.98240	 -1.00716	 19.44180	708.04602	 22.90	
 15.297	109.291	 17.33194	  5.37787	 11.05665	 16.80824	  0.67716	 -1.01360	 19.40207	708.22302	 22.90	
 15.293	102.897	 17.35691	  6.32033	 10.06530	 17.12077	  0.46588	 -1.01115	 19.42236	708.11401	 23.00	
 15.293	 96.458	 17.38310	  7.26137	  9.05632	 17.33001	  0.31075	 -1.02099	 19.44700	708.08301	 23.00	
 15.300	 90.000	 17.34547	  8.26390	  8.01820	 17.35179	  0.27464	 -1.01027	 19.40849	708.06403	 23.00	
 15.293	 83.542	 17.35533	  9.31072	  6.99822	 17.29326	  0.32469	 -0.97195	 19.41917	708.19202	 23.00	
 15.293	 77.103	 17.35700	 10.32223	  6.04809	 17.10688	  0.49043	 -0.91284	 19.41039	708.14697	 23.00	
 15.297	 70.709	 17.34048	 11.28648	  5.14597	 16.79348	  0.72703	 -0.83851	 19.40051	708.06598	 23.00	
 15.304	 64.289	 17.32345	 12.24759	  4.28648	 16.36613	  1.03491	 -0.75886	 19.39373	707.99597	 23.00	
 15.309	 57.858	 17.32788	 13.18709	  3.49659	 15.85549	  1.42789	 -0.71603	 19.42089	708.11200	 23.00	
 15.305	 51.417	 17.32162	 14.04977	  2.77552	 15.21921	  1.90376	 -0.68835	 19.42462	708.04303	 23.00	
 15.299	 45.015	 17.30597	 14.84073	  2.13337	 14.47173	  2.48078	 -0.67720	 19.42486	708.14502	 23.00	
 15.293	 38.572	 17.28496	 15.53344	  1.55902	 13.63803	  3.13492	 -0.67831	 19.40777	708.06000	 23.00	
 15.288	 32.146	 17.24312	 16.11933	  1.05904	 12.73872	  3.84439	 -0.67528	 19.38320	707.97101	 23.00	
 15.300	 25.739	 17.25872	 16.65094	  0.64393	 11.82952	  4.62178	 -0.65072	 19.42274	708.13098	 23.00	
 15.307	 19.324	 17.20126	 17.01553	  0.31201	 10.81611	  5.43504	 -0.63296	 19.38109	708.03302	 23.00	
 15.291	 12.833	 17.18966	 17.28862	  0.04777	  9.82750	  6.34037	 -0.62977	 19.38029	708.00403	 23.00	
 15.298	  6.413	 17.19634	 17.46594	 -0.10602	  8.83722	  7.30271	 -0.64687	 19.40155	708.15399	 23.00	
 15.300	  0.000	 17.19602	 17.51472	 -0.14972	  7.79342	  8.32789	 -0.67390	 19.41340	708.04303	 23.00	
 15.298	 -6.413	 17.18960	 17.43625	 -0.09031	  6.77970	  9.32753	 -0.69022	 19.41824	708.14203	 23.00	
 15.291	-12.833	 17.18747	 17.23752	  0.06937	  5.80623	 10.31019	 -0.70097	 19.41245	708.08002	 23.00	
 15.307	-19.324	 17.17067	 16.91750	  0.29956	  4.88300	 11.30088	 -0.70595	 19.40767	707.88599	 23.10	
 15.300	-25.739	 17.18930	 16.50653	  0.61711	  4.03667	 12.27351	 -0.69879	 19.42703	708.08002	 23.00	
 15.288	-32.146	 17.16891	 15.95161	  1.03048	  3.24962	 13.18638	 -0.68817	 19.41498	708.01300	 23.10	
 15.293	-38.572	 17.14831	 15.29544	  1.53032	  2.53225	 14.04748	 -0.68079	 19.40375	708.07202	 23.10	
 15.299	-45.015	 17.13147	 14.56094	  2.09920	  1.87237	 14.85273	 -0.68326	 19.41492	708.14502	 23.10	
 15.305	-51.417	 17.11391	 13.74501	  2.73272	  1.31157	 15.54460	 -0.69376	 19.40604	707.98700	 23.10	
 15.309	-57.858	 17.08630	 12.85285	  3.43986	  0.81457	 16.15852	 -0.71771	 19.40379	707.96503	 23.10	
 15.304	-64.289	 17.05779	 11.90353	  4.21546	  0.40156	 16.66889	 -0.73681	 19.39202	707.90002	 23.10	
 15.297	-70.709	 17.05265	 10.92742	  5.06628	  0.06660	 17.08295	 -0.75339	 19.40436	707.93597	 23.10	
 15.293	-77.103	 17.04689	  9.95223	  5.96853	 -0.18574	 17.37930	 -0.76881	 19.41389	707.97699	 23.10	
 15.293	-83.542	 17.02553	  8.91915	  6.93267	 -0.35235	 17.55517	 -0.76878	 19.42465	708.03003	 23.10	
 15.300	-90.000	 16.97630	  7.85603	  7.91010	 -0.40254	 17.58072	 -0.75836	 19.38287	707.99298	 23.10	
 15.293	-96.458	 16.99819	  6.87273	  8.93940	 -0.34553	 17.53521	 -0.75580	 19.41174	708.01801	 23.10	
 15.293	-102.897	 16.99133	  5.95618	  9.94537	 -0.18349	 17.34941	 -0.76715	 19.40513	707.92603	 23.10	
 15.297	-109.291	 16.98778	  5.04397	 10.94384	  0.03694	 17.05416	 -0.75414	 19.40664	708.07501	 23.10	
 15.304	-115.711	 16.97976	  4.19400	 11.92430	  0.34808	 16.63176	 -0.73615	 19.40002	708.09198	 23.10	
 15.309	-122.142	 16.98138	  3.42321	 12.85171	  0.76031	 16.09623	 -0.72174	 19.39072	707.94000	 23.20	
 15.305	-128.583	 17.00000	  2.74258	 13.73759	  1.26597	 15.48071	 -0.71576	 19.40669	708.03601	 23.20	
 15.299	-134.985	 17.01631	  2.12078	 14.54086	  1.83484	 14.78695	 -0.73283	 19.40930	707.97900	 23.20	
 15.293	-141.428	 17.03129	  1.58075	 15.27708	  2.48948	 13.98934	 -0.77017	 19.41363	708.04401	 23.20	
 15.288	-147.854	 17.05571	  1.11611	 15.91698	  3.22721	 13.11730	 -0.77493	 19.41932	708.00897	 23.20	
 15.300	-154.261	 17.05380	  0.70576	 16.43718	  4.00574	 12.19277	 -0.77617	 19.40836	708.02899	 23.20	
 15.307	-160.676	 17.08226	  0.39474	 16.86770	  4.86436	 11.24677	 -0.76635	 19.41403	708.05701	 23.20	
 15.291	-167.167	 17.13032	  0.19375	 17.18938	  5.82465	 10.24667	 -0.76839	 19.44022	708.09100	 23.20	
 15.298	-173.587	 17.12070	  0.01423	 17.35950	  6.75788	  9.27381	 -0.76979	 19.41710	707.96503	 23.20	
 15.300	180.000	 17.13237	 -0.04136	 17.42439	  7.76991	  8.27125	 -0.77447	 19.41919	707.95398	 23.20	
 17.000	180.000	 16.53072	 -1.11360	 17.92328	  7.28484	  7.77788	 -0.85725	 19.40602	708.09998	 23.20	
 16.990	-174.179	 16.52417	 -1.05737	 17.87576	  6.31727	  8.77749	 -0.84387	 19.41644	708.03497	 23.20	
 17.009	-168.383	 16.49137	 -0.96036	 17.71233	  5.34530	  9.75210	 -0.84747	 19.41352	707.95697	 23.20	
 17.000	-162.596	 16.47174	 -0.78210	 17.42889	  4.41467	 10.73417	 -0.85348	 19.40701	707.98798	 23.20	
 16.990	-156.759	 16.47252	 -0.52627	 17.06664	  3.56539	 11.72264	 -0.86455	 19.43351	708.08002	 23.20	
 16.995	-150.919	 16.46754	 -0.19737	 16.59003	  2.75753	 12.66996	 -0.88475	 19.43744	708.01801	 23.20	
 16.988	-145.161	 16.42537	  0.21742	 15.98601	  1.99623	 13.55003	 -0.89635	 19.41141	707.96198	 23.20	
 17.014	-139.343	 16.41938	  0.68823	 15.32841	  1.29431	 14.40311	 -0.87577	 19.42924	708.03601	 23.20	
 17.007	-133.546	 16.42309	  1.25762	 14.58679	  0.69725	 15.17736	 -0.84691	 19.43620	707.92499	 23.20	
 17.001	-127.699	 16.39892	  1.88378	 13.74221	  0.15403	 15.86293	 -0.82928	 19.40647	707.87799	 23.20	
 17.006	-121.937	 16.37763	  2.57090	 12.84993	 -0.31276	 16.46497	 -0.80537	 19.39533	707.87500	 23.20	
 17.002	-116.134	 16.39210	  3.32029	 11.93542	 -0.70648	 17.01829	 -0.79983	 19.43333	707.87201	 23.20	
 17.001	-110.310	 16.39570	  4.13240	 10.96368	 -1.02408	 17.45514	 -0.77943	 19.43940	707.94598	 23.20	
 16.988	-104.517	 16.39619	  5.02703	  9.96243	 -1.22325	 17.75234	 -0.77513	 19.42478	707.93903	 23.30	
 17.008	-98.662	 16.38178	  5.95183	  8.93450	 -1.37547	 17.95514	 -0.74448	 19.40304	707.93597	 23.20	
 16.996	-92.909	 16.40177	  6.90038	  7.95463	 -1.44352	 18.06592	 -0.72125	 19.40931	708.02600	 23.30	
 16.996	-87.091	 16.42702	  7.88010	  6.96298	 -1.46568	 18.10240	 -0.69422	 19.43814	708.03601	 23.30	
 17.012	-81.253	 16.40498	  8.90188	  5.97785	 -1.40961	 17.99107	 -0.67693	 19.41761	708.03802	 23.30	
 16.988	-75.483	 16.43970	  9.92542	  5.06189	 -1.24229	 17.80059	 -0.67009	 19.43116	707.97101	 23.30	
 17.001	-69.690	 16.41878	 10.90669	  4.16981	 -1.00894	 17.46401	 -0.65262	 19.39602	708.15302	 23.30	
 17.002	-63.866	 16.47454	 11.90541	  3.33816	 -0.69313	 17.07772	 -0.64876	 19.42318	708.06000	 23.30	
 17.006	-58.063	 16.47558	 12.83016	  2.56374	 -0.29826	 16.54142	 -0.65523	 19.40149	708.06702	 23.30	
 17.001	-52.301	 16.50973	 13.72515	  1.86548	  0.17144	 15.93761	 -0.67210	 19.40808	707.96198	 23.30	
 17.007	-46.454	 16.53146	 14.56145	  1.21523	  0.70515	 15.24621	 -0.66955	 19.40617	707.98700	 23.30	
 17.014	-40.657	 16.56376	 15.34006	  0.64550	  1.30978	 14.50774	 -0.68247	 19.44207	708.02100	 23.30	
 16.988	-34.839	 16.56787	 15.99836	  0.16601	  2.01138	 13.64848	 -0.70203	 19.41562	707.98499	 23.30	
 16.995	-29.081	 16.56304	 16.56754	 -0.24169	  2.74907	 12.73619	 -0.70344	 19.39270	708.05701	 23.30	
 16.990	-23.241	 16.60575	 17.09679	 -0.58026	  3.57343	 11.81285	 -0.72297	 19.42771	707.83899	 23.30	
 17.000	-17.404	 16.60047	 17.48371	 -0.84600	  4.43694	 10.83231	 -0.70696	 19.42414	707.90002	 23.30	
 17.009	-11.617	 16.62030	 17.78765	 -1.05958	  5.36257	  9.85389	 -0.70049	 19.43650	707.99799	 23.30	
 16.990	 -5.821	 16.60533	 17.92250	 -1.15753	  6.30364	  8.84990	 -0.67732	 19.40915	707.98499	 23.30	
 17.000	  0.000	 16.61250	 18.01078	 -1.22219	  7.30732	  7.85396	 -0.64888	 19.42204	707.94598	 23.30	
 16.990	  5.821	 16.62662	 17.97943	 -1.16771	  8.35291	  6.84944	 -0.63493	 19.42723	708.00403	 23.30	
 17.009	 11.617	 16.60627	 17.81892	 -1.04683	  9.34006	  5.90029	 -0.63231	 19.39263	707.98999	 23.30	
 17.000	 17.404	 16.64922	 17.60125	 -0.83254	 10.33768	  5.02616	 -0.62780	 19.42656	707.87000	 23.30	
 16.990	 23.241	 16.64911	 17.23010	 -0.55726	 11.33494	  4.15957	 -0.66024	 19.40486	707.85199	 23.40	
 16.995	 29.081	 16.69010	 16.80187	 -0.21400	 12.31572	  3.38197	 -0.69013	 19.44206	707.97699	 23.30	
 16.988	 34.839	 16.67873	 16.22260	  0.19643	 13.19930	  2.64707	 -0.72638	 19.40966	707.87201	 23.40	
 17.014	 40.657	 16.69835	 15.59586	  0.66261	 14.08974	  1.94665	 -0.75554	 19.42182	707.86700	 23.40	
 17.007	 46.454	 16.70402	 14.85308	  1.25016	 14.87523	  1.33827	 -0.77603	 19.40639	707.94800	 23.40	
 17.001	 52.301	 16.71915	 14.04397	  1.91568	 15.59526	  0.81584	 -0.79572	 19.40187	707.90601	 23.40	
 17.006	 58.063	 16.75237	 13.20249	  2.62808	 16.24440	  0.36311	 -0.82931	 19.43296	708.00500	 23.40	
 17.002	 63.866	 16.74318	 12.26835	  3.39941	 16.76710	 -0.02158	 -0.87302	 19.41529	707.88300	 23.40	
 17.001	 69.690	 16.75111	 11.30275	  4.22484	 17.21734	 -0.35159	 -0.92062	 19.41777	708.06000	 23.40	
 16.988	 75.483	 16.75627	 10.32324	  5.10553	 17.54510	 -0.60339	 -0.98434	 19.41881	708.02100	 23.40	
 17.012	 81.253	 16.74848	  9.32743	  6.03440	 17.76087	 -0.76755	 -1.02103	 19.41308	708.00201	 23.40	
 16.996	 87.091	 16.74887	  8.29471	  7.02031	 17.85374	 -0.83696	 -1.03864	 19.40070	707.99597	 23.40	
 16.996	 92.909	 16.76112	  7.30833	  8.03202	 17.86509	 -0.82733	 -1.04440	 19.41569	708.02698	 23.40	
 17.008	 98.662	 16.77176	  6.35449	  9.03852	 17.77646	 -0.75826	 -1.02867	 19.42755	708.03601	 23.40	
 16.988	104.517	 16.77902	  5.40176	 10.06232	 17.56846	 -0.60584	 -1.03782	 19.44277	707.85602	 23.40	
 17.001	110.310	 16.75242	  4.50197	 11.06108	 17.23993	 -0.40016	 -1.03660	 19.43257	707.94299	 23.40	
 17.002	116.134	 16.73905	  3.66342	 12.03022	 16.78980	 -0.07878	 -1.06799	 19.41794	708.00098	 23.40	
 17.006	121.937	 16.72987	  2.87527	 12.96801	 16.25615	  0.30264	 -1.08330	 19.42063	707.99500	 23.40	
 17.001	127.699	 16.73428	  2.14683	 13.85586	 15.64612	  0.75338	 -1.08832	 19.43752	708.04303	 23.40	
 17.007	133.546	 16.68138	  1.48469	 14.64844	 14.90099	  1.27387	 -1.06889	 19.40435	708.00403	 23.40	
 17.014	139.343	 16.67169	  0.87401	 15.40417	 14.11081	  1.87409	 -1.03528	 19.40732	707.91498	 23.40	
 16.988	145.161	 16.66399	  0.38898	 16.05848	 13.22999	  2.57562	 -0.99961	 19.40549	707.94800	 23.50	
 16.995	150.919	 16.67141	 -0.03168	 16.65005	 12.34368	  3.30841	 -0.96659	 19.43536	707.99597	 23.40	
 16.990	156.759	 16.62777	 -0.38229	 17.08595	 11.36072	  4.10064	 -0.93959	 19.40138	707.91998	 23.50	
 17.000	162.596	 16.61308	 -0.68060	 17.47234	 10.36070	  4.96670	 -0.92850	 19.41939	708.02899	 23.40	
 17.009	168.383	 16.58962	 -0.91548	 17.74545	  9.36036	  5.84802	 -0.92162	 19.43231	707.89502	 23.50	
 16.990	174.179	 16.55857	 -1.06213	 17.87784	  8.33592	  6.79112	 -0.89271	 19.41621	707.91998	 23.50	
 18.709	174.675	 15.89505	 -2.03220	 18.30313	  7.80386	  6.29007	 -0.94763	 19.39622	708.09998	 23.50	
 18.703	169.441	 15.93294	 -1.93616	 18.18498	  8.82096	  5.37985	 -0.97877	 19.40773	708.05200	 23.50	
 18.691	164.085	 15.94691	 -1.75674	 17.94005	  9.83744	  4.47346	 -1.00039	 19.39844	708.10498	 23.50	
 18.706	158.818	 15.97052	 -1.51660	 17.62620	 10.82554	  3.61720	 -1.01967	 19.41006	708.04901	 23.50	
 18.695	153.537	 15.98572	 -1.21296	 17.19540	 11.78544	  2.82520	 -1.04955	 19.40069	708.07703	 23.50	
 18.704	148.255	 15.98703	 -0.86156	 16.67115	 12.71332	  2.07572	 -1.07665	 19.38766	708.08502	 23.50	
 18.698	142.952	 16.01922	 -0.41721	 16.06436	 13.62756	  1.38719	 -1.08394	 19.40063	708.11102	 23.50	
 18.699	137.625	 16.05861	  0.08819	 15.39304	 14.49945	  0.75591	 -1.10557	 19.42753	708.06097	 23.50	
 18.705	132.343	 16.08081	  0.66017	 14.63900	 15.26695	  0.20723	 -1.11065	 19.43186	707.96698	 23.50	
 18.713	127.067	 16.06145	  1.29925	 13.78678	 15.95237	 -0.30573	 -1.09937	 19.40392	707.91901	 23.50	
 18.700	121.794	 16.09142	  2.02051	 12.91622	 16.58874	 -0.72152	 -1.06971	 19.42278	707.96503	 23.50	
 18.698	116.504	 16.10013	  2.79311	 11.98202	 17.12734	 -1.08958	 -1.03075	 19.42271	708.08502	 23.50	
 18.707	111.165	 16.07869	  3.61511	 10.98905	 17.54153	 -1.39150	 -0.98302	 19.38217	708.08502	 23.50	
 18.690	105.863	 16.11285	  4.49310	 10.01620	 17.88733	 -1.60236	 -0.95556	 19.40482	708.03497	 23.50	
 18.696	100.583	 16.12510	  5.38717	  9.02221	 18.13442	 -1.75550	 -0.94576	 19.40970	707.98199	 23.50	
 18.700	 95.309	 16.13682	  6.33963	  8.03151	 18.27964	 -1.83832	 -0.96812	 19.41479	708.03302	 23.50	
 18.700	 90.000	 16.11266	  7.29913	  7.02659	 18.29189	 -1.85135	 -0.97632	 19.38670	707.93903	 23.50	
 18.700	 84.691	 16.12407	  8.29970	  6.05381	 18.26287	 -1.83905	 -0.85236	 19.39789	707.97101	 23.60	
 18.696	 79.417	 16.11417	  9.30186	  5.09622	 18.09883	 -1.73969	 -0.85553	 19.37448	708.02600	 23.60	
 18.690	 74.137	 16.10816	 10.30017	  4.20484	 17.85320	 -1.57533	 -0.85984	 19.37756	707.86401	 23.60	
 18.707	 68.835	 16.11949	 11.27134	  3.33775	 17.54259	 -1.34656	 -0.84347	 19.41175	707.88397	 23.60	
 18.698	 63.496	 16.11314	 12.22868	  2.52012	 17.09454	 -1.04259	 -0.84808	 19.40770	708.09998	 23.60	
 18.700	 58.206	 16.09739	 13.14354	  1.75719	 16.54949	 -0.67780	 -0.83331	 19.39990	708.16803	 23.60	
 18.713	 52.933	 16.09707	 14.02767	  1.05130	 15.93222	 -0.24825	 -0.81918	 19.41040	708.02899	 23.60	
 18.705	 47.657	 16.08540	 14.83850	  0.43660	 15.22346	  0.26185	 -0.79560	 19.40824	708.20203	 23.60	
 18.699	 42.375	 16.07710	 15.58027	 -0.12183	 14.45888	  0.81798	 -0.78490	 19.41825	708.21600	 23.60	
 18.698	 37.048	 16.05787	 16.26054	 -0.61651	 13.61296	  1.44386	 -0.75240	 19.42223	708.11902	 23.60	
 18.704	 31.745	 16.01951	 16.83738	 -1.04038	 12.69092	  2.14747	 -0.70722	 19.39265	708.08899	 23.60	
 18.695	 26.463	 16.01632	 17.34810	 -1.39488	 11.75869	  2.90491	 -0.66528	 19.40413	708.15100	 23.60	
 18.706	 21.182	 15.99022	 17.74500	 -1.68780	 10.79332	  3.67528	 -0.63252	 19.39531	707.94299	 23.60	
 18.691	 15.915	 15.98312	 18.05565	 -1.90731	  9.79682	  4.53062	 -0.58438	 19.39209	707.99500	 23.60	
 18.703	 10.559	 15.96194	 18.28393	 -2.07630	  8.79672	  5.42549	 -0.55169	 19.39353	708.04401	 23.60	
 18.709	  5.325	 15.96149	 18.41329	 -2.18169	  7.80250	  6.33368	 -0.55593	 19.41452	707.65900	 23.60	
 18.700	  0.000	 15.93357	 18.40975	 -2.21329	  6.78112	  7.31344	 -0.57132	 19.37719	707.52502	 23.60	
 18.709	 -5.325	 15.93697	 18.36089	 -2.18161	  5.80765	  8.30638	 -0.58819	 19.39015	708.11902	 23.60	
 18.703	-10.559	 15.93678	 18.20936	 -2.08834	  4.87632	  9.28666	 -0.61187	 19.39908	708.31702	 23.60	
 18.691	-15.915	 15.94956	 17.95576	 -1.93076	  3.95057	 10.29956	 -0.63818	 19.41162	708.01300	 23.60	
 18.706	-21.182	 15.93431	 17.60526	 -1.70571	  3.09264	 11.25847	 -0.65781	 19.39763	706.51300	 23.60	
 18.695	-26.463	 15.91950	 17.14338	 -1.42251	  2.28831	 12.19409	 -0.65747	 19.38772	707.97400	 23.60	
 18.704	-31.745	 15.92209	 16.62152	 -1.08464	  1.50747	 13.13770	 -0.66831	 19.40983	708.15601	 23.60	
 18.698	-37.048	 15.90201	 15.98829	 -0.65155	  0.81343	 14.00553	 -0.65821	 19.40505	707.50598	 23.70	
 18.699	-42.375	 15.89559	 15.28611	 -0.15925	  0.18752	 14.82223	 -0.63006	 19.40893	707.97302	 23.70	
 18.705	-47.657	 15.88446	 14.51494	  0.38539	 -0.38298	 15.58208	 -0.61997	 19.41710	708.04401	 23.70	
 18.713	-52.933	 15.83920	 13.65806	  0.99477	 -0.89521	 16.24130	 -0.57758	 19.39956	708.04999	 23.70	
 18.700	-58.206	 15.82205	 12.76626	  1.68606	 -1.31696	 16.83349	 -0.56260	 19.40167	706.56897	 23.70	
 18.698	-63.496	 15.82123	 11.84543	  2.44926	 -1.67129	 17.35329	 -0.55439	 19.41158	708.13599	 23.70	
 18.707	-68.835	 15.78911	 10.86507	  3.26083	 -1.97864	 17.76459	 -0.51891	 19.40509	706.54401	 23.70	
 18.690	-74.137	 15.76077	  9.86315	  4.13996	 -2.18800	 18.06568	 -0.53032	 19.37884	708.08502	 23.70	
 18.696	-79.417	 15.78827	  8.89282	  5.04107	 -2.36728	 18.34649	 -0.55208	 19.44266	708.15002	 23.70	
 18.700	-84.691	 15.73179	  7.83426	  5.95555	 -2.46212	 18.43052	 -0.56135	 19.38798	708.12299	 23.70	
 18.700	-90.000	 15.74395	  6.85713	  6.94084	 -2.49775	 18.49967	 -0.57188	 19.41869	708.16199	 23.70	
 18.700	-95.309	 15.73969	  5.90250	  7.92794	 -2.47415	 18.44779	 -0.58822	 19.41428	707.22699	 23.70	
 18.696	-100.583	 15.70684	  4.97088	  8.90684	 -2.37236	 18.27111	 -0.62948	 19.39126	708.03601	 23.70	
 18.690	-105.863	 15.73152	  4.09262	  9.92347	 -2.21196	 18.06478	 -0.66266	 19.42228	708.01001	 23.70	
 18.707	-111.165	 15.70470	  3.24315	 10.89822	 -1.98415	 17.71315	 -0.71550	 19.40271	708.13000	 23.70	
 18.698	-116.504	 15.70885	  2.45299	 11.86248	 -1.68393	 17.27846	 -0.76986	 19.40160	708.15900	 23.70	
 18.700	-121.794	 15.72461	  1.71546	 12.78677	 -1.33552	 16.77512	 -0.79863	 19.41267	706.89801	 23.70	
 18.713	-127.067	 15.72637	  1.04484	 13.67704	 -0.90587	 16.17438	 -0.81944	 19.41252	707.72601	 23.70	
 18.705	-132.343	 15.73068	  0.43004	 14.50873	 -0.39623	 15.48584	 -0.87208	 19.40540	706.52399	 23.70	
 18.699	-137.625	 15.72269	 -0.10514	 15.25746	  0.18576	 14.70651	 -0.93097	 19.38884	706.33899	 23.70	
 18.698	-142.952	 15.75444	 -0.58605	 15.97279	  0.81096	 13.91151	 -0.93221	 19.41404	708.02399	 23.70	
 18.704	-148.255	 15.77487	 -1.01309	 16.60230	  1.51480	 13.04638	 -0.93052	 19.41477	706.52698	 23.70	
 18.695	-153.537	 15.77734	 -1.35770	 17.12000	  2.28521	 12.11229	 -0.90216	 19.40158	707.74500	 23.70	
 18.706	-158.818	 15.79232	 -1.64118	 17.55897	  3.09896	 11.16736	 -0.88229	 19.39980	706.76398	 23.70	
 18.691	-164.085	 15.81660	 -1.83407	 17.89892	  3.95324	 10.21546	 -0.86303	 19.40486	706.73199	 23.70	
 18.703	-169.441	 15.81929	 -2.00114	 18.14366	  4.86787	  9.21676	 -0.86380	 19.39092	706.45099	 23.70	
 18.709	-174.675	 15.85438	 -2.08074	 18.30095	  5.81378	  8.26015	 -0.87134	 19.40562	706.37000	 23.70	
 18.700	180.000	 15.88155	 -2.08630	 18.34776	  6.78669	  7.27200	 -0.89781	 19.40153	706.52100	 23.70	
 20.400	180.000	 15.19260	 -3.01632	 18.72225	  6.27671	  6.74287	 -0.86564	 19.41544	706.28198	 23.70	
 20.401	-175.153	 15.16166	 -3.00439	 18.67737	  5.31805	  7.68310	 -0.83031	 19.41607	706.40002	 23.70	
 20.407	-170.264	 15.12153	 -2.95507	 18.53689	  4.36755	  8.63878	 -0.82918	 19.40157	706.39099	 23.70	
 20.410	-165.423	 15.10423	 -2.85167	 18.31885	  3.46798	  9.61927	 -0.81435	 19.40965	706.40002	 23.70	
 20.392	-160.496	 15.11612	 -2.68286	 18.02689	  2.62889	 10.59411	 -0.82731	 19.43620	706.46698	 23.70	
 20.401	-155.705	 15.05849	 -2.46796	 17.59975	  1.81146	 11.50092	 -0.84297	 19.39814	706.35602	 23.70	
 20.405	-150.835	 15.07065	 -2.18414	 17.14472	  1.04244	 12.45876	 -0.86599	 19.43564	706.47900	 23.70	
 20.397	-145.903	 15.03668	 -1.80457	 16.54083	  0.33052	 13.34583	 -0.90456	 19.40899	706.37500	 23.70	
 20.392	-141.062	 15.02672	 -1.38886	 15.90286	 -0.31071	 14.18968	 -0.92423	 19.40767	706.45898	 23.70	
 20.396	-136.227	 15.01840	 -0.90965	 15.17989	 -0.90407	 14.98495	 -0.94500	 19.41219	706.49799	 23.70	
 20.408	-131.372	 14.99101	 -0.37976	 14.39189	 -1.45003	 15.72027	 -0.93016	 19.40189	706.43201	 23.70	
 20.410	-126.511	 15.02587	  0.21458	 13.58771	 -1.92098	 16.42747	 -0.92080	 19.44697	706.42603	 23.70	
 20.400	-121.604	 15.00835	  0.87421	 12.67784	 -2.31884	 17.00443	 -0.90211	 19.42112	706.40802	 23.70	
 20.403	-116.741	 15.01290	  1.59015	 11.75906	 -2.66415	 17.54000	 -0.84112	 19.43615	706.35199	 23.70	
 20.413	-111.900	 14.97974	  2.33972	 10.79620	 -2.94933	 17.94594	 -0.78033	 19.40562	706.35199	 23.70	
 20.398	-107.004	 14.98360	  3.15459	  9.81374	 -3.15869	 18.29305	 -0.70528	 19.40512	706.38599	 23.70	
 20.394	-102.132	 14.97576	  4.00125	  8.82427	 -3.32390	 18.54207	 -0.63949	 19.39783	706.44202	 23.70	
 20.403	-97.332	 14.97507	  4.86557	  7.85526	 -3.44442	 18.70230	 -0.58930	 19.38924	706.39203	 23.70	
 20.392	-92.440	 14.99325	  5.79585	  6.88379	 -3.50182	 18.79512	 -0.56161	 19.39117	706.45099	 23.70	
 20.392	-87.560	 14.98754	  6.75540	  5.90068	 -3.50567	 18.79222	 -0.55595	 19.37443	706.39801	 23.70	
 20.403	-82.668	 15.03203	  7.79253	  4.97861	 -3.44821	 18.76912	 -0.53779	 19.43305	706.33197	 23.70	
 20.394	-77.868	 15.03168	  8.74587	  4.07246	 -3.32707	 18.58730	 -0.52897	 19.40284	706.35199	 23.70	
 20.398	-72.996	 15.02816	  9.73077	  3.18933	 -3.16121	 18.31750	 -0.51499	 19.37349	706.40100	 23.70	
 20.413	-68.100	 15.07283	 10.73341	  2.35973	 -2.94802	 18.01110	 -0.54288	 19.40741	706.43402	 23.70	
 20.403	-63.259	 15.09390	 11.68046	  1.58760	 -2.65209	 17.57757	 -0.56419	 19.38973	706.39099	 23.70	
 20.400	-58.396	 15.13574	 12.63606	  0.86152	 -2.30555	 17.09677	 -0.56790	 19.41752	706.35498	 23.70	
 20.410	-53.489	 15.14317	 13.50517	  0.17811	 -1.90622	 16.49605	 -0.58595	 19.40443	706.42200	 23.70	
 20.408	-48.628	 15.16447	 14.36384	 -0.43317	 -1.44991	 15.84754	 -0.60518	 19.41808	707.69501	 23.70	
 20.396	-43.773	 15.17919	 15.14529	 -0.96223	 -0.91443	 15.11155	 -0.63392	 19.40784	706.41400	 23.70	
 20.392	-38.938	 15.19806	 15.87402	 -1.44200	 -0.32049	 14.31854	 -0.63619	 19.40617	706.51898	 23.70	
 20.397	-34.097	 15.21117	 16.53882	 -1.84291	  0.31704	 13.48627	 -0.63092	 19.41326	706.49298	 23.70	
 20.405	-29.165	 15.21061	 17.12173	 -2.19817	  1.02356	 12.57988	 -0.64860	 19.39779	706.50403	 23.70	
 20.401	-24.295	 15.21442	 17.60962	 -2.48960	  1.78779	 11.63792	 -0.63060	 19.38667	706.52600	 23.70	
 20.392	-19.504	 15.24191	 18.02761	 -2.71641	  2.59633	 10.71458	 -0.62326	 19.41184	706.51898	 23.70	
 20.410	-14.577	 15.23916	 18.35672	 -2.91742	  3.44799	  9.75261	 -0.60978	 19.40695	706.50500	 23.70	
 20.407	 -9.736	 15.25131	 18.60480	 -3.04901	  4.35617	  8.76660	 -0.58754	 19.42267	706.42200	 23.70	
 20.401	 -4.847	 15.22963	 18.71106	 -3.12466	  5.28414	  7.76320	 -0.57044	 19.39106	706.51599	 23.80	
 20.400	  0.000	 15.24342	 18.78065	 -3.16036	  6.23994	  6.80464	 -0.57294	 19.40505	706.52600	 23.80	
 20.401	  4.847	 15.25775	 18.77514	 -3.12820	  7.23289	  5.84775	 -0.56500	 19.42414	706.49500	 23.70	
 20.407	  9.736	 15.26639	 18.67616	 -3.04143	  8.20692	  4.93457	 -0.56125	 19.41998	706.53601	 23.80	
 20.410	 14.577	 15.28052	 18.48118	 -2.91697	  9.20642	  4.05685	 -0.54419	 19.42369	706.49500	 23.70	
 20.392	 19.504	 15.28810	 18.18370	 -2.71979	 10.20622	  3.20302	 -0.52105	 19.41254	706.46301	 23.70	
 20.401	 24.295	 15.31110	 17.83710	 -2.49362	 11.15775	  2.43502	 -0.54512	 19.42022	706.45599	 23.80	
 20.405	 29.165	 15.31483	 17.37492	 -2.20577	 12.10472	  1.67758	 -0.59019	 19.41235	706.40302	 23.70	
 20.397	 34.097	 15.33336	 16.81762	 -1.83367	 13.04606	  0.96055	 -0.63275	 19.41262	706.43701	 23.80	
 20.392	 38.938	 15.34998	 16.20201	 -1.41752	 13.90654	  0.32200	 -0.70284	 19.40644	706.55701	 23.80	
 20.396	 43.773	 15.37594	 15.51816	 -0.92414	 14.72412	 -0.25052	 -0.75550	 19.41984	706.63898	 23.80	
 20.408	 48.628	 15.36504	 14.74067	 -0.38677	 15.48040	 -0.79429	 -0.81563	 19.39945	706.56598	 23.80	
 20.410	 53.489	 15.37670	 13.92314	  0.21199	 16.17922	 -1.27442	 -0.87100	 19.40695	706.50403	 23.80	
 20.400	 58.396	 15.38385	 13.03545	  0.89938	 16.79140	 -1.68260	 -0.92478	 19.39299	706.48999	 23.80	
 20.403	 63.259	 15.38990	 12.11469	  1.63022	 17.32010	 -2.02470	 -0.94871	 19.37808	706.48798	 23.80	
 20.413	 68.100	 15.41823	 11.19361	  2.41047	 17.78705	 -2.30237	 -0.95755	 19.40390	706.48199	 23.70	
 20.398	 72.996	 15.41317	 10.21229	  3.25117	 18.13233	 -2.53821	 -0.94236	 19.38936	706.48999	 23.70	
 20.394	 77.868	 15.42258	  9.23293	  4.13193	 18.41617	 -2.72657	 -0.92288	 19.40798	706.40601	 23.80	
 20.403	 82.668	 15.44006	  8.25868	  5.03026	 18.60774	 -2.84984	 -0.90531	 19.41867	706.45398	 23.70	
 20.392	 87.560	 15.41895	  7.26383	  5.98533	 18.65627	 -2.88248	 -0.87539	 19.38688	706.51898	 23.70	
 20.392	 92.440	 15.44350	  6.30227	  6.97355	 18.68651	 -2.89252	 -0.85324	 19.40905	706.48798	 23.80	
 20.403	 97.332	 15.44438	  5.35064	  7.96113	 18.61371	 -2.85151	 -0.83591	 19.41420	706.54102	 23.80	
 20.394	102.132	 15.44049	  4.45441	  8.93232	 18.43494	 -2.73806	 -0.83793	 19.41181	706.42603	 23.70	
 20.398	107.004	 15.42933	  3.57426	  9.92108	 18.17470	 -2.57625	 -0.85859	 19.40812	706.56403	 23.80	
 20.413	111.900	 15.39216	  2.73565	 10.88960	 17.79077	 -2.34605	 -0.89973	 19.37616	706.51801	 23.80	
 20.403	116.741	 15.41582	  1.95213	 11.85748	 17.39240	 -2.07008	 -0.94653	 19.41273	706.48102	 23.80	
 20.400	121.604	 15.40942	  1.19408	 12.79516	 16.87193	 -1.73873	 -0.99265	 19.42725	706.48102	 23.70	
 20.410	126.511	 15.40403	  0.49255	 13.70107	 16.26557	 -1.34083	 -1.03517	 19.44570	706.45599	 23.70	
 20.408	131.372	 15.37502	 -0.13389	 14.51882	 15.54926	 -0.86012	 -1.06005	 19.41224	706.48199	 23.80	
 20.396	136.227	 15.35437	 -0.68111	 15.28850	 14.77673	 -0.32006	 -1.08762	 19.39724	706.53601	 23.70	
 20.392	141.062	 15.34131	 -1.18218	 15.99559	 13.96977	  0.25392	 -1.09262	 19.40291	706.56403	 23.70	
 20.397	145.903	 15.33054	 -1.61748	 16.63999	 13.11042	  0.87534	 -1.09709	 19.41796	706.70502	 23.70	
 20.405	150.835	 15.29867	 -1.99251	 17.19765	 12.16690	  1.58070	 -1.08439	 19.40093	706.70898	 23.70	
 20.401	155.705	 15.29384	 -2.29781	 17.68717	 11.22026	  2.34325	 -1.07854	 19.41250	706.72400	 23.80	
 20.392	160.496	 15.26360	 -2.54349	 18.04517	 10.26974	  3.11905	 -1.02381	 19.39636	706.66498	 23.80	
 20.410	165.423	 15.23801	 -2.74884	 18.35472	  9.27382	  3.98217	 -0.99448	 19.40094	706.53497	 23.80	
 20.407	170.264	 15.23050	 -2.87939	 18.56834	  8.25866	  4.86885	 -0.95706	 19.41394	706.57501	 23.80	
 20.401	175.153	 15.20484	 -2.97732	 18.67603	  7.26642	  5.78221	 -0.92469	 19.40693	706.59100	 23.80	
  0.141	 45.000	 19.42392	 10.34832	 10.05979	 10.06354	 10.38394	  0.15661	 19.40224	706.59802	 23.80	
  4.001	128.691	 19.40758	  8.77589	 11.46114	 11.65079	  8.67842	  0.08162	 19.42496	706.73798	 23.80	
  4.002	 76.995	 19.41049	 10.68621	  9.43849	 12.13924	  8.25501	  0.08743	 19.42578	706.68103	 23.80	
  4.002	 25.892	 19.39101	 12.24363	  7.93732	 10.82356	  9.40061	  0.09146	 19.41269	706.56897	 23.80	
  4.002	-25.892	 19.36739	 12.19265	  7.95080	  8.92176	 11.29813	  0.02458	 19.40580	706.62598	 23.80	
  4.002	-76.995	 19.35455	 10.63327	  9.38732	  7.72457	 12.61901	  0.03085	 19.42280	706.50403	 23.80	
  4.001	-128.691	 19.37180	  8.73970	 11.45368	  8.13945	 12.15065	  0.08545	 19.43815	706.62201	 23.80	
  4.000	180.000	 19.34397	  7.91458	 12.35476	  9.79257	 10.27239	  0.11199	 19.38895	706.61401	 23.80	
  8.000	180.000	 18.93656	  5.25568	 14.44552	  9.31460	  9.84415	 -0.16076	 19.41076	706.66498	 23.80	
  7.991	-152.370	 18.90410	  5.67173	 13.85334	  7.16290	 12.02270	 -0.15828	 19.41745	706.63898	 23.80	
  7.997	-124.550	 18.90680	  6.95348	 12.24389	  5.51725	 13.85143	 -0.20779	 19.43979	706.64203	 23.80	
  8.006	-96.837	 18.86270	  9.02149	  9.99506	  4.91873	 14.69435	 -0.29809	 19.40776	706.69299	 23.80	
  7.988	-69.228	 18.89743	 11.20256	  7.78517	  5.18508	 14.42697	 -0.33757	 19.41930	706.63702	 23.80	
  7.997	-41.563	 18.94506	 13.22739	  6.12304	  6.33955	 13.07584	 -0.26847	 19.43045	706.63599	 23.80	
  8.008	-13.821	 18.98209	 14.40138	  5.11706	  8.32415	 10.98806	 -0.21271	 19.43752	706.74103	 23.80	
  8.008	 13.821	 18.95309	 14.41141	  5.14122	 10.45115	  8.77801	 -0.15207	 19.38616	706.71301	 23.80	
  7.997	 41.563	 19.00238	 13.33980	  6.12434	 12.58390	  6.91123	 -0.17385	 19.40002	706.61603	 23.80	
  7.988	 69.228	 19.01892	 11.38071	  7.83910	 13.98023	  5.78074	 -0.21632	 19.40076	706.65997	 23.80	
  8.006	 96.837	 19.00683	  9.18211	 10.03066	 14.27035	  5.53399	 -0.28295	 19.38564	706.72998	 23.80	
  7.997	124.550	 19.01502	  7.07704	 12.26240	 13.40794	  6.16202	 -0.27216	 19.40988	706.59802	 23.80	
  7.991	152.370	 18.96018	  5.68750	 13.86047	 11.52916	  7.77169	 -0.18909	 19.39501	706.62598	 23.80	
 12.009	161.059	 18.13205	  2.68662	 15.81549	 10.91441	  6.96736	 -0.52877	 19.39390	706.53302	 23.80	
 12.013	142.081	 18.19307	  3.66462	 14.64624	 13.15941	  4.89570	 -0.60615	 19.42193	706.63898	 23.80	
 12.006	123.113	 18.22361	  5.23398	 12.80171	 14.85104	  3.53107	 -0.72716	 19.40223	706.61902	 23.80	
 12.007	104.200	 18.24737	  7.26805	 10.56300	 15.88746	  2.70287	 -0.77333	 19.40077	706.61401	 23.80	
 11.989	 85.301	 18.25797	  9.62417	  8.19448	 16.09219	  2.58580	 -0.73677	 19.39735	706.65900	 23.80	
 12.013	 66.294	 18.24583	 11.93279	  5.96575	 15.46021	  3.06471	 -0.57498	 19.40053	706.62799	 23.80	
 12.012	 47.388	 18.21445	 13.97805	  4.19927	 14.04834	  4.17769	 -0.49847	 19.39123	706.74701	 23.80	
 11.990	 28.440	 18.17682	 15.47093	  2.96191	 12.07023	  5.83588	 -0.56011	 19.40032	706.64502	 23.80	
 11.991	  9.464	 18.13873	 16.25049	  2.32064	  9.77939	  7.99905	 -0.56255	 19.38602	706.58398	 23.80	
 11.991	 -9.464	 18.14065	 16.21815	  2.31168	  7.43677	 10.28442	 -0.57171	 19.40965	706.61102	 23.80	
 11.990	-28.440	 18.12948	 15.36188	  2.91393	  5.24165	 12.56051	 -0.55678	 19.43105	706.65002	 23.80	
 12.012	-47.388	 18.07707	 13.77610	  4.16068	  3.54200	 14.49346	 -0.58721	 19.41014	706.64697	 23.80	
 12.013	-66.294	 18.02691	 11.66754	  5.90495	  2.47358	 15.84166	 -0.70158	 19.39998	706.68402	 23.80	
 11.989	-85.301	 18.00993	  9.36182	  8.12863	  2.01257	 16.41780	 -0.70099	 19.40338	706.51599	 23.80	
 12.007	-104.200	 17.98671	  7.00254	 10.48997	  2.09783	 16.22618	 -0.60532	 19.41007	706.60303	 23.80	
 12.006	-123.113	 17.99470	  4.98022	 12.73185	  2.89548	 15.22447	 -0.53003	 19.41359	706.50800	 23.80	
 12.013	-142.081	 18.01979	  3.53681	 14.58734	  4.31114	 13.52199	 -0.52391	 19.40202	706.61902	 23.80	
 12.009	-161.059	 18.06467	  2.62320	 15.80177	  6.24158	 11.38902	 -0.50276	 19.42057	706.74103	 23.80	
 16.000	180.000	 16.86166	 -0.49919	 17.60235	  7.56175	  8.07066	 -0.83058	 19.38930	706.69000	 23.80	
 15.990	-165.604	 16.83367	 -0.24456	 17.29302	  5.29987	 10.37028	 -0.82423	 19.40166	706.84399	 23.80	
 16.002	-151.165	 16.79261	  0.41739	 16.35775	  3.26617	 12.63091	 -0.85380	 19.40423	706.71301	 23.80	
 16.002	-136.836	 16.75512	  1.51922	 14.85891	  1.59921	 14.62883	 -0.82912	 19.40010	706.78003	 23.80	
 15.995	-122.439	 16.73674	  3.02877	 12.90994	  0.34150	 16.20835	 -0.78035	 19.38963	706.77197	 23.80	
 15.993	-107.966	 16.71660	  4.91627	 10.64403	 -0.47838	 17.29598	 -0.81187	 19.37952	706.69897	 23.80	
 16.005	-93.629	 16.73934	  7.06745	  8.31268	 -0.84839	 17.78440	 -0.78793	 19.40433	706.71503	 23.80	
 15.992	-79.234	 16.76384	  9.44093	  6.01853	 -0.74620	 17.66296	 -0.75396	 19.40689	706.77802	 23.80	
 16.009	-64.774	 16.79774	 11.78469	  3.93550	 -0.13391	 16.90475	 -0.73778	 19.39867	706.63397	 23.80	
 15.997	-50.364	 16.87068	 13.94207	  2.22383	  0.94856	 15.57931	 -0.71320	 19.41192	706.66199	 23.80	
 15.997	-36.045	 16.90406	 15.68516	  0.85168	  2.39291	 13.77475	 -0.69642	 19.40243	706.72601	 23.80	
 16.000	-21.597	 16.90883	 16.92157	 -0.04285	  4.24006	 11.60243	 -0.73935	 19.37834	706.77698	 23.80	
 16.003	 -7.169	 16.93856	 17.61077	 -0.53502	  6.40892	  9.29354	 -0.72064	 19.40278	706.82501	 23.80	
 16.003	  7.169	 16.95361	 17.66230	 -0.55023	  8.80546	  6.95314	 -0.66763	 19.40319	706.84198	 23.80	
 16.000	 21.597	 16.98970	 17.08150	 -0.02775	 11.12711	  4.85019	 -0.69029	 19.39955	706.79401	 23.80	
 15.997	 36.045	 17.01552	 15.89769	  0.89548	 13.32500	  3.03374	 -0.72951	 19.38761	706.73297	 23.80	
 15.997	 50.364	 17.05743	 14.22571	  2.26244	 15.20597	  1.57611	 -0.75668	 19.40110	706.77100	 23.80	
 16.009	 64.774	 17.07290	 12.14092	  3.99595	 16.58535	  0.54310	 -0.85431	 19.39627	706.79999	 23.80	
 15.992	 79.234	 17.10712	  9.85742	  6.08281	 17.41394	 -0.07117	 -1.00176	 19.42516	706.76801	 23.80	
 16.005	 93.629	 17.10199	  7.46598	  8.40512	 17.56115	 -0.19796	 -0.95815	 19.42044	706.81702	 23.80	
 15.993	107.966	 17.08445	  5.25903	 10.76671	 17.07311	  0.16274	 -0.90438	 19.39812	706.79401	 23.80	
 15.995	122.439	 17.08362	  3.32095	 13.02979	 16.00465	  0.94551	 -0.91994	 19.43065	706.87000	 23.80	
 16.002	136.836	 17.03962	  1.73070	 14.96390	 14.35237	  2.18216	 -0.88743	 19.42271	706.90900	 23.80	
 16.002	151.165	 17.00370	  0.56192	 16.43313	 12.30589	  3.82545	 -0.85665	 19.41689	706.83301	 23.80	
 15.990	165.604	 16.94559	 -0.20483	 17.34100	  9.98622	  5.80606	 -0.88458	 19.41064	706.84003	 23.80	
 20.003	168.362	 15.40560	 -2.61733	 18.41922	  8.75572	  4.67005	 -1.00532	 19.41215	706.86200	 23.80	
 20.008	156.764	 15.43715	 -2.15721	 17.69654	 11.04915	  2.68259	 -1.03516	 19.40213	706.73199	 23.80	
 20.000	145.147	 15.47854	 -1.34776	 16.49316	 13.24771	  0.97531	 -1.03310	 19.39638	706.78497	 23.80	
 19.995	133.545	 15.53449	 -0.17485	 14.86016	 15.18581	 -0.40549	 -0.97568	 19.40440	706.90900	 23.80	
 20.009	121.926	 15.55422	  1.32639	 12.86737	 16.76722	 -1.50250	 -0.90222	 19.41360	706.90198	 23.80	
 20.005	110.327	 15.60659	  3.16688	 10.67921	 17.90154	 -2.20688	 -0.79423	 19.44203	706.90601	 23.80	
 19.989	 98.733	 15.61086	  5.23051	  8.35224	 18.48858	 -2.59066	 -0.73169	 19.41689	706.83301	 23.80	
 19.999	 87.075	 15.61532	  7.48367	  6.04948	 18.59609	 -2.64234	 -0.78723	 19.41229	706.84998	 23.80	
 19.992	 75.457	 15.62234	  9.80856	  3.89240	 18.22495	 -2.38196	 -0.85676	 19.41950	706.84802	 23.80	
 20.009	 63.844	 15.60699	 12.06275	  1.93770	 17.35779	 -1.82281	 -0.88170	 19.43009	707.13098	 23.80	
 19.989	 52.269	 15.59086	 14.15034	  0.28906	 16.00630	 -0.92448	 -0.84955	 19.43602	706.89301	 23.80	
 19.999	 40.602	 15.51141	 15.91645	 -1.02376	 14.18880	  0.33141	 -0.76438	 19.38885	706.76001	 23.80	
 20.004	 29.051	 15.50726	 17.33446	 -1.97687	 12.14400	  1.88100	 -0.66846	 19.43206	707.01300	 23.80	
 20.005	 17.433	 15.46662	 18.25868	 -2.59230	  9.86991	  3.71763	 -0.59103	 19.43253	706.84698	 23.80	
 20.006	  5.780	 15.42223	 18.66680	 -2.88741	  7.53317	  5.80159	 -0.59312	 19.40728	706.80603	 23.80	
 20.006	 -5.780	 15.41018	 18.63157	 -2.90350	  5.26048	  8.05033	 -0.59886	 19.40523	706.86700	 23.80	
 20.005	-17.433	 15.41856	 18.13279	 -2.60757	  3.12500	 10.38579	 -0.63309	 19.43206	706.77802	 23.80	
 20.004	-29.051	 15.38960	 17.09240	 -1.99200	  1.24590	 12.59321	 -0.66449	 19.41001	706.87097	 23.80	
 19.999	-40.602	 15.38301	 15.63733	 -1.05778	 -0.30391	 14.60026	 -0.67650	 19.42208	706.84698	 23.80	
 19.989	-52.269	 15.32345	 13.75042	  0.24552	 -1.56109	 16.29481	 -0.64936	 19.40395	706.89600	 23.80	
 20.009	-63.844	 15.27564	 11.62910	  1.87611	 -2.44630	 17.57673	 -0.56741	 19.40368	706.81598	 23.80	
 19.992	-75.457	 15.22957	  9.34737	  3.80892	 -2.99294	 18.39482	 -0.58061	 19.39791	707.03101	 23.80	
 19.999	-87.075	 15.19855	  7.00028	  5.95150	 -3.25953	 18.74345	 -0.59523	 19.40887	706.75403	 23.80	
 19.989	-98.733	 15.16286	  4.77888	  8.23830	 -3.17947	 18.59953	 -0.67744	 19.39552	706.92401	 23.80	
 20.005	-110.327	 15.17958	  2.79026	 10.55406	 -2.80671	 18.03269	 -0.81197	 19.43323	706.90399	 23.70	
 20.009	-121.926	 15.20004	  1.05195	 12.76479	 -2.06256	 16.94060	 -0.94446	 19.43158	707.10999	 23.70	
 19.995	-133.545	 15.17439	 -0.41736	 14.73722	 -0.99278	 15.37287	 -0.97390	 19.39549	706.92401	 23.70	
 20.000	-145.147	 15.20430	 -1.52974	 16.39933	  0.42915	 13.49818	 -0.96153	 19.40347	706.89502	 23.70	
 20.008	-156.764	 15.24314	 -2.29706	 17.63441	  2.16968	 11.35521	 -0.91276	 19.39902	706.82001	 23.70	
 20.003	-168.362	 15.29893	 -2.69429	 18.38688	  4.17073	  9.12182	 -0.91577	 19.41550	706.88098	 23.70	
 20.000	180.000	 15.33843	 -2.81004	 18.61352	  6.39513	  6.84998	 -0.95569	 19.39445	706.86700	 23.70	
