FileType=PCF
NHL=14
Date=08/25/17	15:55:46
Facility=APL
Serial=16328-6
Customer=NASA
NP=6
Mach=0.050000
Calibration=1:1
CalPts=490
TstPts=95
PortNumbering=AP Standard
Units=Torr C m/s kg/m^3 deg mm 
Theta[deg]	Phi[deg]	P1[Torr]	P2[Torr]	P3[Torr]	P4[Torr]	P5[Torr]	P6[Torr]	Pt[Torr]	Ps[Abs,Torr]	Ts[C]	
  0.000	  0.000	  1.26472	  0.68518	  0.68163	  0.67652	  0.69486	  0.00421	  1.25617	706.38397	 23.10	
  1.691	128.401	  1.26227	  0.64990	  0.70548	  0.70326	  0.65663	  0.00536	  1.25339	706.53497	 23.10	
  1.692	 77.194	  1.26770	  0.69328	  0.66594	  0.71685	  0.65130	  0.00604	  1.25972	706.54999	 23.10	
  1.699	 26.182	  1.26310	  0.72685	  0.62854	  0.68301	  0.67287	  0.00178	  1.25490	706.53601	 23.10	
  1.699	-26.182	  1.26427	  0.73073	  0.62633	  0.63909	  0.72183	  0.00444	  1.25573	706.52399	 23.10	
  1.692	-77.194	  1.26496	  0.69130	  0.66050	  0.61170	  0.75255	  0.00488	  1.25746	706.44299	 23.10	
  1.691	-128.401	  1.26210	  0.64392	  0.70659	  0.61786	  0.74011	  0.00508	  1.25372	706.59100	 23.10	
  1.700	180.000	  1.26200	  0.62760	  0.72837	  0.66181	  0.69326	  0.00497	  1.25435	706.45599	 23.10	
  3.400	180.000	  1.26025	  0.55818	  0.79105	  0.65445	  0.68724	  0.00202	  1.25391	708.16699	 23.10	
  3.388	-152.325	  1.26017	  0.56841	  0.77661	  0.59878	  0.74484	  0.00216	  1.25472	706.55200	 23.10	
  3.397	-124.529	  1.25849	  0.60278	  0.73424	  0.55770	  0.79013	  0.00138	  1.25272	706.62299	 23.10	
  3.399	-96.763	  1.26145	  0.65582	  0.68132	  0.53969	  0.81573	  0.00147	  1.25661	707.98999	 23.10	
  3.394	-69.283	  1.26356	  0.71519	  0.62501	  0.54830	  0.80879	 -0.00094	  1.25852	707.55701	 23.10	
  3.400	-41.398	  1.26239	  0.76470	  0.58031	  0.57852	  0.77383	  0.00136	  1.25702	708.06097	 23.10	
  3.401	-14.021	  1.26197	  0.79311	  0.55692	  0.62482	  0.72157	  0.00210	  1.25567	706.50403	 23.10	
  3.401	 14.021	  1.26301	  0.79643	  0.55558	  0.68311	  0.66371	  0.00193	  1.25614	706.39801	 23.10	
  3.400	 41.398	  1.26076	  0.76534	  0.58050	  0.73465	  0.61384	  0.00224	  1.25334	706.58398	 23.10	
  3.394	 69.283	  1.26237	  0.71805	  0.62658	  0.77116	  0.58593	  0.00318	  1.25554	706.51202	 23.10	
  3.399	 96.763	  1.26107	  0.65829	  0.68212	  0.77720	  0.57922	  0.00206	  1.25399	708.09698	 23.10	
  3.397	124.529	  1.26196	  0.61082	  0.73677	  0.75657	  0.59747	  0.00416	  1.25527	708.01001	 23.10	
  3.388	152.325	  1.25667	  0.57295	  0.77262	  0.70876	  0.63258	  0.00256	  1.25018	706.55798	 23.10	
  5.099	161.165	  1.25413	  0.49917	  0.83996	  0.70609	  0.62034	 -0.00245	  1.25374	706.43903	 23.10	
  5.109	142.013	  1.25711	  0.52831	  0.81000	  0.76408	  0.57194	 -0.00213	  1.25517	708.17798	 23.10	
  5.095	123.033	  1.25448	  0.56973	  0.76107	  0.80558	  0.53460	 -0.00203	  1.25290	706.58002	 23.10	
  5.105	104.191	  1.25753	  0.62330	  0.70480	  0.83363	  0.51415	 -0.00192	  1.25558	708.13599	 23.10	
  5.093	 85.207	  1.26271	  0.68584	  0.64592	  0.84153	  0.51185	 -0.00175	  1.25994	706.96100	 23.10	
  5.104	 66.290	  1.25696	  0.74194	  0.58547	  0.82268	  0.52085	 -0.00342	  1.25378	707.70001	 23.10	
  5.094	 47.331	  1.26059	  0.79840	  0.53993	  0.78866	  0.55479	 -0.00171	  1.25931	708.05200	 23.10	
  5.089	 28.397	  1.25771	  0.83555	  0.50374	  0.73666	  0.59814	 -0.00219	  1.25561	708.08899	 23.10	
  5.096	  9.576	  1.26000	  0.85681	  0.48668	  0.67796	  0.65487	 -0.00284	  1.25802	708.04102	 23.10	
  5.096	 -9.576	  1.25876	  0.85684	  0.48678	  0.61604	  0.71756	 -0.00304	  1.25772	707.74902	 23.10	
  5.089	-28.397	  1.25768	  0.83320	  0.50377	  0.56064	  0.77368	 -0.00466	  1.25794	707.98499	 23.10	
  5.094	-47.331	  1.25572	  0.79070	  0.53582	  0.51308	  0.82353	 -0.00566	  1.25745	706.47302	 23.10	
  5.104	-66.290	  1.25640	  0.73746	  0.58551	  0.48373	  0.86024	 -0.00647	  1.25763	707.96997	 23.10	
  5.093	-85.207	  1.25601	  0.67695	  0.64320	  0.47033	  0.87582	 -0.00630	  1.25829	706.47400	 23.00	
  5.105	-104.191	  1.25493	  0.61748	  0.70421	  0.47332	  0.87019	 -0.00466	  1.25690	708.08899	 23.10	
  5.095	-123.033	  1.25507	  0.56430	  0.76239	  0.49640	  0.84329	 -0.00326	  1.25670	708.07397	 23.00	
  5.109	-142.013	  1.25485	  0.52047	  0.81105	  0.53396	  0.79831	 -0.00258	  1.25679	708.09802	 23.00	
  5.099	-161.165	  1.25432	  0.49672	  0.84173	  0.58671	  0.74171	 -0.00184	  1.25486	706.30701	 23.00	
  5.100	180.000	  1.25880	  0.49119	  0.85458	  0.64754	  0.68286	 -0.00158	  1.25952	706.33197	 23.10	
  6.800	180.000	  1.24517	  0.41665	  0.91079	  0.63456	  0.66903	 -0.00777	  1.25695	706.38397	 23.10	
  6.796	-166.229	  1.24453	  0.41782	  0.90455	  0.57365	  0.72797	 -0.01005	  1.25717	708.06897	 23.00	
  6.808	-152.311	  1.24439	  0.43921	  0.88082	  0.52104	  0.78778	 -0.00764	  1.25756	706.31799	 23.00	
  6.795	-138.383	  1.24137	  0.46739	  0.84020	  0.47052	  0.83850	 -0.01033	  1.25476	707.84900	 23.00	
  6.792	-124.591	  1.23937	  0.50507	  0.79258	  0.43063	  0.88072	 -0.01332	  1.25400	708.13000	 23.00	
  6.787	-110.754	  1.24075	  0.56020	  0.73534	  0.40842	  0.91284	 -0.01151	  1.25636	706.33002	 23.00	
  6.800	-96.985	  1.23879	  0.61699	  0.67327	  0.39525	  0.92757	 -0.01356	  1.25317	708.08002	 23.00	
  6.800	-83.015	  1.24407	  0.67947	  0.61555	  0.39718	  0.93133	 -0.01399	  1.25776	706.30103	 23.00	
  6.787	-69.246	  1.24381	  0.74048	  0.55832	  0.41053	  0.91634	 -0.01257	  1.25729	707.20801	 23.00	
  6.792	-55.409	  1.24179	  0.79429	  0.50638	  0.43406	  0.88508	 -0.01446	  1.25446	706.27002	 23.00	
  6.795	-41.617	  1.24405	  0.84397	  0.46533	  0.47093	  0.84440	 -0.01294	  1.25618	706.36401	 23.00	
  6.808	-27.689	  1.24379	  0.88186	  0.43395	  0.51930	  0.79076	 -0.01103	  1.25476	707.89099	 23.00	
  6.796	-13.771	  1.24540	  0.90656	  0.41682	  0.57505	  0.73242	 -0.01079	  1.25507	707.79303	 23.00	
  6.800	  0.000	  1.24633	  0.91611	  0.41023	  0.63317	  0.67311	 -0.01094	  1.25570	707.09900	 23.00	
  6.796	 13.771	  1.24215	  0.90428	  0.41513	  0.69043	  0.61130	 -0.01017	  1.25040	706.33002	 23.00	
  6.808	 27.689	  1.25140	  0.88781	  0.43824	  0.75557	  0.55978	 -0.01033	  1.25823	707.77301	 23.00	
  6.795	 41.617	  1.24559	  0.84858	  0.46741	  0.80432	  0.51236	 -0.00839	  1.25211	706.37701	 23.00	
  6.792	 55.409	  1.25115	  0.80382	  0.51182	  0.85010	  0.47835	 -0.00796	  1.25750	707.86902	 23.00	
  6.787	 69.246	  1.24488	  0.74575	  0.55917	  0.87818	  0.44984	 -0.00823	  1.25094	707.83899	 23.00	
  6.800	 83.015	  1.24629	  0.68653	  0.61516	  0.89410	  0.43658	 -0.00986	  1.25332	707.98102	 23.00	
  6.800	 96.985	  1.24652	  0.62652	  0.67759	  0.89553	  0.43720	 -0.00927	  1.25243	707.57397	 23.00	
  6.787	110.754	  1.24377	  0.56796	  0.73540	  0.87692	  0.44878	 -0.00913	  1.25052	707.74902	 23.00	
  6.792	124.591	  1.24786	  0.51907	  0.79368	  0.84868	  0.47482	 -0.01165	  1.25561	707.82098	 23.00	
  6.795	138.383	  1.24811	  0.47811	  0.84314	  0.80710	  0.51096	 -0.00769	  1.25579	706.52100	 23.00	
  6.808	152.311	  1.24646	  0.44469	  0.87985	  0.75441	  0.55571	 -0.00950	  1.25543	707.03601	 23.00	
  6.796	166.229	  1.24602	  0.42526	  0.90360	  0.69585	  0.61012	 -0.00940	  1.25617	707.94299	 23.00	
  8.491	168.704	  1.22673	  0.34964	  0.95482	  0.68187	  0.59058	 -0.01639	  1.25330	707.91699	 22.90	
  8.502	157.493	  1.22691	  0.36555	  0.93493	  0.74072	  0.53423	 -0.01674	  1.25233	708.09100	 22.90	
  8.494	146.194	  1.23564	  0.39612	  0.90883	  0.80271	  0.48820	 -0.01541	  1.25923	708.05200	 22.90	
  8.495	135.039	  1.23343	  0.43182	  0.86409	  0.85253	  0.44447	 -0.01599	  1.25539	707.93903	 22.90	
  8.487	123.723	  1.23337	  0.47270	  0.81306	  0.89314	  0.40717	 -0.02024	  1.25540	707.92798	 22.90	
  8.492	112.575	  1.23601	  0.52605	  0.75662	  0.92598	  0.38419	 -0.01831	  1.25743	707.92297	 22.90	
  8.510	101.220	  1.23195	  0.58237	  0.69412	  0.94517	  0.36611	 -0.01674	  1.25378	707.89801	 22.90	
  8.500	 90.000	  1.23521	  0.64497	  0.63397	  0.95279	  0.36364	 -0.01709	  1.25555	707.91901	 22.90	
  8.510	 78.780	  1.23480	  0.70623	  0.57199	  0.94681	  0.36780	 -0.01698	  1.25587	707.96503	 22.90	
  8.492	 67.425	  1.23647	  0.76849	  0.51516	  0.92736	  0.38518	 -0.01609	  1.25740	708.01300	 22.90	
  8.487	 56.277	  1.23393	  0.82171	  0.46321	  0.89406	  0.40930	 -0.01772	  1.25503	707.24200	 22.90	
  8.495	 44.961	  1.23228	  0.87279	  0.41838	  0.85087	  0.44437	 -0.01489	  1.25395	707.95001	 22.90	
  8.494	 33.806	  1.23081	  0.91224	  0.38290	  0.79894	  0.48702	 -0.01709	  1.25294	706.39398	 22.90	
  8.502	 22.507	  1.23289	  0.94399	  0.35752	  0.74305	  0.53897	 -0.01913	  1.25647	707.96399	 22.90	
  8.491	 11.296	  1.23207	  0.96365	  0.34229	  0.68226	  0.59715	 -0.01927	  1.25565	708.06598	 22.90	
  8.500	  0.000	  1.23299	  0.97034	  0.33562	  0.61817	  0.65882	 -0.01877	  1.25704	708.13599	 22.90	
  8.491	-11.296	  1.23020	  0.95887	  0.34278	  0.55654	  0.71964	 -0.02175	  1.25473	707.96997	 22.90	
  8.502	-22.507	  1.22777	  0.93917	  0.35679	  0.49931	  0.77867	 -0.02037	  1.25334	708.01599	 22.90	
  8.494	-33.806	  1.23443	  0.91106	  0.38542	  0.45039	  0.84087	 -0.02066	  1.26003	707.95898	 22.90	
  8.495	-44.961	  1.23131	  0.86773	  0.41781	  0.40410	  0.88916	 -0.02255	  1.25885	707.95599	 22.90	
  8.487	-56.277	  1.22738	  0.81270	  0.46339	  0.36937	  0.92843	 -0.02298	  1.25549	707.99500	 22.90	
  8.492	-67.425	  1.22410	  0.75517	  0.51117	  0.34209	  0.95744	 -0.02250	  1.25373	707.92603	 22.90	
  8.510	-78.780	  1.22449	  0.69234	  0.56818	  0.32491	  0.97666	 -0.02310	  1.25558	708.05701	 22.90	
  8.500	-90.000	  1.22382	  0.63091	  0.62939	  0.31955	  0.98326	 -0.02295	  1.25526	708.12000	 22.90	
  8.510	-101.220	  1.22364	  0.57020	  0.69254	  0.32513	  0.97627	 -0.02135	  1.25516	707.96503	 22.90	
  8.492	-112.575	  1.22976	  0.51619	  0.75747	  0.34442	  0.95984	 -0.01910	  1.26077	706.24902	 22.90	
  8.487	-123.723	  1.22717	  0.46291	  0.81361	  0.36733	  0.92701	 -0.01854	  1.25910	707.87799	 22.90	
  8.495	-135.039	  1.22517	  0.41857	  0.86362	  0.40256	  0.88309	 -0.01841	  1.25620	708.03601	 22.90	
  8.494	-146.194	  1.23080	  0.38732	  0.90776	  0.44847	  0.83578	 -0.01661	  1.25995	707.03699	 22.90	
  8.502	-157.493	  1.22844	  0.35957	  0.93823	  0.49920	  0.77596	 -0.01607	  1.25850	707.86401	 22.90	
  8.491	-168.704	  1.22931	  0.34616	  0.95630	  0.55599	  0.71535	 -0.01611	  1.25737	707.88000	 22.90	
  8.500	180.000	  1.23002	  0.34110	  0.96462	  0.61792	  0.65299	 -0.01713	  1.25760	706.22900	 22.90	
 10.200	180.000	  1.21041	  0.26691	  1.01509	  0.60073	  0.63542	 -0.02517	  1.25868	706.21503	 22.90	
 10.191	-170.497	  1.21285	  0.27255	  1.01150	  0.54086	  0.69937	 -0.02414	  1.26137	706.91302	 22.90	
 10.210	-161.034	  1.20807	  0.28264	  0.99263	  0.48022	  0.75865	 -0.02378	  1.25809	706.57703	 22.90	
 10.194	-151.526	  1.21078	  0.30413	  0.96604	  0.42434	  0.82265	 -0.02602	  1.26114	706.95801	 22.90	
 10.190	-142.105	  1.20771	  0.33298	  0.92695	  0.37631	  0.87516	 -0.02467	  1.25868	707.14801	 22.90	
 10.215	-132.646	  1.20593	  0.36720	  0.88189	  0.33200	  0.92435	 -0.03022	  1.25909	707.94299	 22.90	
 10.203	-123.092	  1.20263	  0.41429	  0.82458	  0.29960	  0.96292	 -0.02568	  1.25409	707.86102	 22.90	
 10.192	-113.678	  1.20564	  0.46606	  0.77006	  0.27372	  0.99853	 -0.02790	  1.25804	707.63501	 22.80	
 10.208	-104.249	  1.21060	  0.52382	  0.71247	  0.25724	  1.02616	 -0.03094	  1.26352	707.89203	 22.90	
 10.210	-94.801	  1.20490	  0.57961	  0.64666	  0.24497	  1.03322	 -0.03453	  1.25860	707.82098	 22.90	
 10.210	-85.199	  1.20216	  0.64315	  0.58007	  0.24569	  1.03009	 -0.03285	  1.25516	707.88599	 22.90	
 10.208	-75.751	  1.20387	  0.70693	  0.51961	  0.25438	  1.02095	 -0.03377	  1.25537	707.84601	 22.90	
 10.192	-66.322	  1.21100	  0.77237	  0.46446	  0.27305	  1.00476	 -0.03400	  1.26160	707.80701	 22.80	
 10.203	-56.908	  1.20996	  0.82854	  0.41446	  0.30041	  0.97068	 -0.03257	  1.25891	707.73700	 22.80	
 10.215	-47.354	  1.20923	  0.88322	  0.36719	  0.33378	  0.92967	 -0.03095	  1.25759	707.84900	 22.80	
 10.190	-37.895	  1.20829	  0.92718	  0.33025	  0.37589	  0.87817	 -0.03056	  1.25571	707.84698	 22.90	
 10.194	-28.474	  1.21016	  0.96603	  0.30219	  0.42604	  0.82467	 -0.02847	  1.25576	707.75897	 22.90	
 10.210	-18.966	  1.21415	  0.99657	  0.27941	  0.48167	  0.76580	 -0.02807	  1.25960	707.75897	 22.90	
 10.191	 -9.503	  1.21470	  1.01522	  0.26724	  0.54052	  0.70451	 -0.02809	  1.26053	707.88599	 22.90	
 10.200	  0.000	  1.20903	  1.01679	  0.26042	  0.59834	  0.63856	 -0.02834	  1.25336	707.83197	 22.90	
 10.191	  9.503	  1.21154	  1.01495	  0.26542	  0.66356	  0.57742	 -0.02623	  1.25487	707.86102	 22.80	
 10.210	 18.966	  1.21314	  0.99963	  0.27937	  0.72751	  0.51956	 -0.02470	  1.25540	707.84100	 22.80	
 10.194	 28.474	  1.21463	  0.97298	  0.30241	  0.78880	  0.46563	 -0.02569	  1.25622	707.85999	 22.80	
 10.190	 37.895	  1.21976	  0.94122	  0.33274	  0.84747	  0.41871	 -0.02498	  1.26145	707.75299	 22.80	
 10.215	 47.354	  1.21133	  0.89018	  0.36740	  0.88991	  0.37429	 -0.02516	  1.25100	707.79401	 22.80	
 10.203	 56.908	  1.21736	  0.84135	  0.41489	  0.93610	  0.34224	 -0.02439	  1.25665	707.79303	 22.80	
 10.192	 66.322	  1.21973	  0.78366	  0.46910	  0.96940	  0.31809	 -0.02514	  1.25812	707.90302	 22.80	
 10.208	 75.751	  1.21577	  0.72205	  0.52219	  0.98979	  0.29765	 -0.02571	  1.25526	707.81000	 22.80	
 10.210	 85.199	  1.22480	  0.66388	  0.58662	  1.00869	  0.29112	 -0.02801	  1.26341	707.88300	 22.80	
 10.210	 94.801	  1.21649	  0.59531	  0.64833	  1.00255	  0.28838	 -0.02636	  1.25544	707.86401	 22.80	
 10.208	104.249	  1.21887	  0.53725	  0.71157	  0.99313	  0.29859	 -0.02800	  1.25897	707.92798	 22.80	
 10.192	113.678	  1.22088	  0.48116	  0.77402	  0.97126	  0.31590	 -0.02722	  1.26033	707.88599	 22.80	
 10.203	123.092	  1.21624	  0.42825	  0.82977	  0.93714	  0.33973	 -0.02705	  1.25771	707.99298	 22.80	
 10.215	132.646	  1.21769	  0.38097	  0.88525	  0.89752	  0.37250	 -0.02752	  1.26046	707.81799	 22.80	
 10.190	142.105	  1.21186	  0.34415	  0.92591	  0.84415	  0.41375	 -0.02435	  1.25428	707.75098	 22.80	
 10.194	151.526	  1.20806	  0.30927	  0.96067	  0.78446	  0.45956	 -0.02514	  1.25240	707.71399	 22.80	
 10.210	161.034	  1.21262	  0.29030	  0.99225	  0.72907	  0.51639	 -0.02390	  1.25656	707.80701	 22.80	
 10.191	170.497	  1.20654	  0.27352	  1.00427	  0.66303	  0.57038	 -0.02589	  1.25272	707.81500	 22.80	
 11.899	171.783	  1.18556	  0.20025	  1.05415	  0.64500	  0.55084	 -0.03400	  1.25630	707.89502	 22.80	
 11.890	163.610	  1.18687	  0.21267	  1.04015	  0.70755	  0.49271	 -0.03330	  1.25684	707.77399	 22.80	
 11.889	155.445	  1.18807	  0.23209	  1.01647	  0.76893	  0.43843	 -0.03223	  1.25675	707.80103	 22.80	
 11.909	147.299	  1.18438	  0.25655	  0.98072	  0.82634	  0.38495	 -0.03562	  1.25164	707.65802	 22.80	
 11.902	139.148	  1.19059	  0.29040	  0.94475	  0.88307	  0.34123	 -0.03590	  1.25808	707.78699	 22.80	
 11.894	130.867	  1.19406	  0.33299	  0.89776	  0.93366	  0.30490	 -0.03657	  1.25935	707.78497	 22.80	
 11.897	122.732	  1.18848	  0.37458	  0.84046	  0.97098	  0.26821	 -0.03860	  1.25336	707.81299	 22.80	
 11.903	114.597	  1.19292	  0.42947	  0.78327	  1.00656	  0.24495	 -0.03816	  1.25698	707.78003	 22.80	
 11.893	106.346	  1.19224	  0.48544	  0.72097	  1.02984	  0.22695	 -0.03757	  1.25512	707.74597	 22.80	
 11.892	 98.155	  1.19281	  0.54470	  0.65869	  1.04463	  0.21581	 -0.03831	  1.25579	707.66901	 22.80	
 11.900	 90.000	  1.19383	  0.60710	  0.59473	  1.04999	  0.21244	 -0.03849	  1.25636	707.71997	 22.80	
 11.892	 81.845	  1.19380	  0.67039	  0.53404	  1.04510	  0.21809	 -0.03681	  1.25625	707.71997	 22.80	
 11.893	 73.654	  1.19394	  0.73342	  0.47416	  1.03053	  0.22989	 -0.03683	  1.25613	707.75098	 22.80	
 11.903	 65.403	  1.19404	  0.79702	  0.41565	  1.00684	  0.24758	 -0.03413	  1.25786	707.75702	 22.80	
 11.897	 57.268	  1.19292	  0.85301	  0.36657	  0.97226	  0.27362	 -0.03353	  1.25591	707.60797	 22.80	
 11.894	 49.133	  1.19381	  0.90794	  0.32077	  0.93210	  0.30787	 -0.03113	  1.25669	707.59302	 22.80	
 11.902	 40.852	  1.18884	  0.95233	  0.27933	  0.88074	  0.34530	 -0.03235	  1.25312	707.64099	 22.80	
 11.909	 32.701	  1.18573	  0.98930	  0.24644	  0.82534	  0.38946	 -0.03343	  1.25198	707.70300	 22.80	
 11.889	 24.555	  1.18277	  1.01870	  0.22090	  0.76406	  0.44031	 -0.03382	  1.24878	707.71399	 22.80	
 11.890	 16.390	  1.18063	  1.04034	  0.20253	  0.70199	  0.49389	 -0.03441	  1.24762	707.66699	 22.80	
 11.899	  8.217	  1.18391	  1.05644	  0.19119	  0.64043	  0.55455	 -0.03848	  1.25170	707.80701	 22.80	
 11.900	  0.000	  1.18347	  1.06090	  0.18718	  0.57730	  0.61628	 -0.03610	  1.25177	707.69800	 22.80	
 11.899	 -8.217	  1.18502	  1.05701	  0.19064	  0.51665	  0.67968	 -0.03674	  1.25421	707.73499	 22.80	
 11.890	-16.390	  1.18603	  1.04302	  0.20143	  0.45799	  0.74307	 -0.03704	  1.25658	707.75403	 22.80	
 11.889	-24.555	  1.18767	  1.01976	  0.22003	  0.40296	  0.80544	 -0.03604	  1.25926	707.66400	 22.80	
 11.909	-32.701	  1.18834	  0.98634	  0.24746	  0.35098	  0.86597	 -0.03693	  1.26055	707.80499	 22.80	
 11.902	-40.852	  1.18622	  0.94436	  0.27971	  0.30590	  0.91672	 -0.03980	  1.25805	707.71802	 22.80	
 11.894	-49.133	  1.18127	  0.89118	  0.31912	  0.26571	  0.96128	 -0.04146	  1.25444	707.73901	 22.80	
 11.897	-57.268	  1.18177	  0.83854	  0.36328	  0.23143	  1.00345	 -0.04131	  1.25654	707.80499	 22.70	
 11.903	-65.403	  1.18146	  0.77954	  0.41391	  0.20370	  1.03701	 -0.04162	  1.25820	707.79797	 22.80	
 11.893	-73.654	  1.18271	  0.71844	  0.47114	  0.18714	  1.06097	 -0.04337	  1.25997	707.72601	 22.70	
 11.892	-81.845	  1.17362	  0.65050	  0.52646	  0.17443	  1.06700	 -0.04292	  1.25090	707.87500	 22.70	
 11.900	-90.000	  1.17463	  0.58827	  0.58838	  0.16954	  1.07284	 -0.04228	  1.25210	707.65900	 22.70	
 11.892	-98.155	  1.17480	  0.52714	  0.65353	  0.17580	  1.06680	 -0.04152	  1.25315	707.68298	 22.70	
 11.893	-106.346	  1.17440	  0.46665	  0.71582	  0.18374	  1.05352	 -0.04020	  1.25431	707.75098	 22.70	
 11.903	-114.597	  1.17422	  0.41195	  0.77768	  0.20317	  1.02967	 -0.03901	  1.25254	707.76801	 22.70	
 11.897	-122.732	  1.17455	  0.36110	  0.83604	  0.22895	  0.99621	 -0.03622	  1.25251	707.70801	 22.70	
 11.894	-130.867	  1.17716	  0.31876	  0.89081	  0.26260	  0.95804	 -0.03547	  1.25498	707.70001	 22.70	
 11.902	-139.148	  1.17304	  0.27758	  0.93724	  0.30204	  0.90497	 -0.03552	  1.25045	707.72803	 22.70	
 11.909	-147.299	  1.17822	  0.24544	  0.98188	  0.34642	  0.85627	 -0.03665	  1.25583	707.73401	 22.70	
 11.889	-155.445	  1.18091	  0.22180	  1.01539	  0.39934	  0.79881	 -0.03768	  1.25801	707.66602	 22.70	
 11.890	-163.610	  1.18049	  0.20543	  1.03838	  0.45704	  0.73656	 -0.03130	  1.25491	707.78400	 22.70	
 11.899	-171.783	  1.18576	  0.19590	  1.05680	  0.51845	  0.67612	 -0.03216	  1.25979	707.77600	 22.70	
 11.900	180.000	  1.18533	  0.19179	  1.06087	  0.57945	  0.61223	 -0.03461	  1.25928	707.69702	 22.70	
 13.600	180.000	  1.15969	  0.12107	  1.10454	  0.55807	  0.59018	 -0.04634	  1.26186	707.71997	 22.70	
 13.608	-172.853	  1.15597	  0.12412	  1.09750	  0.49593	  0.65127	 -0.04315	  1.25928	707.67297	 22.70	
 13.611	-165.583	  1.15388	  0.12974	  1.08495	  0.43454	  0.71316	 -0.04405	  1.25954	707.54199	 22.70	
 13.601	-158.353	  1.15511	  0.14698	  1.06414	  0.37791	  0.77773	 -0.04294	  1.26071	707.80200	 22.70	
 13.609	-151.210	  1.14842	  0.16514	  1.03187	  0.32364	  0.83292	 -0.04465	  1.25540	707.70801	 22.70	
 13.611	-143.999	  1.14620	  0.19120	  0.99258	  0.27295	  0.88785	 -0.04528	  1.25408	707.72198	 22.70	
 13.601	-136.825	  1.15201	  0.22776	  0.95296	  0.23179	  0.94614	 -0.04595	  1.26094	707.76801	 22.70	
 13.596	-129.640	  1.14494	  0.26243	  0.89957	  0.19078	  0.98737	 -0.04616	  1.25451	707.83899	 22.70	
 13.611	-122.431	  1.14620	  0.30928	  0.84545	  0.16089	  1.02872	 -0.04649	  1.25576	707.74902	 22.70	
 13.604	-115.211	  1.15208	  0.36243	  0.79234	  0.13815	  1.06751	 -0.04830	  1.26218	707.74902	 22.70	
 13.595	-108.042	  1.14795	  0.41560	  0.72574	  0.11769	  1.08877	 -0.05060	  1.25761	707.70398	 22.70	
 13.607	-100.793	  1.14882	  0.47424	  0.66295	  0.10525	  1.10672	 -0.05077	  1.25804	707.65601	 22.70	
 13.601	-93.617	  1.15099	  0.53416	  0.60187	  0.09886	  1.11735	 -0.05183	  1.26061	707.67200	 22.70	
 13.601	-86.383	  1.15299	  0.59831	  0.53795	  0.09856	  1.11980	 -0.05161	  1.26207	707.61298	 22.70	
 13.607	-79.207	  1.15473	  0.66337	  0.47815	  0.10606	  1.11316	 -0.05042	  1.26337	707.57397	 22.60	
 13.595	-71.958	  1.15690	  0.72776	  0.42190	  0.12124	  1.09710	 -0.05109	  1.26334	707.74298	 22.60	
 13.604	-64.789	  1.15350	  0.78710	  0.36271	  0.13803	  1.06802	 -0.05053	  1.25904	707.70001	 22.60	
 13.611	-57.569	  1.15247	  0.84468	  0.31223	  0.16341	  1.03491	 -0.05021	  1.25626	707.70001	 22.70	
 13.596	-50.360	  1.15346	  0.89938	  0.26821	  0.19538	  0.99473	 -0.04809	  1.25615	707.75299	 22.60	
 13.601	-43.175	  1.15401	  0.94895	  0.22851	  0.23230	  0.94881	 -0.04684	  1.25502	707.67297	 22.60	
 13.611	-36.001	  1.15522	  0.99584	  0.19126	  0.27455	  0.89711	 -0.04577	  1.25674	707.68402	 22.60	
 13.609	-28.790	  1.15696	  1.03638	  0.16236	  0.32316	  0.84267	 -0.04473	  1.25802	707.53802	 22.60	
 13.601	-21.647	  1.15835	  1.06424	  0.14453	  0.37787	  0.78310	 -0.04451	  1.25737	707.74902	 22.60	
 13.611	-14.417	  1.15875	  1.08734	  0.12687	  0.43388	  0.72151	 -0.04266	  1.25707	707.66400	 22.60	
 13.608	 -7.147	  1.15844	  1.10049	  0.11900	  0.49531	  0.65712	 -0.04363	  1.25775	707.69202	 22.60	
 13.600	  0.000	  1.16102	  1.10721	  0.11499	  0.55653	  0.59620	 -0.04508	  1.25851	708.38202	 22.60	
 13.608	  7.147	  1.16115	  1.10472	  0.11680	  0.61960	  0.53388	 -0.04504	  1.25828	707.71198	 22.60	
 13.611	 14.417	  1.15808	  1.09080	  0.12471	  0.68157	  0.47225	 -0.04220	  1.25508	707.66302	 22.60	
 13.601	 21.647	  1.16165	  1.07287	  0.14191	  0.74544	  0.41726	 -0.04322	  1.25708	707.67297	 22.60	
 13.609	 28.790	  1.15844	  1.04012	  0.16359	  0.80421	  0.36176	 -0.04507	  1.25174	707.66400	 22.60	
 13.611	 36.001	  1.16507	  1.01120	  0.19361	  0.86586	  0.31746	 -0.04162	  1.25942	709.00897	 22.60	
 13.601	 43.175	  1.16605	  0.96791	  0.22832	  0.91799	  0.27550	 -0.04339	  1.25972	707.68402	 22.60	
 13.596	 50.360	  1.16191	  0.91553	  0.26688	  0.96171	  0.23660	 -0.04254	  1.25434	707.51801	 22.60	
 13.611	 57.569	  1.16221	  0.86050	  0.31518	  1.00419	  0.20466	 -0.04303	  1.25402	707.55902	 22.60	
 13.604	 64.789	  1.16219	  0.80181	  0.36426	  1.03697	  0.17909	 -0.04354	  1.25251	707.68298	 22.60	
 13.595	 71.958	  1.16495	  0.74274	  0.42069	  1.06347	  0.16054	 -0.04648	  1.25510	707.59698	 22.60	
 13.607	 79.207	  1.16533	  0.67996	  0.47886	  1.08256	  0.14648	 -0.04697	  1.25682	709.26001	 22.60	
 13.601	 86.383	  1.17497	  0.62153	  0.54452	  1.09881	  0.14207	 -0.04994	  1.26646	707.50598	 22.60	
 13.601	 93.617	  1.16885	  0.55561	  0.60494	  1.09366	  0.14051	 -0.04890	  1.25990	707.47803	 22.60	
 13.607	100.793	  1.17204	  0.49632	  0.66933	  1.08894	  0.14667	 -0.04799	  1.26390	707.63202	 22.60	
 13.595	108.042	  1.16573	  0.43202	  0.73011	  1.06661	  0.15612	 -0.05104	  1.25860	707.68402	 22.60	
 13.604	115.211	  1.16094	  0.37751	  0.78974	  1.03751	  0.17599	 -0.04760	  1.25307	707.60101	 22.60	
 13.611	122.431	  1.16714	  0.32864	  0.85204	  1.00999	  0.20162	 -0.04935	  1.26032	707.62402	 22.60	
 13.596	129.640	  1.16364	  0.28259	  0.90439	  0.96628	  0.23317	 -0.04790	  1.25760	707.56299	 22.60	
 13.601	136.825	  1.15985	  0.23943	  0.95280	  0.91542	  0.26948	 -0.04720	  1.25374	709.28497	 22.60	
 13.611	143.999	  1.16290	  0.20547	  0.99968	  0.86732	  0.31127	 -0.04399	  1.25877	709.30103	 22.60	
 13.609	151.210	  1.16045	  0.17652	  1.03498	  0.80890	  0.35869	 -0.04338	  1.25715	707.59601	 22.60	
 13.601	158.353	  1.16183	  0.15484	  1.06429	  0.74794	  0.41395	 -0.04387	  1.25784	707.59302	 22.60	
 13.611	165.583	  1.15860	  0.13767	  1.08541	  0.68571	  0.46844	 -0.04337	  1.25827	707.68402	 22.60	
 13.608	172.853	  1.15696	  0.12495	  1.09732	  0.62007	  0.52715	 -0.04567	  1.25742	707.67200	 22.60	
 15.298	173.587	  1.12217	  0.05489	  1.13232	  0.59456	  0.50055	 -0.05445	  1.25610	707.64398	 22.60	
 15.291	167.167	  1.12221	  0.06676	  1.11869	  0.65702	  0.44316	 -0.05342	  1.25400	709.25897	 22.60	
 15.307	160.676	  1.12628	  0.07868	  1.10479	  0.72201	  0.38615	 -0.05415	  1.25748	707.52502	 22.60	
 15.300	154.261	  1.13177	  0.10035	  1.08292	  0.78738	  0.33483	 -0.05381	  1.26182	709.09601	 22.60	
 15.288	147.854	  1.13299	  0.12386	  1.05123	  0.84540	  0.28586	 -0.05405	  1.26270	707.78699	 22.60	
 15.293	141.428	  1.12798	  0.15495	  1.00456	  0.89594	  0.24058	 -0.05387	  1.25538	708.62097	 22.60	
 15.299	134.985	  1.13369	  0.19367	  0.96290	  0.95242	  0.20165	 -0.05678	  1.26002	707.63300	 22.60	
 15.305	128.583	  1.13282	  0.23295	  0.91209	  0.99853	  0.16504	 -0.05805	  1.25953	709.30798	 22.60	
 15.309	122.142	  1.13325	  0.27933	  0.85611	  1.03827	  0.13554	 -0.05754	  1.25863	708.46899	 22.60	
 15.304	115.711	  1.13379	  0.32790	  0.79592	  1.06902	  0.11062	 -0.05761	  1.25846	709.21100	 22.60	
 15.297	109.291	  1.13527	  0.38088	  0.73686	  1.09764	  0.09115	 -0.05739	  1.25925	709.27002	 22.60	
 15.293	102.897	  1.13915	  0.44083	  0.67554	  1.11806	  0.07975	 -0.05833	  1.26295	709.08502	 22.60	
 15.293	 96.458	  1.13772	  0.50139	  0.61141	  1.13011	  0.07107	 -0.05648	  1.26106	709.27899	 22.60	
 15.300	 90.000	  1.13263	  0.56118	  0.54425	  1.12838	  0.06806	 -0.05576	  1.25560	707.57703	 22.60	
 15.293	 83.542	  1.13343	  0.62382	  0.48382	  1.12452	  0.07118	 -0.05737	  1.25558	707.90802	 22.60	
 15.293	 77.103	  1.13708	  0.68894	  0.42595	  1.11586	  0.08148	 -0.05736	  1.25873	707.53198	 22.60	
 15.297	 70.709	  1.13463	  0.75042	  0.36769	  1.09561	  0.09487	 -0.05351	  1.25655	707.47998	 22.60	
 15.304	 64.289	  1.13460	  0.81027	  0.31428	  1.06965	  0.11382	 -0.05201	  1.25745	708.81500	 22.60	
 15.309	 57.858	  1.13372	  0.86752	  0.26402	  1.03592	  0.13704	 -0.05254	  1.25836	709.21802	 22.60	
 15.305	 51.417	  1.13553	  0.92473	  0.22087	  0.99788	  0.16957	 -0.05096	  1.26013	708.23297	 22.60	
 15.299	 45.015	  1.13158	  0.97241	  0.17725	  0.94661	  0.20452	 -0.05211	  1.25570	707.58002	 22.60	
 15.293	 38.572	  1.12831	  1.01453	  0.14237	  0.89413	  0.24373	 -0.05032	  1.25373	707.44397	 22.60	
 15.288	 32.146	  1.13542	  1.05880	  0.11457	  0.84482	  0.29141	 -0.05031	  1.26196	707.38300	 22.60	
 15.300	 25.739	  1.13201	  1.09022	  0.08863	  0.78460	  0.33918	 -0.04857	  1.26038	707.54199	 22.60	
 15.307	 19.324	  1.13151	  1.11427	  0.07063	  0.72223	  0.39347	 -0.04976	  1.25953	707.59302	 22.60	
 15.291	 12.833	  1.13123	  1.13208	  0.05833	  0.65927	  0.45255	 -0.04967	  1.26054	707.36798	 22.60	
 15.298	  6.413	  1.12858	  1.14064	  0.04856	  0.59549	  0.50953	 -0.04885	  1.25881	707.42999	 22.60	
 15.300	  0.000	  1.12773	  1.14243	  0.04611	  0.53147	  0.57090	 -0.05018	  1.25810	707.57098	 22.60	
 15.298	 -6.413	  1.12450	  1.13584	  0.04861	  0.46941	  0.63158	 -0.04871	  1.25516	707.51501	 22.60	
 15.291	-12.833	  1.12818	  1.12552	  0.05842	  0.41188	  0.69535	 -0.04813	  1.25851	707.39899	 22.60	
 15.307	-19.324	  1.12557	  1.10419	  0.07250	  0.35417	  0.75801	 -0.04936	  1.25642	707.55902	 22.60	
 15.300	-25.739	  1.12404	  1.07683	  0.09007	  0.30046	  0.81626	 -0.05044	  1.25743	707.46198	 22.60	
 15.288	-32.146	  1.12484	  1.04350	  0.11507	  0.25072	  0.87509	 -0.04979	  1.25864	707.40698	 22.60	
 15.293	-38.572	  1.12434	  1.00432	  0.14363	  0.20577	  0.93032	 -0.05185	  1.25883	707.45300	 22.60	
 15.299	-45.015	  1.12221	  0.95603	  0.18075	  0.16569	  0.97929	 -0.05345	  1.25796	707.50702	 22.60	
 15.305	-51.417	  1.11928	  0.90235	  0.21833	  0.12812	  1.02184	 -0.05213	  1.25496	707.54602	 22.60	
 15.309	-57.858	  1.12035	  0.85054	  0.26828	  0.10475	  1.06204	 -0.05267	  1.25788	707.59399	 22.60	
 15.304	-64.289	  1.12047	  0.79078	  0.31504	  0.07521	  1.09689	 -0.05366	  1.26079	707.60999	 22.60	
 15.297	-70.709	  1.11940	  0.72942	  0.36909	  0.05740	  1.12148	 -0.05493	  1.26002	707.61798	 22.60	
 15.293	-77.103	  1.12022	  0.66918	  0.42602	  0.04436	  1.14133	 -0.05191	  1.26129	707.46198	 22.60	
 15.293	-83.542	  1.11715	  0.60362	  0.48273	  0.03284	  1.14945	 -0.05405	  1.25947	707.32599	 22.60	
 15.300	-90.000	  1.11882	  0.54228	  0.54677	  0.03196	  1.15529	 -0.05543	  1.26140	707.56201	 22.60	
 15.293	-96.458	  1.11739	  0.48064	  0.60830	  0.03380	  1.15026	 -0.05381	  1.26142	707.45599	 22.60	
 15.293	-102.897	  1.11419	  0.42101	  0.67081	  0.04414	  1.13472	 -0.05791	  1.25686	707.40503	 22.60	
 15.297	-109.291	  1.11303	  0.36451	  0.73140	  0.05722	  1.11433	 -0.05708	  1.25626	707.42999	 22.60	
 15.304	-115.711	  1.11655	  0.31199	  0.79489	  0.07504	  1.09200	 -0.05575	  1.26029	707.50598	 22.60	
 15.309	-122.142	  1.11715	  0.26626	  0.85383	  0.10315	  1.05875	 -0.05459	  1.25945	707.46997	 22.60	
 15.305	-128.583	  1.11505	  0.22222	  0.90641	  0.13316	  1.01743	 -0.05339	  1.25675	708.02399	 22.60	
 15.299	-134.985	  1.12159	  0.18425	  0.96252	  0.16907	  0.97860	 -0.05501	  1.26388	707.53802	 22.60	
 15.293	-141.428	  1.11588	  0.14438	  1.00358	  0.20555	  0.92166	 -0.05657	  1.25778	709.17499	 22.60	
 15.288	-147.854	  1.12091	  0.11923	  1.04485	  0.25441	  0.87030	 -0.05356	  1.26022	709.08197	 22.60	
 15.300	-154.261	  1.11686	  0.09363	  1.07426	  0.29997	  0.80962	 -0.05614	  1.25626	709.24902	 22.60	
 15.307	-160.676	  1.12342	  0.07521	  1.10800	  0.35524	  0.75367	 -0.05282	  1.26298	709.17200	 22.60	
 15.291	-167.167	  1.12460	  0.06231	  1.12547	  0.41333	  0.69009	 -0.05306	  1.26179	709.24200	 22.60	
 15.298	-173.587	  1.12356	  0.05297	  1.13598	  0.47226	  0.62507	 -0.05460	  1.26116	709.15802	 22.60	
 15.300	180.000	  1.12418	  0.05194	  1.13799	  0.53223	  0.56397	 -0.05449	  1.25837	709.21100	 22.60	
 17.000	180.000	  1.08869	 -0.00433	  1.17017	  0.51149	  0.54113	 -0.06063	  1.25889	707.37299	 22.60	
 16.990	-174.179	  1.08868	  0.00186	  1.16653	  0.45381	  0.60436	 -0.05861	  1.25916	707.40002	 22.60	
 17.009	-168.383	  1.08474	  0.00579	  1.15361	  0.39210	  0.66363	 -0.05932	  1.25834	707.47998	 22.60	
 17.000	-162.596	  1.08750	  0.01337	  1.14153	  0.33709	  0.72506	 -0.05898	  1.26218	709.03998	 22.60	
 16.990	-156.759	  1.08491	  0.03309	  1.11556	  0.28615	  0.78454	 -0.05813	  1.25996	709.10101	 22.60	
 16.995	-150.919	  1.08226	  0.05148	  1.08369	  0.23354	  0.84126	 -0.06018	  1.25759	708.87402	 22.60	
 16.988	-145.161	  1.08520	  0.07993	  1.05112	  0.19170	  0.89970	 -0.05805	  1.26131	709.07098	 22.60	
 17.014	-139.343	  1.08304	  0.10791	  1.01002	  0.14799	  0.95284	 -0.05801	  1.26160	709.14899	 22.60	
 17.007	-133.546	  1.07766	  0.14276	  0.95872	  0.11213	  0.99527	 -0.05531	  1.25556	707.59698	 22.60	
 17.001	-127.699	  1.08196	  0.17766	  0.91243	  0.07587	  1.04387	 -0.05841	  1.26168	709.07001	 22.60	
 17.006	-121.937	  1.07929	  0.22441	  0.85586	  0.05046	  1.08049	 -0.05429	  1.25817	708.29999	 22.60	
 17.002	-116.134	  1.07633	  0.26841	  0.79559	  0.02432	  1.11030	 -0.05790	  1.25510	709.05701	 22.60	
 17.001	-110.310	  1.08127	  0.32113	  0.73855	  0.00464	  1.14297	 -0.05646	  1.26154	708.99799	 22.60	
 16.988	-104.517	  1.07673	  0.37253	  0.67525	 -0.00882	  1.15714	 -0.05498	  1.25516	709.12500	 22.60	
 17.008	-98.662	  1.08372	  0.43177	  0.61828	 -0.01731	  1.17772	 -0.05559	  1.26305	709.01099	 22.60	
 16.996	-92.909	  1.08229	  0.49033	  0.55704	 -0.01959	  1.18195	 -0.05413	  1.25987	709.08801	 22.60	
 16.996	-87.091	  1.08252	  0.55003	  0.49462	 -0.02280	  1.18320	 -0.05335	  1.26072	708.96997	 22.60	
 17.012	-81.253	  1.08240	  0.61140	  0.43531	 -0.01809	  1.17687	 -0.05018	  1.25944	709.00299	 22.60	
 16.988	-75.483	  1.08270	  0.67115	  0.38045	 -0.00629	  1.16196	 -0.05257	  1.25787	708.98401	 22.60	
 17.001	-69.690	  1.08335	  0.73338	  0.32460	  0.00554	  1.14387	 -0.04951	  1.25938	709.05103	 22.60	
 17.002	-63.866	  1.08445	  0.79299	  0.27290	  0.02342	  1.11917	 -0.05173	  1.25848	709.16699	 22.60	
 17.006	-58.063	  1.08480	  0.85162	  0.22493	  0.04790	  1.08549	 -0.05059	  1.25736	709.21997	 22.60	
 17.001	-52.301	  1.09006	  0.90888	  0.18166	  0.07557	  1.05157	 -0.05210	  1.26228	709.08801	 22.60	
 17.007	-46.454	  1.08886	  0.95803	  0.14354	  0.10947	  1.00637	 -0.05516	  1.25954	709.08197	 22.60	
 17.014	-40.657	  1.08920	  1.00623	  0.10897	  0.14807	  0.95835	 -0.05143	  1.25829	709.10498	 22.60	
 16.988	-34.839	  1.08783	  1.04498	  0.07968	  0.19075	  0.90391	 -0.05149	  1.25416	707.51801	 22.60	
 16.995	-29.081	  1.09021	  1.08285	  0.05435	  0.23718	  0.84951	 -0.05043	  1.25560	709.00000	 22.60	
 16.990	-23.241	  1.09180	  1.11480	  0.03111	  0.28486	  0.79192	 -0.05009	  1.25769	708.88000	 22.60	
 17.000	-17.404	  1.09427	  1.14127	  0.01894	  0.34086	  0.73491	 -0.04802	  1.25979	708.97198	 22.60	
 17.009	-11.617	  1.09255	  1.15829	  0.00124	  0.39316	  0.67149	 -0.04910	  1.25785	709.10797	 22.60	
 16.990	 -5.821	  1.08866	  1.16475	 -0.00350	  0.44950	  0.60933	 -0.04491	  1.25317	707.55103	 22.60	
 17.000	  0.000	  1.08668	  1.16575	 -0.00678	  0.50807	  0.54646	 -0.04846	  1.24867	708.93799	 22.60	
 16.990	  5.821	  1.09261	  1.16892	 -0.00355	  0.57223	  0.48946	 -0.05011	  1.25587	709.12500	 22.60	
 17.009	 11.617	  1.09278	  1.16045	  0.00342	  0.63377	  0.43144	 -0.05094	  1.25674	708.68799	 22.60	
 17.000	 17.404	  1.09393	  1.14562	  0.01405	  0.69497	  0.37650	 -0.04626	  1.25500	709.00098	 22.60	
 16.990	 23.241	  1.09225	  1.12078	  0.03251	  0.75583	  0.32347	 -0.04967	  1.25217	709.03101	 22.60	
 16.995	 29.081	  1.09593	  1.09610	  0.05272	  0.81538	  0.27467	 -0.04980	  1.25695	709.06598	 22.60	
 16.988	 34.839	  1.09463	  1.05935	  0.07830	  0.87035	  0.22922	 -0.05298	  1.25415	709.10797	 22.60	
 17.014	 40.657	  1.10043	  1.02314	  0.11013	  0.92903	  0.18741	 -0.05678	  1.25899	709.21802	 22.60	
 17.007	 46.454	  1.09989	  0.97776	  0.14671	  0.97791	  0.15267	 -0.05558	  1.25850	709.08197	 22.60	
 17.001	 52.301	  1.09970	  0.92758	  0.18425	  1.02149	  0.11816	 -0.05390	  1.25746	709.17200	 22.60	
 17.006	 58.063	  1.10190	  0.87467	  0.22412	  1.06224	  0.08564	 -0.05891	  1.25999	709.07397	 22.60	
 17.002	 63.866	  1.09782	  0.81365	  0.27529	  1.09123	  0.06558	 -0.05742	  1.25446	708.95898	 22.60	
 17.001	 69.690	  1.09903	  0.75602	  0.32444	  1.11998	  0.04369	 -0.05818	  1.25647	709.10400	 22.60	
 16.988	 75.483	  1.09662	  0.69023	  0.37554	  1.13782	  0.02321	 -0.06089	  1.25304	708.93597	 22.60	
 17.012	 81.253	  1.09741	  0.63382	  0.43427	  1.15050	  0.02063	 -0.05864	  1.25344	708.71600	 22.60	
 16.996	 87.091	  1.09874	  0.57183	  0.49218	  1.15969	  0.01148	 -0.06121	  1.25560	708.03601	 22.60	
 16.996	 92.909	  1.09959	  0.51006	  0.55441	  1.16086	  0.01181	 -0.05996	  1.25553	708.89099	 22.60	
 17.008	 98.662	  1.09995	  0.45011	  0.61498	  1.15633	  0.01246	 -0.05908	  1.25713	708.87402	 22.60	
 16.988	104.517	  1.09874	  0.39511	  0.67892	  1.13885	  0.02919	 -0.05984	  1.25445	708.94397	 22.60	
 17.001	110.310	  1.10068	  0.34003	  0.74242	  1.12221	  0.04184	 -0.06068	  1.25834	708.99500	 22.60	
 17.002	116.134	  1.09729	  0.28823	  0.79919	  1.09333	  0.05936	 -0.06140	  1.25515	708.91803	 22.60	
 17.006	121.937	  1.09404	  0.23683	  0.85485	  1.05795	  0.07945	 -0.06112	  1.25273	708.94897	 22.60	
 17.001	127.699	  1.09621	  0.19406	  0.91118	  1.02198	  0.10883	 -0.06139	  1.25601	709.09698	 22.60	
 17.007	133.546	  1.09962	  0.15522	  0.96632	  0.98035	  0.14395	 -0.06224	  1.26008	708.94098	 22.60	
 17.014	139.343	  1.09540	  0.11858	  1.01095	  0.92956	  0.17987	 -0.06170	  1.25813	709.09302	 22.60	
 16.988	145.161	  1.09231	  0.08952	  1.04892	  0.87257	  0.22352	 -0.05886	  1.25393	709.03101	 22.60	
 16.995	150.919	  1.09437	  0.06341	  1.08704	  0.81958	  0.26907	 -0.05840	  1.25804	708.98602	 22.60	
 16.990	156.759	  1.09512	  0.04142	  1.11763	  0.76084	  0.31825	 -0.05945	  1.25875	708.93799	 22.60	
 17.000	162.596	  1.09361	  0.02473	  1.14154	  0.70047	  0.37131	 -0.05792	  1.26010	708.89301	 22.60	
 17.009	168.383	  1.09149	  0.01234	  1.15639	  0.63716	  0.42640	 -0.05913	  1.25883	708.99402	 22.60	
 16.990	174.179	  1.08762	  0.00520	  1.16132	  0.57382	  0.48307	 -0.05884	  1.25438	708.93298	 22.60	
 18.709	174.675	  1.04558	 -0.07628	  1.19344	  0.54011	  0.44519	 -0.06165	  1.25781	708.94397	 22.60	
 18.703	169.441	  1.04886	 -0.06701	  1.18634	  0.60151	  0.39144	 -0.05968	  1.25828	708.87299	 22.60	
 18.691	164.085	  1.05199	 -0.05399	  1.17272	  0.66600	  0.33689	 -0.06010	  1.25992	708.93799	 22.60	
 18.706	158.818	  1.05485	 -0.04157	  1.15592	  0.72976	  0.28275	 -0.06010	  1.26441	709.03400	 22.60	
 18.695	153.537	  1.05066	 -0.01949	  1.12282	  0.78500	  0.23421	 -0.05918	  1.25628	709.10199	 22.60	
 18.704	148.255	  1.04959	  0.00496	  1.08735	  0.83928	  0.18913	 -0.06095	  1.25265	708.86200	 22.60	
 18.698	142.952	  1.05159	  0.03177	  1.05073	  0.89786	  0.14443	 -0.05982	  1.25570	708.98700	 22.60	
 18.699	137.625	  1.05385	  0.06400	  1.00925	  0.95063	  0.10658	 -0.05935	  1.25588	709.03101	 22.60	
 18.705	132.343	  1.05492	  0.10364	  0.96166	  0.99870	  0.07463	 -0.06032	  1.25594	708.97601	 22.60	
 18.713	127.067	  1.05072	  0.14026	  0.90565	  1.03708	  0.04141	 -0.06152	  1.24903	708.99799	 22.60	
 18.700	121.794	  1.05147	  0.18361	  0.85100	  1.07638	  0.01283	 -0.05981	  1.24992	708.81500	 22.60	
 18.698	116.504	  1.05469	  0.23156	  0.79555	  1.11159	 -0.00866	 -0.05896	  1.25282	708.80603	 22.60	
 18.707	111.165	  1.05415	  0.28188	  0.73374	  1.13658	 -0.02742	 -0.05762	  1.25035	708.92102	 22.60	
 18.690	105.863	  1.05590	  0.33658	  0.67492	  1.15927	 -0.04007	 -0.05729	  1.25238	708.89899	 22.50	
 18.696	100.583	  1.05697	  0.39179	  0.61488	  1.17567	 -0.05096	 -0.05947	  1.25435	708.84900	 22.50	
 18.700	 95.309	  1.05981	  0.45170	  0.55371	  1.18626	 -0.05648	 -0.05860	  1.25575	708.97803	 22.60	
 18.700	 90.000	  1.05669	  0.50800	  0.49228	  1.18705	 -0.05991	 -0.05839	  1.25350	708.82098	 22.50	
 18.700	 84.691	  1.05780	  0.57102	  0.43278	  1.18397	 -0.05456	 -0.05755	  1.25307	708.86499	 22.60	
 18.696	 79.417	  1.06161	  0.63309	  0.37448	  1.17917	 -0.05054	 -0.05825	  1.25847	708.71899	 22.50	
 18.690	 74.137	  1.05973	  0.69219	  0.32020	  1.16226	 -0.04006	 -0.06175	  1.25659	708.94702	 22.50	
 18.707	 68.835	  1.05951	  0.75482	  0.26647	  1.14211	 -0.02513	 -0.05530	  1.25817	708.95203	 22.50	
 18.698	 63.496	  1.06319	  0.81815	  0.21465	  1.11761	 -0.00637	 -0.05527	  1.26228	708.89301	 22.50	
 18.700	 58.206	  1.05452	  0.86758	  0.16877	  1.07825	  0.01958	 -0.05460	  1.25404	708.92401	 22.50	
 18.713	 52.933	  1.05667	  0.92419	  0.12642	  1.04245	  0.04660	 -0.05395	  1.25769	708.85999	 22.50	
 18.705	 47.657	  1.05553	  0.97326	  0.08877	  0.99673	  0.07936	 -0.05175	  1.25670	708.78998	 22.50	
 18.699	 42.375	  1.05324	  1.01867	  0.05080	  0.94746	  0.11230	 -0.05269	  1.25474	708.90002	 22.50	
 18.698	 37.048	  1.05618	  1.06483	  0.02086	  0.89928	  0.15349	 -0.05097	  1.25921	708.87701	 22.50	
 18.704	 31.745	  1.05379	  1.10051	 -0.00673	  0.84186	  0.19593	 -0.04787	  1.25679	708.93597	 22.50	
 18.695	 26.463	  1.05336	  1.13195	 -0.03109	  0.78278	  0.24186	 -0.04589	  1.25770	708.92401	 22.50	
 18.706	 21.182	  1.05029	  1.15579	 -0.04995	  0.72224	  0.29096	 -0.04745	  1.25579	708.76398	 22.50	
 18.691	 15.915	  1.05819	  1.18420	 -0.06351	  0.66707	  0.34655	 -0.04323	  1.26532	708.82599	 22.50	
 18.703	 10.559	  1.05195	  1.19287	 -0.07688	  0.59905	  0.40082	 -0.04167	  1.25930	708.81799	 22.60	
 18.709	  5.325	  1.05490	  1.20384	 -0.08277	  0.54132	  0.45810	 -0.04302	  1.26297	708.78101	 22.60	
 18.700	  0.000	  1.05143	  1.20198	 -0.08387	  0.47839	  0.51710	 -0.04420	  1.25890	708.85199	 22.60	
 18.709	 -5.325	  1.05151	  1.19865	 -0.08215	  0.41814	  0.57801	 -0.04503	  1.26055	708.78400	 22.60	
 18.703	-10.559	  1.05710	  1.19470	 -0.07494	  0.36373	  0.64242	 -0.04313	  1.26595	708.93903	 22.60	
 18.691	-15.915	  1.05499	  1.17624	 -0.06616	  0.30491	  0.70279	 -0.04582	  1.26494	708.85101	 22.50	
 18.706	-21.182	  1.05010	  1.15013	 -0.05178	  0.25086	  0.76032	 -0.04555	  1.25980	708.75201	 22.50	
 18.695	-26.463	  1.04683	  1.11965	 -0.03546	  0.19799	  0.81658	 -0.04606	  1.25682	708.75800	 22.60	
 18.704	-31.745	  1.04732	  1.08675	 -0.01165	  0.15145	  0.87542	 -0.05078	  1.25920	708.92401	 22.60	
 18.698	-37.048	  1.04858	  1.04854	  0.01709	  0.10970	  0.93123	 -0.05080	  1.26137	708.78900	 22.60	
 18.699	-42.375	  1.04960	  1.00553	  0.04786	  0.06975	  0.98354	 -0.04975	  1.26237	708.80603	 22.60	
 18.705	-47.657	  1.04504	  0.95434	  0.08301	  0.03436	  1.02793	 -0.04531	  1.26023	708.79498	 22.60	
 18.713	-52.933	  1.04456	  0.90216	  0.12117	  0.00052	  1.07080	 -0.04795	  1.26066	708.76202	 22.60	
 18.700	-58.206	  1.03951	  0.84272	  0.16348	 -0.02663	  1.10407	 -0.04780	  1.25609	708.87402	 22.60	
 18.698	-63.496	  1.04146	  0.78766	  0.21208	 -0.04801	  1.13818	 -0.04723	  1.25936	708.75800	 22.60	
 18.707	-68.835	  1.03769	  0.72603	  0.25989	 -0.06845	  1.16244	 -0.04716	  1.25690	708.75000	 22.60	
 18.690	-74.137	  1.03912	  0.66451	  0.31615	 -0.08126	  1.18488	 -0.04683	  1.25813	708.62402	 22.60	
 18.696	-79.417	  1.03984	  0.60498	  0.37212	 -0.09120	  1.20014	 -0.04400	  1.26006	708.59003	 22.60	
 18.700	-84.691	  1.03681	  0.54272	  0.42793	 -0.09955	  1.20739	 -0.04545	  1.25884	708.75800	 22.60	
 18.700	-90.000	  1.03334	  0.47852	  0.48652	 -0.10258	  1.20597	 -0.05176	  1.25545	708.72498	 22.60	
 18.700	-95.309	  1.03575	  0.41916	  0.54891	 -0.10219	  1.20647	 -0.05380	  1.25978	708.81201	 22.60	
 18.696	-100.583	  1.03596	  0.36380	  0.60970	 -0.09593	  1.19865	 -0.05090	  1.26059	708.70001	 22.60	
 18.690	-105.863	  1.03388	  0.30526	  0.67205	 -0.08497	  1.18005	 -0.05563	  1.25841	708.71600	 22.50	
 18.707	-111.165	  1.03392	  0.25399	  0.73217	 -0.07065	  1.16031	 -0.05519	  1.25905	708.88501	 22.50	
 18.698	-116.504	  1.03268	  0.20452	  0.79153	 -0.05143	  1.13197	 -0.05705	  1.25777	708.58398	 22.60	
 18.700	-121.794	  1.02991	  0.15800	  0.84648	 -0.02872	  1.09690	 -0.05757	  1.25456	708.78101	 22.60	
 18.713	-127.067	  1.03407	  0.11460	  0.90488	 -0.00214	  1.06288	 -0.05865	  1.25944	708.58398	 22.50	
 18.705	-132.343	  1.03511	  0.07874	  0.95607	  0.03160	  1.01942	 -0.05805	  1.25806	708.70300	 22.60	
 18.699	-137.625	  1.03717	  0.04478	  1.00653	  0.06895	  0.97247	 -0.05801	  1.25918	708.70001	 22.50	
 18.698	-142.952	  1.03811	  0.01170	  1.05112	  0.10695	  0.92096	 -0.06218	  1.26069	708.69299	 22.50	
 18.704	-148.255	  1.03415	 -0.01241	  1.08425	  0.15074	  0.86333	 -0.05859	  1.25522	708.73297	 22.50	
 18.695	-153.537	  1.03754	 -0.03411	  1.11871	  0.19881	  0.80742	 -0.05977	  1.25730	708.72803	 22.50	
 18.706	-158.818	  1.03930	 -0.05030	  1.14670	  0.24968	  0.74954	 -0.05766	  1.25764	708.85199	 22.50	
 18.691	-164.085	  1.03530	 -0.06383	  1.16235	  0.30122	  0.68654	 -0.05790	  1.25175	708.66498	 22.50	
 18.703	-169.441	  1.03968	 -0.07297	  1.18140	  0.35937	  0.62674	 -0.05658	  1.25541	708.61700	 22.50	
 18.709	-174.675	  1.04331	 -0.07532	  1.19201	  0.41918	  0.56858	 -0.05690	  1.25681	708.64801	 22.60	
 18.700	180.000	  1.04370	 -0.07961	  1.19489	  0.47697	  0.50706	 -0.05962	  1.25670	708.61798	 22.60	
 20.400	180.000	  0.99835	 -0.15874	  1.22001	  0.43830	  0.46917	 -0.05734	  1.25929	708.67999	 22.60	
 20.401	-175.153	  0.98997	 -0.16185	  1.21195	  0.37577	  0.52365	 -0.05673	  1.25351	708.67902	 22.60	
 20.407	-170.264	  0.98944	 -0.15739	  1.20438	  0.31768	  0.58458	 -0.05475	  1.25511	708.79498	 22.60	
 20.410	-165.423	  0.99207	 -0.14835	  1.19406	  0.26252	  0.64879	 -0.05519	  1.25827	708.73602	 22.60	
 20.392	-160.496	  0.99203	 -0.13801	  1.17677	  0.20821	  0.70945	 -0.05425	  1.25957	708.59802	 22.60	
 20.401	-155.705	  0.99022	 -0.12149	  1.15184	  0.15840	  0.76816	 -0.05502	  1.26052	708.68597	 22.50	
 20.405	-150.835	  0.98789	 -0.10275	  1.11943	  0.10841	  0.82563	 -0.05627	  1.25765	708.66901	 22.50	
 20.397	-145.903	  0.98865	 -0.07781	  1.08419	  0.06439	  0.88447	 -0.05867	  1.25975	708.73102	 22.50	
 20.392	-141.062	  0.98618	 -0.05021	  1.04067	  0.02446	  0.93517	 -0.05709	  1.25594	708.70801	 22.50	
 20.396	-136.227	  0.98483	 -0.02064	  0.99520	 -0.01540	  0.98569	 -0.05720	  1.25670	708.74200	 22.50	
 20.408	-131.372	  0.97796	  0.01122	  0.94218	 -0.05091	  1.02675	 -0.05589	  1.24977	708.90002	 22.50	
 20.410	-126.511	  0.98085	  0.04890	  0.89241	 -0.08092	  1.07121	 -0.05461	  1.25403	708.70203	 22.50	
 20.400	-121.604	  0.97839	  0.09182	  0.83454	 -0.10674	  1.10703	 -0.05468	  1.25086	708.71301	 22.50	
 20.403	-116.741	  0.98032	  0.13790	  0.77704	 -0.13053	  1.14294	 -0.05278	  1.25430	708.69702	 22.50	
 20.413	-111.900	  0.98268	  0.18575	  0.72064	 -0.14899	  1.17324	 -0.04779	  1.25764	708.71698	 22.50	
 20.398	-107.004	  0.98184	  0.23662	  0.65907	 -0.16454	  1.19386	 -0.04609	  1.25552	708.72803	 22.50	
 20.394	-102.132	  0.98163	  0.29246	  0.59680	 -0.17484	  1.21066	 -0.04456	  1.25528	708.72803	 22.50	
 20.403	-97.332	  0.98316	  0.34777	  0.53493	 -0.18455	  1.22332	 -0.04488	  1.25733	708.70801	 22.50	
 20.392	-92.440	  0.98205	  0.40485	  0.47341	 -0.18762	  1.22650	 -0.04187	  1.25470	708.66602	 22.50	
 20.392	-87.560	  0.98398	  0.46729	  0.41322	 -0.18656	  1.22821	 -0.03927	  1.25612	708.60901	 22.50	
 20.403	-82.668	  0.98545	  0.52786	  0.35537	 -0.18285	  1.22425	 -0.03888	  1.25809	708.66199	 22.50	
 20.394	-77.868	  0.98693	  0.58914	  0.29970	 -0.17471	  1.21431	 -0.03773	  1.25664	708.64001	 22.50	
 20.398	-72.996	  0.98710	  0.65143	  0.24489	 -0.16219	  1.19796	 -0.03702	  1.25515	708.67902	 22.50	
 20.413	-68.100	  0.98405	  0.71099	  0.19063	 -0.14841	  1.17345	 -0.03842	  1.25107	708.68903	 22.50	
 20.403	-63.259	  0.98817	  0.77201	  0.14470	 -0.12731	  1.14811	 -0.03990	  1.25295	708.69702	 22.50	
 20.400	-58.396	  0.99225	  0.83387	  0.09669	 -0.10875	  1.12176	 -0.04222	  1.25913	708.74402	 22.50	
 20.410	-53.489	  0.99065	  0.88673	  0.05636	 -0.07906	  1.07992	 -0.04204	  1.25381	708.65802	 22.50	
 20.408	-48.628	  0.99313	  0.94223	  0.01879	 -0.04808	  1.04077	 -0.03862	  1.25606	708.72400	 22.50	
 20.396	-43.773	  0.99626	  0.99349	 -0.01649	 -0.01363	  0.99592	 -0.03840	  1.25740	708.75500	 22.50	
 20.392	-38.938	  0.99566	  1.03829	 -0.04690	  0.02575	  0.94389	 -0.03882	  1.25628	708.80701	 22.50	
 20.397	-34.097	  0.99948	  1.08127	 -0.07682	  0.06401	  0.89435	 -0.04381	  1.25919	708.74799	 22.50	
 20.405	-29.165	  0.99625	  1.11461	 -0.09880	  0.11066	  0.83415	 -0.04026	  1.25341	708.82001	 22.50	
 20.401	-24.295	  0.99638	  1.14504	 -0.11884	  0.15933	  0.77582	 -0.04069	  1.25255	708.72803	 22.50	
 20.392	-19.504	  0.99471	  1.16755	 -0.13586	  0.20672	  0.71585	 -0.03929	  1.24923	708.79999	 22.50	
 20.410	-14.577	  0.99712	  1.19088	 -0.14875	  0.26138	  0.65618	 -0.03748	  1.25247	708.62299	 22.60	
 20.407	 -9.736	  0.99750	  1.20477	 -0.15982	  0.31636	  0.59441	 -0.04137	  1.25273	708.61700	 22.50	
 20.401	 -4.847	  0.99852	  1.21590	 -0.16641	  0.37270	  0.53484	 -0.03828	  1.25399	708.59198	 22.50	
 20.400	  0.000	  0.99719	  1.21664	 -0.16722	  0.43220	  0.47348	 -0.04024	  1.25145	708.59302	 22.50	
 20.401	  4.847	  1.00093	  1.21932	 -0.16427	  0.49563	  0.41652	 -0.03976	  1.25541	708.62903	 22.50	
 20.407	  9.736	  0.99932	  1.21184	 -0.15896	  0.55552	  0.35867	 -0.04072	  1.25371	708.65100	 22.50	
 20.410	 14.577	  1.00499	  1.20460	 -0.14750	  0.62202	  0.30506	 -0.04055	  1.25969	708.59302	 22.50	
 20.392	 19.504	  0.99875	  1.17849	 -0.13493	  0.67983	  0.24794	 -0.04471	  1.25092	708.59497	 22.50	
 20.401	 24.295	  1.00576	  1.16264	 -0.11939	  0.74221	  0.20130	 -0.04796	  1.25799	708.62402	 22.50	
 20.405	 29.165	  1.00723	  1.13549	 -0.09822	  0.80297	  0.15370	 -0.04907	  1.26039	708.66302	 22.50	
 20.397	 34.097	  1.00430	  1.09525	 -0.07332	  0.85903	  0.10782	 -0.05475	  1.25464	708.66498	 22.50	
 20.392	 38.938	  1.00656	  1.05699	 -0.04394	  0.91491	  0.06772	 -0.05763	  1.25567	708.59003	 22.50	
 20.396	 43.773	  1.01172	  1.01888	 -0.01290	  0.96921	  0.03156	 -0.05904	  1.26074	708.66199	 22.50	
 20.408	 48.628	  1.01362	  0.97366	  0.02216	  1.01991	 -0.00354	 -0.06189	  1.26362	708.64301	 22.50	
 20.410	 53.489	  1.01025	  0.91835	  0.06198	  1.05887	 -0.03226	 -0.05936	  1.25794	708.63397	 22.50	
 20.400	 58.396	  1.01313	  0.86527	  0.10251	  1.10023	 -0.06063	 -0.06088	  1.26087	708.74103	 22.50	
 20.403	 63.259	  1.01367	  0.80727	  0.14970	  1.13357	 -0.08336	 -0.06187	  1.26116	708.63397	 22.50	
 20.413	 68.100	  1.01341	  0.74811	  0.19907	  1.16158	 -0.10201	 -0.06279	  1.26006	708.62402	 22.50	
 20.398	 72.996	  1.01465	  0.68873	  0.25004	  1.18385	 -0.11681	 -0.06109	  1.26100	708.53601	 22.50	
 20.394	 77.868	  1.01726	  0.62732	  0.30753	  1.20447	 -0.12923	 -0.06129	  1.26395	708.67700	 22.50	
 20.403	 82.668	  1.01891	  0.56708	  0.36398	  1.21733	 -0.13797	 -0.06282	  1.26611	708.65698	 22.50	
 20.392	 87.560	  1.01669	  0.50496	  0.42318	  1.21963	 -0.13935	 -0.06027	  1.26241	708.65802	 22.50	
 20.392	 92.440	  1.01716	  0.44379	  0.48449	  1.22052	 -0.13997	 -0.05922	  1.26276	708.64899	 22.50	
 20.403	 97.332	  1.01639	  0.38319	  0.54628	  1.21514	 -0.13825	 -0.05772	  1.26287	708.60699	 22.50	
 20.394	102.132	  1.01830	  0.32885	  0.60758	  1.20461	 -0.12870	 -0.05811	  1.26391	708.62598	 22.50	
 20.398	107.004	  1.01344	  0.27100	  0.66896	  1.18405	 -0.11770	 -0.05303	  1.25836	708.62598	 22.50	
 20.413	111.900	  1.01433	  0.21847	  0.73090	  1.16456	 -0.10368	 -0.05661	  1.26177	708.72101	 22.50	
 20.403	116.741	  1.01086	  0.16724	  0.78825	  1.13400	 -0.08676	 -0.05630	  1.25966	708.59802	 22.50	
 20.400	121.604	  1.01328	  0.12282	  0.84821	  1.10277	 -0.06294	 -0.05646	  1.26139	708.70300	 22.50	
 20.410	126.511	  1.00943	  0.07788	  0.90241	  1.06257	 -0.03705	 -0.05621	  1.25835	708.59302	 22.50	
 20.408	131.372	  1.01001	  0.03886	  0.95624	  1.02060	 -0.00648	 -0.05513	  1.26034	708.67700	 22.50	
 20.396	136.227	  1.01021	  0.00217	  1.00561	  0.97322	  0.02664	 -0.05322	  1.26138	708.71600	 22.50	
 20.392	141.062	  1.00918	 -0.03138	  1.05098	  0.92271	  0.06272	 -0.05240	  1.26190	708.73602	 22.50	
 20.397	145.903	  1.00692	 -0.06172	  1.09018	  0.86769	  0.10282	 -0.05248	  1.26044	708.69397	 22.50	
 20.405	150.835	  1.00851	 -0.08616	  1.12915	  0.81036	  0.14828	 -0.05242	  1.26412	708.60101	 22.50	
 20.401	155.705	  1.00955	 -0.10845	  1.16082	  0.75208	  0.19546	 -0.05418	  1.26692	708.60101	 22.50	
 20.392	160.496	  1.00243	 -0.12408	  1.17684	  0.68762	  0.24414	 -0.05320	  1.25714	708.78699	 22.50	
 20.410	165.423	  0.99496	 -0.14111	  1.19024	  0.62114	  0.29333	 -0.05645	  1.25181	708.83502	 22.50	
 20.407	170.264	  0.99759	 -0.14963	  1.20790	  0.56176	  0.35088	 -0.05542	  1.25575	708.78302	 22.50	
 20.401	175.153	  0.99579	 -0.15628	  1.21435	  0.49917	  0.40716	 -0.05278	  1.25634	708.74402	 22.50	
  0.141	 45.000	  1.26543	  0.69616	  0.68534	  0.68078	  0.70761	  0.00752	  1.25494	708.71600	 22.50	
  4.001	128.691	  1.26577	  0.59037	  0.75945	  0.77088	  0.58513	  0.00133	  1.26007	708.69299	 22.50	
  4.002	 76.995	  1.26091	  0.70452	  0.63358	  0.79628	  0.55837	  0.00143	  1.25316	708.62402	 22.50	
  4.002	 25.892	  1.26165	  0.80711	  0.54327	  0.71782	  0.62998	  0.00245	  1.25525	708.67401	 22.50	
  4.002	-25.892	  1.26355	  0.80516	  0.54370	  0.59225	  0.75619	 -0.00115	  1.25869	708.85999	 22.50	
  4.002	-76.995	  1.25983	  0.70110	  0.63246	  0.51951	  0.83500	 -0.00196	  1.25578	708.72699	 22.50	
  4.001	-128.691	  1.25936	  0.58184	  0.75566	  0.54440	  0.80343	 -0.00064	  1.25516	708.67700	 22.50	
  4.000	180.000	  1.26861	  0.53914	  0.81960	  0.65763	  0.69253	  0.00169	  1.26382	708.76703	 22.50	
  8.000	180.000	  1.23563	  0.36570	  0.94920	  0.62535	  0.65886	 -0.01357	  1.25801	708.71600	 22.50	
  7.991	-152.370	  1.23470	  0.39231	  0.91283	  0.49113	  0.79930	 -0.01356	  1.25838	708.67902	 22.50	
  7.997	-124.550	  1.23216	  0.47690	  0.81058	  0.39181	  0.91330	 -0.01396	  1.25815	708.73602	 22.50	
  8.006	-96.837	  1.22998	  0.60024	  0.67120	  0.34375	  0.96708	 -0.02237	  1.25600	708.58698	 22.50	
  7.988	-69.228	  1.23398	  0.74679	  0.53123	  0.36047	  0.95198	 -0.02010	  1.25904	708.66302	 22.50	
  7.997	-41.563	  1.23606	  0.87087	  0.42374	  0.43452	  0.86733	 -0.01883	  1.25880	708.56201	 22.50	
  8.008	-13.821	  1.23456	  0.94257	  0.36566	  0.55423	  0.73422	 -0.01597	  1.25483	708.66199	 22.50	
  8.008	 13.821	  1.23845	  0.94665	  0.36561	  0.69722	  0.59300	 -0.01633	  1.25713	708.59497	 22.50	
  7.997	 41.563	  1.23886	  0.87811	  0.42562	  0.82909	  0.47547	 -0.01369	  1.25613	708.60999	 22.50	
  7.988	 69.228	  1.23634	  0.75440	  0.53303	  0.91492	  0.40127	 -0.01315	  1.25237	708.69598	 22.50	
  8.006	 96.837	  1.24179	  0.61553	  0.67446	  0.93691	  0.38792	 -0.01513	  1.25834	708.71002	 22.50	
  7.997	124.550	  1.23730	  0.48561	  0.80955	  0.87934	  0.42933	 -0.01526	  1.25486	708.69397	 22.50	
  7.991	152.370	  1.23908	  0.39758	  0.91382	  0.76677	  0.52662	 -0.01451	  1.25881	708.60999	 22.50	
 12.009	161.059	  1.18358	  0.21249	  1.03415	  0.72663	  0.47204	 -0.03521	  1.25514	708.46503	 22.50	
 12.013	142.081	  1.19010	  0.27523	  0.96226	  0.86852	  0.35411	 -0.03701	  1.25950	708.54498	 22.50	
 12.006	123.113	  1.18950	  0.37294	  0.84349	  0.97259	  0.26980	 -0.03803	  1.25505	708.63397	 22.50	
 12.007	104.200	  1.19440	  0.50001	  0.70549	  1.04188	  0.21952	 -0.03870	  1.26054	708.68799	 22.50	
 11.989	 85.301	  1.19078	  0.64238	  0.55556	  1.05022	  0.21082	 -0.03908	  1.25491	708.74402	 22.50	
 12.013	 66.294	  1.19265	  0.78991	  0.41990	  1.01285	  0.24259	 -0.03440	  1.25708	708.60602	 22.50	
 12.012	 47.388	  1.18921	  0.91834	  0.30558	  0.92203	  0.31208	 -0.03324	  1.25472	708.60303	 22.50	
 11.990	 28.440	  1.18857	  1.01324	  0.22781	  0.79885	  0.41507	 -0.03468	  1.25582	708.59998	 22.50	
 11.991	  9.464	  1.18822	  1.06364	  0.18687	  0.65373	  0.54624	 -0.03732	  1.25912	708.68500	 22.50	
 11.991	 -9.464	  1.18469	  1.05813	  0.18719	  0.50652	  0.69056	 -0.03881	  1.25610	708.63800	 22.50	
 11.990	-28.440	  1.18266	  1.00328	  0.22797	  0.37398	  0.83354	 -0.03798	  1.25482	708.74701	 22.50	
 12.012	-47.388	  1.18340	  0.90653	  0.30598	  0.26936	  0.95874	 -0.04266	  1.25896	708.56403	 22.50	
 12.013	-66.294	  1.17668	  0.77190	  0.41409	  0.19604	  1.04063	 -0.04325	  1.25545	708.61499	 22.50	
 11.989	-85.301	  1.18041	  0.62728	  0.55411	  0.16862	  1.08179	 -0.04357	  1.26110	708.49103	 22.50	
 12.007	-104.200	  1.18130	  0.48291	  0.70387	  0.17812	  1.06945	 -0.04180	  1.26337	708.60699	 22.50	
 12.006	-123.113	  1.17625	  0.35759	  0.84031	  0.22656	  1.00107	 -0.03806	  1.25704	708.64600	 22.50	
 12.013	-142.081	  1.17822	  0.26313	  0.95934	  0.31714	  0.89369	 -0.03674	  1.25883	708.52502	 22.50	
 12.009	-161.059	  1.18232	  0.20597	  1.03796	  0.43834	  0.75967	 -0.03312	  1.26033	708.58600	 22.50	
 16.000	180.000	  1.10699	  0.03193	  1.14726	  0.52449	  0.55550	 -0.05766	  1.25463	708.50299	 22.50	
 15.990	-165.604	  1.10498	  0.04496	  1.12901	  0.38841	  0.69929	 -0.05654	  1.25699	708.57898	 22.50	
 16.002	-151.165	  1.10700	  0.08668	  1.07456	  0.26554	  0.84299	 -0.05559	  1.26207	708.54700	 22.50	
 16.002	-136.836	  1.10259	  0.15221	  0.97980	  0.16042	  0.96758	 -0.05861	  1.25983	708.51898	 22.50	
 15.995	-122.439	  1.10319	  0.25116	  0.85999	  0.09036	  1.06648	 -0.05543	  1.26042	708.64899	 22.50	
 15.993	-107.966	  1.10416	  0.36640	  0.72162	  0.03833	  1.13542	 -0.05756	  1.26159	708.65399	 22.50	
 16.005	-93.629	  1.09868	  0.49665	  0.57405	  0.01456	  1.16139	 -0.05654	  1.25603	708.54498	 22.50	
 15.992	-79.234	  1.10331	  0.64108	  0.43361	  0.01863	  1.15766	 -0.05415	  1.26009	708.64899	 22.50	
 16.009	-64.774	  1.10500	  0.78465	  0.30395	  0.05210	  1.11060	 -0.05440	  1.25943	708.61798	 22.50	
 15.997	-50.364	  1.10783	  0.91651	  0.19383	  0.11509	  1.02615	 -0.05595	  1.25835	708.46600	 22.50	
 15.997	-36.045	  1.10544	  1.02307	  0.11055	  0.20357	  0.91017	 -0.05394	  1.25353	708.64301	 22.50	
 16.000	-21.597	  1.11169	  1.10793	  0.05535	  0.32060	  0.77980	 -0.04738	  1.25802	708.61700	 22.50	
 16.003	 -7.169	  1.11165	  1.14918	  0.02673	  0.45249	  0.63509	 -0.04811	  1.25797	708.62299	 22.50	
 16.003	  7.169	  1.11118	  1.15056	  0.02204	  0.59463	  0.48924	 -0.04963	  1.25478	708.57202	 22.50	
 16.000	 21.597	  1.11470	  1.11590	  0.05293	  0.74127	  0.35943	 -0.04946	  1.25754	708.53900	 22.50	
 15.997	 36.045	  1.11307	  1.03831	  0.11143	  0.87686	  0.24578	 -0.05072	  1.25321	708.59497	 22.50	
 15.997	 50.364	  1.11947	  0.93719	  0.19254	  0.99767	  0.15394	 -0.05299	  1.25872	708.54797	 22.50	
 16.009	 64.774	  1.11979	  0.80744	  0.29975	  1.08374	  0.08912	 -0.05419	  1.25824	708.57898	 22.50	
 15.992	 79.234	  1.11955	  0.66282	  0.42860	  1.13309	  0.05236	 -0.05747	  1.25705	708.36401	 22.50	
 16.005	 93.629	  1.11701	  0.51429	  0.57052	  1.14133	  0.04279	 -0.05906	  1.25476	708.61700	 22.50	
 15.993	107.966	  1.11669	  0.37993	  0.71698	  1.11184	  0.06563	 -0.05850	  1.25389	708.68903	 22.50	
 15.995	122.439	  1.11711	  0.25569	  0.86048	  1.04475	  0.11318	 -0.06021	  1.25676	708.54797	 22.50	
 16.002	136.836	  1.11385	  0.15882	  0.98050	  0.94110	  0.19008	 -0.05864	  1.25571	708.65698	 22.50	
 16.002	151.165	  1.10873	  0.09078	  1.06930	  0.81150	  0.29373	 -0.05646	  1.25242	708.61298	 22.50	
 15.990	165.604	  1.10670	  0.04535	  1.12741	  0.66843	  0.41595	 -0.05487	  1.25314	708.46600	 22.50	
 20.003	168.362	  1.01428	 -0.12776	  1.20320	  0.59428	  0.34308	 -0.05985	  1.26138	708.51898	 22.40	
 20.008	156.764	  1.01093	 -0.09365	  1.15201	  0.73605	  0.21781	 -0.05987	  1.25460	708.68597	 22.50	
 20.000	145.147	  1.01873	 -0.03858	  1.08122	  0.87760	  0.11120	 -0.05882	  1.26044	708.53699	 22.50	
 19.995	133.545	  1.01932	  0.03786	  0.97598	  0.99635	  0.02467	 -0.05877	  1.25805	708.52502	 22.50	
 20.009	121.926	  1.02397	  0.13396	  0.85356	  1.09879	 -0.04491	 -0.05659	  1.26196	708.54498	 22.50	
 20.005	110.327	  1.02050	  0.24750	  0.71203	  1.16142	 -0.08997	 -0.05209	  1.25495	708.41803	 22.40	
 19.989	 98.733	  1.02270	  0.37651	  0.56913	  1.19862	 -0.11365	 -0.05133	  1.25436	708.50000	 22.50	
 19.999	 87.075	  1.02359	  0.51598	  0.42557	  1.20821	 -0.12120	 -0.05547	  1.25741	708.49902	 22.50	
 19.992	 75.457	  1.02400	  0.66095	  0.29259	  1.18354	 -0.10157	 -0.05454	  1.25615	708.48901	 22.50	
 20.009	 63.844	  1.02113	  0.79899	  0.17118	  1.12843	 -0.06582	 -0.05377	  1.25508	708.41199	 22.40	
 19.989	 52.269	  1.02061	  0.93065	  0.06776	  1.04384	 -0.00753	 -0.05045	  1.25562	708.49103	 22.40	
 19.999	 40.602	  1.02022	  1.04296	 -0.01627	  0.93289	  0.07210	 -0.04912	  1.25720	708.34802	 22.50	
 20.004	 29.051	  1.01484	  1.12777	 -0.08053	  0.80192	  0.16870	 -0.04649	  1.25481	708.55603	 22.40	
 20.005	 17.433	  1.01623	  1.18812	 -0.12274	  0.66271	  0.28526	 -0.04131	  1.25851	708.39301	 22.40	
 20.006	  5.780	  1.01346	  1.21405	 -0.14197	  0.51741	  0.41648	 -0.03898	  1.25561	708.36499	 22.40	
 20.006	 -5.780	  1.00912	  1.20876	 -0.14538	  0.37487	  0.55260	 -0.04242	  1.25221	708.30298	 22.40	
 20.005	-17.433	  1.01227	  1.18017	 -0.12382	  0.24361	  0.70012	 -0.04156	  1.25752	708.42297	 22.40	
 20.004	-29.051	  1.00944	  1.11399	 -0.08209	  0.12568	  0.83702	 -0.04735	  1.25549	708.39899	 22.40	
 19.999	-40.602	  1.01114	  1.02647	 -0.02078	  0.02794	  0.96581	 -0.04615	  1.26115	708.45203	 22.40	
 19.989	-52.269	  1.00284	  0.90144	  0.06222	 -0.05386	  1.06730	 -0.04756	  1.25316	708.55603	 22.40	
 20.009	-63.844	  1.00588	  0.77339	  0.16782	 -0.11048	  1.15387	 -0.04652	  1.25892	708.47998	 22.40	
 19.992	-75.457	  0.99877	  0.62702	  0.28590	 -0.14857	  1.20110	 -0.04187	  1.25545	708.56403	 22.40	
 19.999	-87.075	  0.99684	  0.48309	  0.41967	 -0.16458	  1.22070	 -0.04530	  1.25438	708.39502	 22.40	
 19.989	-98.733	  0.99884	  0.34441	  0.56433	 -0.16181	  1.21822	 -0.04825	  1.26087	708.40997	 22.40	
 20.005	-110.327	  0.99680	  0.21584	  0.70799	 -0.13565	  1.17799	 -0.05148	  1.25974	708.40997	 22.40	
 20.009	-121.926	  0.99755	  0.10712	  0.84562	 -0.08656	  1.10897	 -0.05540	  1.25869	708.57800	 22.40	
 19.995	-133.545	  0.99669	  0.01293	  0.96871	 -0.01930	  1.01087	 -0.05774	  1.25692	708.38202	 22.40	
 20.000	-145.147	  0.99819	 -0.05593	  1.07202	  0.07312	  0.89226	 -0.05633	  1.25573	708.42902	 22.40	
 20.008	-156.764	  0.99907	 -0.10674	  1.14921	  0.18111	  0.75761	 -0.05552	  1.25524	708.43701	 22.40	
 20.003	-168.362	  1.00288	 -0.13366	  1.19597	  0.30890	  0.61615	 -0.05671	  1.25500	708.39899	 22.40	
 20.000	180.000	  1.01138	 -0.13909	  1.21682	  0.45045	  0.47886	 -0.05778	  1.26118	708.43701	 22.40	
