FileType=PCF
NHL=14
Date=08/25/17	15:13:44
Facility=APL
Serial=16328-6
Customer=NASA
NP=6
Mach=0.100000
Calibration=1:1
CalPts=490
TstPts=95
PortNumbering=AP Standard
Units=Torr C m/s kg/m^3 deg mm 
Theta[deg]	Phi[deg]	P1[Torr]	P2[Torr]	P3[Torr]	P4[Torr]	P5[Torr]	P6[Torr]	Pt[Torr]	Ps[Abs,Torr]	Ts[C]	
  0.000	  0.000	  4.91158	  2.62061	  2.60128	  2.55407	  2.68495	  0.03708	  4.90991	706.70697	 23.10	
  1.691	128.401	  4.91759	  2.48039	  2.73857	  2.73180	  2.50358	  0.03750	  4.91649	706.48798	 23.10	
  1.692	 77.194	  4.92043	  2.67859	  2.54859	  2.78309	  2.46178	  0.03613	  4.91916	706.59198	 23.10	
  1.699	 26.182	  4.90799	  2.82300	  2.38610	  2.65201	  2.57623	  0.03566	  4.90761	708.07202	 23.10	
  1.699	-26.182	  4.90628	  2.80163	  2.38638	  2.44235	  2.76481	  0.02780	  4.90655	706.62903	 23.10	
  1.692	-77.194	  4.92240	  2.64700	  2.55077	  2.33014	  2.89552	  0.02707	  4.92071	706.50800	 23.10	
  1.691	-128.401	  4.91411	  2.46067	  2.73624	  2.37340	  2.83901	  0.02968	  4.91181	706.56897	 23.10	
  1.700	180.000	  4.90829	  2.38636	  2.80798	  2.54011	  2.67308	  0.02996	  4.90892	706.44800	 23.10	
  3.400	180.000	  4.90619	  2.12579	  3.05447	  2.50973	  2.64382	  0.01810	  4.91475	706.66199	 23.10	
  3.388	-152.325	  4.90565	  2.16582	  2.99609	  2.29488	  2.86305	  0.01515	  4.91350	706.52100	 23.10	
  3.397	-124.529	  4.90014	  2.29949	  2.83121	  2.12642	  3.03801	  0.01417	  4.91164	707.17401	 23.10	
  3.399	-96.763	  4.89560	  2.50554	  2.60540	  2.04717	  3.12499	  0.01177	  4.90638	706.54999	 23.10	
  3.394	-69.283	  4.89337	  2.73315	  2.37932	  2.07194	  3.09702	  0.00694	  4.90270	706.50403	 23.10	
  3.400	-41.398	  4.91083	  2.94401	  2.20441	  2.20624	  2.96856	  0.01044	  4.91824	708.09198	 23.10	
  3.401	-14.021	  4.90087	  3.05065	  2.11014	  2.39358	  2.75731	  0.01322	  4.90406	706.49597	 23.10	
  3.401	 14.021	  4.90764	  3.06405	  2.11729	  2.62864	  2.53235	  0.02117	  4.91041	708.10797	 23.10	
  3.400	 41.398	  4.91767	  2.95619	  2.22217	  2.84200	  2.34571	  0.02046	  4.91924	706.53302	 23.10	
  3.394	 69.283	  4.91986	  2.76435	  2.39936	  2.97496	  2.23296	  0.01888	  4.91954	707.14001	 23.10	
  3.399	 96.763	  4.90140	  2.52894	  2.61534	  2.99889	  2.19857	  0.02329	  4.90341	706.59198	 23.10	
  3.397	124.529	  4.91492	  2.33235	  2.83654	  2.92043	  2.26872	  0.01962	  4.92031	708.27502	 23.10	
  3.388	152.325	  4.91970	  2.18823	  2.99906	  2.74456	  2.43196	  0.01978	  4.92256	707.68903	 23.10	
  5.099	161.165	  4.88354	  1.88054	  3.24782	  2.71603	  2.36586	 -0.00139	  4.91216	708.32001	 23.10	
  5.109	142.013	  4.88749	  1.99366	  3.12470	  2.94331	  2.16389	 -0.00074	  4.91534	706.58099	 23.10	
  5.095	123.033	  4.88906	  2.16531	  2.93390	  3.11199	  2.02166	  0.00027	  4.91079	707.33698	 23.10	
  5.105	104.191	  4.89771	  2.38103	  2.71202	  3.22342	  1.94165	 -0.00040	  4.91861	708.09198	 23.20	
  5.093	 85.207	  4.89026	  2.61542	  2.46416	  3.23854	  1.92178	  0.00047	  4.90837	708.21503	 23.10	
  5.104	 66.290	  4.90154	  2.86233	  2.23918	  3.18313	  1.97919	  0.00319	  4.92247	708.13000	 23.10	
  5.094	 47.331	  4.88643	  3.06344	  2.04057	  3.03081	  2.09458	  0.00450	  4.90701	708.19299	 23.20	
  5.089	 28.397	  4.89670	  3.22386	  1.90844	  2.83871	  2.27260	 -0.00111	  4.92040	708.16998	 23.10	
  5.096	  9.576	  4.89593	  3.30850	  1.83448	  2.60351	  2.49409	 -0.00044	  4.92332	708.00500	 23.10	
  5.096	 -9.576	  4.89956	  3.30679	  1.83344	  2.35566	  2.74677	 -0.00348	  4.92731	708.04303	 23.20	
  5.089	-28.397	  4.88221	  3.20473	  1.90168	  2.13070	  2.96628	 -0.00613	  4.91134	706.38599	 23.10	
  5.094	-47.331	  4.89663	  3.05619	  2.04182	  1.95427	  3.17859	 -0.01143	  4.93194	706.38702	 23.10	
  5.104	-66.290	  4.87765	  2.83351	  2.22564	  1.82135	  3.31204	 -0.01359	  4.91698	706.37799	 23.10	
  5.093	-85.207	  4.87396	  2.59079	  2.45460	  1.76512	  3.37107	 -0.01159	  4.91548	706.41901	 23.20	
  5.105	-104.191	  4.87346	  2.34865	  2.70224	  1.78001	  3.35037	 -0.00713	  4.91692	708.04102	 23.10	
  5.095	-123.033	  4.88071	  2.14024	  2.93595	  1.87390	  3.24623	 -0.00164	  4.92319	706.80902	 23.10	
  5.109	-142.013	  4.88981	  1.97390	  3.13382	  2.03434	  3.07445	  0.00041	  4.92839	706.45697	 23.10	
  5.099	-161.165	  4.87777	  1.86769	  3.24989	  2.23641	  2.84242	  0.00398	  4.91553	706.49500	 23.10	
  5.100	180.000	  4.88784	  1.84097	  3.29707	  2.47499	  2.60476	  0.00313	  4.91908	708.12299	 23.10	
  6.800	180.000	  4.84866	  1.54952	  3.52787	  2.42902	  2.55901	 -0.02226	  4.92661	708.03003	 23.10	
  6.796	-166.229	  4.83354	  1.56660	  3.48755	  2.18678	  2.78960	 -0.02011	  4.91299	708.11603	 23.10	
  6.808	-152.311	  4.82640	  1.63463	  3.39463	  1.96477	  3.02093	 -0.02492	  4.91178	706.61902	 23.10	
  6.795	-138.383	  4.82953	  1.75926	  3.24756	  1.77446	  3.23650	 -0.02713	  4.91810	707.87500	 23.20	
  6.792	-124.591	  4.83385	  1.92610	  3.05869	  1.62523	  3.41029	 -0.02805	  4.92209	706.39801	 23.20	
  6.787	-110.754	  4.82883	  2.12940	  2.83211	  1.52503	  3.52738	 -0.03517	  4.91954	706.40601	 23.10	
  6.800	-96.985	  4.83160	  2.35671	  2.59582	  1.47424	  3.59412	 -0.04385	  4.92385	706.40900	 23.10	
  6.800	-83.015	  4.82267	  2.59628	  2.34367	  1.47220	  3.58736	 -0.04541	  4.90895	706.83899	 23.10	
  6.787	-69.246	  4.84209	  2.84414	  2.12642	  1.53319	  3.54059	 -0.04636	  4.93178	706.36298	 23.10	
  6.792	-55.409	  4.83824	  3.06386	  1.92002	  1.63133	  3.41753	 -0.04575	  4.92007	706.38599	 23.20	
  6.795	-41.617	  4.84094	  3.25864	  1.75395	  1.78220	  3.24903	 -0.04149	  4.91863	707.84698	 23.10	
  6.808	-27.689	  4.84606	  3.41338	  1.62898	  1.97323	  3.04106	 -0.03602	  4.92128	708.14301	 23.20	
  6.796	-13.771	  4.84342	  3.50482	  1.55274	  2.19046	  2.80662	 -0.03325	  4.91644	706.45398	 23.10	
  6.800	  0.000	  4.86137	  3.55152	  1.53318	  2.43349	  2.57705	 -0.03124	  4.93051	708.05701	 23.10	
  6.796	 13.771	  4.86542	  3.52720	  1.56000	  2.68052	  2.34069	 -0.02740	  4.93295	707.09302	 23.10	
  6.808	 27.689	  4.85305	  3.43022	  1.63161	  2.90644	  2.11749	 -0.02263	  4.91667	707.61603	 23.10	
  6.795	 41.617	  4.86340	  3.28805	  1.76461	  3.11920	  1.93974	 -0.02252	  4.92639	706.62201	 23.20	
  6.792	 55.409	  4.86946	  3.10243	  1.93493	  3.29433	  1.79539	 -0.01836	  4.92803	708.15601	 23.10	
  6.787	 69.246	  4.86195	  2.87786	  2.13468	  3.40993	  1.69114	 -0.02019	  4.92121	708.23999	 23.10	
  6.800	 83.015	  4.86491	  2.64312	  2.36126	  3.47639	  1.63775	 -0.02549	  4.91996	708.12201	 23.10	
  6.800	 96.985	  4.86815	  2.40147	  2.60813	  3.47904	  1.63697	 -0.02587	  4.92599	708.09497	 23.10	
  6.787	110.754	  4.85923	  2.17112	  2.84098	  3.40909	  1.68704	 -0.02635	  4.91603	708.10498	 23.10	
  6.792	124.591	  4.85525	  1.96752	  3.06104	  3.28582	  1.78377	 -0.02728	  4.91544	708.20898	 23.10	
  6.795	138.383	  4.86086	  1.79905	  3.25816	  3.11983	  1.92907	 -0.02360	  4.92672	708.04901	 23.10	
  6.808	152.311	  4.85651	  1.66704	  3.40625	  2.91180	  2.10869	 -0.02106	  4.92642	708.18402	 23.10	
  6.796	166.229	  4.84922	  1.58240	  3.49451	  2.67310	  2.32094	 -0.02393	  4.92111	708.12299	 23.10	
  8.491	168.704	  4.79503	  1.28399	  3.71821	  2.62474	  2.25531	 -0.06002	  4.93028	706.49298	 23.10	
  8.502	157.493	  4.78882	  1.34804	  3.63527	  2.86374	  2.02607	 -0.05682	  4.91881	706.44000	 23.10	
  8.494	146.194	  4.79643	  1.45845	  3.51218	  3.09514	  1.82791	 -0.05598	  4.92456	706.51801	 23.10	
  8.495	135.039	  4.79208	  1.60069	  3.34176	  3.29384	  1.65076	 -0.06220	  4.91433	706.67798	 23.10	
  8.487	123.723	  4.80732	  1.78603	  3.14392	  3.47371	  1.51491	 -0.06673	  4.92708	706.38702	 23.10	
  8.492	112.575	  4.80667	  1.98972	  2.91749	  3.59596	  1.41432	 -0.06608	  4.92228	706.33197	 23.10	
  8.510	101.220	  4.80733	  2.21868	  2.67248	  3.67759	  1.35147	 -0.06538	  4.92335	706.45599	 23.10	
  8.500	 90.000	  4.81221	  2.46614	  2.42613	  3.70478	  1.33590	 -0.06587	  4.92857	706.34900	 23.10	
  8.510	 78.780	  4.81557	  2.71498	  2.18186	  3.68259	  1.35566	 -0.06255	  4.92968	707.91699	 23.10	
  8.492	 67.425	  4.80610	  2.95498	  1.94742	  3.59470	  1.42013	 -0.05431	  4.92016	708.05701	 23.10	
  8.487	 56.277	  4.80167	  3.17512	  1.74265	  3.46807	  1.52100	 -0.04951	  4.91910	708.06403	 23.10	
  8.495	 44.961	  4.80089	  3.37868	  1.56395	  3.29874	  1.66303	 -0.05697	  4.92064	708.06702	 23.10	
  8.494	 33.806	  4.79053	  3.53500	  1.42165	  3.09018	  1.83483	 -0.05944	  4.91269	708.13898	 23.10	
  8.502	 22.507	  4.80559	  3.67147	  1.31871	  2.87060	  2.04574	 -0.06023	  4.93265	708.06897	 23.10	
  8.491	 11.296	  4.79343	  3.73423	  1.25582	  2.62288	  2.26699	 -0.06339	  4.92126	708.09497	 23.10	
  8.500	  0.000	  4.79071	  3.75716	  1.23262	  2.36867	  2.51226	 -0.07120	  4.92198	707.57300	 23.10	
  8.491	-11.296	  4.78787	  3.72527	  1.25359	  2.12406	  2.75718	 -0.07005	  4.92150	706.36102	 23.10	
  8.502	-22.507	  4.78212	  3.64398	  1.31217	  1.89385	  2.99580	 -0.06961	  4.91893	706.48999	 23.10	
  8.494	-33.806	  4.79880	  3.52530	  1.42182	  1.68977	  3.23856	 -0.07457	  4.93993	706.51300	 23.10	
  8.495	-44.961	  4.77975	  3.34322	  1.55738	  1.50598	  3.42773	 -0.08104	  4.92481	706.23700	 23.10	
  8.487	-56.277	  4.77119	  3.13457	  1.73365	  1.36414	  3.58559	 -0.08484	  4.91621	706.92700	 23.10	
  8.492	-67.425	  4.77848	  2.91316	  1.93944	  1.26235	  3.71570	 -0.08717	  4.92831	707.09003	 23.10	
  8.510	-78.780	  4.77835	  2.66782	  2.17163	  1.19329	  3.79694	 -0.08770	  4.93212	706.27698	 23.10	
  8.500	-90.000	  4.76950	  2.41474	  2.41319	  1.17125	  3.81477	 -0.08818	  4.92692	706.41101	 23.10	
  8.510	-101.220	  4.76002	  2.16735	  2.65718	  1.18637	  3.78022	 -0.08332	  4.91965	706.45599	 23.10	
  8.492	-112.575	  4.76419	  1.93892	  2.90722	  1.25457	  3.70225	 -0.07301	  4.92400	706.45398	 23.10	
  8.487	-123.723	  4.76385	  1.73579	  3.13246	  1.35751	  3.57641	 -0.06256	  4.91969	706.45599	 23.10	
  8.495	-135.039	  4.76868	  1.56018	  3.33941	  1.49881	  3.41448	 -0.06355	  4.92535	707.12299	 23.10	
  8.494	-146.194	  4.75699	  1.42048	  3.49590	  1.67385	  3.20307	 -0.06357	  4.90776	706.43201	 23.10	
  8.502	-157.493	  4.77418	  1.32398	  3.63412	  1.89070	  2.98068	 -0.06021	  4.92341	708.03302	 23.10	
  8.491	-168.704	  4.77657	  1.26668	  3.70959	  2.11954	  2.74045	 -0.05584	  4.92494	708.09698	 23.10	
  8.500	180.000	  4.77598	  1.24896	  3.73352	  2.36179	  2.49182	 -0.05898	  4.91701	708.08801	 23.20	
 10.200	180.000	  4.69854	  0.95119	  3.93528	  2.29183	  2.42031	 -0.09663	  4.92196	707.96503	 23.10	
 10.191	-170.497	  4.69461	  0.96367	  3.91279	  2.04450	  2.66926	 -0.09341	  4.92294	707.98499	 23.20	
 10.210	-161.034	  4.69069	  1.01043	  3.84723	  1.80769	  2.91492	 -0.09628	  4.92416	708.06000	 23.10	
 10.194	-151.526	  4.68469	  1.09481	  3.73246	  1.58544	  3.15412	 -0.10027	  4.91928	706.66699	 23.10	
 10.190	-142.105	  4.68685	  1.21236	  3.58981	  1.39087	  3.37684	 -0.10122	  4.92806	708.06097	 23.10	
 10.215	-132.646	  4.69256	  1.36158	  3.41483	  1.22445	  3.57593	 -0.09844	  4.93516	706.36700	 23.20	
 10.203	-123.092	  4.69481	  1.54420	  3.20467	  1.08497	  3.74828	 -0.09747	  4.94130	706.32898	 23.20	
 10.192	-113.678	  4.66686	  1.74026	  2.95505	  0.97627	  3.85305	 -0.10893	  4.91219	708.10797	 23.20	
 10.208	-104.249	  4.68620	  1.97189	  2.72241	  0.90645	  3.96091	 -0.12175	  4.93405	706.48499	 23.20	
 10.210	-94.801	  4.67377	  2.20522	  2.46356	  0.86827	  3.99738	 -0.13115	  4.91881	707.93597	 23.20	
 10.210	-85.199	  4.68139	  2.46314	  2.21077	  0.86920	  4.00450	 -0.13284	  4.92741	706.45398	 23.20	
 10.208	-75.751	  4.67684	  2.71156	  1.96725	  0.90665	  3.95519	 -0.13053	  4.91738	708.04999	 23.20	
 10.192	-66.322	  4.67776	  2.95317	  1.74300	  0.98097	  3.86647	 -0.12794	  4.91348	706.44800	 23.20	
 10.203	-56.908	  4.69652	  3.19620	  1.54336	  1.09059	  3.75306	 -0.12569	  4.93096	707.98798	 23.20	
 10.215	-47.354	  4.69916	  3.41156	  1.35820	  1.23021	  3.58696	 -0.11967	  4.92625	707.70599	 23.20	
 10.190	-37.895	  4.68608	  3.58055	  1.20599	  1.39291	  3.38279	 -0.11205	  4.90881	707.95398	 23.20	
 10.194	-28.474	  4.70926	  3.74715	  1.09206	  1.59387	  3.17798	 -0.10591	  4.93027	707.90100	 23.20	
 10.210	-18.966	  4.70877	  3.85943	  1.00220	  1.81393	  2.93562	 -0.10784	  4.92426	706.40900	 23.20	
 10.191	 -9.503	  4.71149	  3.92543	  0.95227	  2.04976	  2.68937	 -0.10788	  4.92526	706.64502	 23.20	
 10.200	  0.000	  4.70515	  3.94966	  0.93169	  2.29201	  2.43758	 -0.10771	  4.91679	706.35999	 23.20	
 10.191	  9.503	  4.71774	  3.93869	  0.95183	  2.55453	  2.19182	 -0.10494	  4.92848	708.10602	 23.20	
 10.210	 18.966	  4.72605	  3.88530	  1.00524	  2.80803	  1.96272	 -0.10107	  4.93213	708.12799	 23.20	
 10.194	 28.474	  4.72142	  3.77131	  1.09594	  3.04373	  1.74652	 -0.09957	  4.92177	707.24701	 23.20	
 10.190	 37.895	  4.72579	  3.63037	  1.21704	  3.27060	  1.55349	 -0.09661	  4.92584	706.84198	 23.20	
 10.215	 47.354	  4.72906	  3.45412	  1.36552	  3.47027	  1.38409	 -0.09163	  4.92349	706.80902	 23.20	
 10.203	 56.908	  4.74305	  3.25433	  1.55375	  3.64533	  1.25467	 -0.08509	  4.93733	707.95398	 23.20	
 10.192	 66.322	  4.72637	  3.01227	  1.75604	  3.75516	  1.15129	 -0.08861	  4.91368	706.35602	 23.20	
 10.208	 75.751	  4.73398	  2.77521	  1.98378	  3.85230	  1.07781	 -0.09996	  4.92489	706.30499	 23.20	
 10.210	 85.199	  4.73351	  2.52515	  2.22517	  3.89666	  1.04159	 -0.10645	  4.92196	706.36401	 23.20	
 10.210	 94.801	  4.73397	  2.27015	  2.48124	  3.89921	  1.03976	 -0.10706	  4.92189	706.27600	 23.20	
 10.208	104.249	  4.73558	  2.02880	  2.73389	  3.85529	  1.07281	 -0.10781	  4.92580	706.35199	 23.20	
 10.192	113.678	  4.73654	  1.80677	  2.97938	  3.76725	  1.14519	 -0.10919	  4.93074	706.20398	 23.20	
 10.203	123.092	  4.73583	  1.59537	  3.21352	  3.64253	  1.24360	 -0.11114	  4.93437	706.33197	 23.20	
 10.215	132.646	  4.73198	  1.40835	  3.42418	  3.47664	  1.37233	 -0.10540	  4.93392	706.28198	 23.20	
 10.190	142.105	  4.71476	  1.25420	  3.59163	  3.26508	  1.53840	 -0.09426	  4.91742	706.26001	 23.20	
 10.194	151.526	  4.70869	  1.12879	  3.73745	  3.04037	  1.72964	 -0.08942	  4.91677	706.28198	 23.20	
 10.210	161.034	  4.71931	  1.03631	  3.85963	  2.80818	  1.94765	 -0.09499	  4.93290	706.21503	 23.20	
 10.191	170.497	  4.70966	  0.97739	  3.91986	  2.55458	  2.17493	 -0.09864	  4.92652	706.39398	 23.20	
 11.899	171.783	  4.62296	  0.67772	  4.11528	  2.47851	  2.09377	 -0.13707	  4.94262	706.19702	 23.20	
 11.890	163.610	  4.61607	  0.72837	  4.04745	  2.72522	  1.85715	 -0.13389	  4.93134	706.24597	 23.20	
 11.889	155.445	  4.61190	  0.80720	  3.94607	  2.96748	  1.63439	 -0.13164	  4.91846	706.15198	 23.20	
 11.909	147.299	  4.61360	  0.91170	  3.81826	  3.20320	  1.42775	 -0.13237	  4.91704	706.35602	 23.20	
 11.902	139.148	  4.62692	  1.04931	  3.66262	  3.42728	  1.25235	 -0.13828	  4.92733	706.17999	 23.20	
 11.894	130.867	  4.62708	  1.21303	  3.46754	  3.61648	  1.09885	 -0.14456	  4.91898	706.28802	 23.20	
 11.897	122.732	  4.64073	  1.39869	  3.26125	  3.78961	  0.97006	 -0.15114	  4.93242	706.23102	 23.20	
 11.903	114.597	  4.64241	  1.60276	  3.03033	  3.92326	  0.86564	 -0.15668	  4.93342	706.20300	 23.20	
 11.893	106.346	  4.63443	  1.82874	  2.77420	  4.00960	  0.79375	 -0.15435	  4.92039	706.18701	 23.20	
 11.892	 98.155	  4.63690	  2.06797	  2.52159	  4.06801	  0.74934	 -0.15338	  4.92211	706.22302	 23.20	
 11.900	 90.000	  4.63959	  2.31752	  2.26978	  4.09043	  0.73683	 -0.15114	  4.92496	706.26599	 23.20	
 11.892	 81.845	  4.64444	  2.57200	  2.02261	  4.07246	  0.75434	 -0.14639	  4.92564	706.25299	 23.20	
 11.893	 73.654	  4.64776	  2.82483	  1.78579	  4.01784	  0.80229	 -0.13806	  4.93102	706.17297	 23.20	
 11.903	 65.403	  4.63593	  3.06472	  1.55564	  3.91350	  0.87635	 -0.12533	  4.92437	707.80701	 23.20	
 11.897	 57.268	  4.64200	  3.30074	  1.35238	  3.78466	  0.98167	 -0.12276	  4.92827	707.90100	 23.20	
 11.894	 49.133	  4.63430	  3.50809	  1.16960	  3.61617	  1.11273	 -0.12372	  4.92414	707.77002	 23.20	
 11.902	 40.852	  4.62668	  3.69476	  1.00638	  3.42128	  1.26544	 -0.12968	  4.92279	706.28497	 23.20	
 11.909	 32.701	  4.61386	  3.84450	  0.87302	  3.19962	  1.44263	 -0.13481	  4.91106	708.01898	 23.20	
 11.889	 24.555	  4.62250	  3.97768	  0.77364	  2.96851	  1.65230	 -0.13645	  4.92313	707.19702	 23.20	
 11.890	 16.390	  4.61120	  4.06038	  0.69624	  2.71744	  1.86914	 -0.13990	  4.91487	706.39203	 23.20	
 11.899	  8.217	  4.63259	  4.13380	  0.65482	  2.47824	  2.11394	 -0.14490	  4.93939	707.93597	 23.30	
 11.900	  0.000	  4.61698	  4.13707	  0.63727	  2.21363	  2.35742	 -0.14418	  4.92631	707.75403	 23.30	
 11.899	 -8.217	  4.60187	  4.10177	  0.65128	  1.95840	  2.60113	 -0.14236	  4.91129	706.29602	 23.30	
 11.890	-16.390	  4.60040	  4.03872	  0.69495	  1.72231	  2.84855	 -0.14368	  4.91184	706.37500	 23.30	
 11.889	-24.555	  4.60151	  3.94521	  0.76800	  1.49770	  3.09591	 -0.14182	  4.91878	706.40802	 23.30	
 11.909	-32.701	  4.60634	  3.81971	  0.87008	  1.29409	  3.33139	 -0.14489	  4.92892	707.20203	 23.30	
 11.902	-40.852	  4.60661	  3.65512	  1.00105	  1.11362	  3.54152	 -0.15127	  4.93001	707.47498	 23.30	
 11.894	-49.133	  4.60533	  3.45977	  1.16228	  0.95079	  3.73657	 -0.15875	  4.93325	707.84698	 23.30	
 11.897	-57.268	  4.59528	  3.23958	  1.34219	  0.81589	  3.89193	 -0.16456	  4.92792	707.18903	 23.40	
 11.903	-65.403	  4.58323	  2.99785	  1.54139	  0.70371	  4.01852	 -0.16701	  4.92306	707.70398	 23.40	
 11.893	-73.654	  4.58690	  2.75403	  1.76945	  0.63188	  4.11394	 -0.16719	  4.92924	707.09497	 23.40	
 11.892	-81.845	  4.55789	  2.48782	  1.99707	  0.58536	  4.14346	 -0.17026	  4.90304	706.42200	 23.40	
 11.900	-90.000	  4.57021	  2.24238	  2.25022	  0.57061	  4.17329	 -0.17444	  4.91738	706.29303	 23.40	
 11.892	-98.155	  4.57177	  1.99657	  2.50487	  0.58480	  4.15494	 -0.16735	  4.92014	706.32397	 23.40	
 11.893	-106.346	  4.56956	  1.75642	  2.75592	  0.62532	  4.09569	 -0.16322	  4.91911	706.11902	 23.40	
 11.903	-114.597	  4.56851	  1.53286	  3.00444	  0.69894	  4.00315	 -0.14504	  4.92247	706.25098	 23.40	
 11.897	-122.732	  4.57459	  1.33455	  3.23912	  0.80623	  3.87590	 -0.13505	  4.92520	706.27698	 23.40	
 11.894	-130.867	  4.57233	  1.15177	  3.45157	  0.93769	  3.70778	 -0.14107	  4.91856	706.27301	 23.40	
 11.902	-139.148	  4.57955	  0.99931	  3.64958	  1.10441	  3.51928	 -0.13601	  4.92315	707.90802	 23.40	
 11.909	-147.299	  4.58382	  0.87259	  3.81410	  1.28608	  3.31065	 -0.13892	  4.92831	707.27899	 23.40	
 11.889	-155.445	  4.58885	  0.77663	  3.94256	  1.49562	  3.07879	 -0.13816	  4.92549	707.47803	 23.40	
 11.890	-163.610	  4.59850	  0.70767	  4.04297	  1.72334	  2.83720	 -0.13467	  4.93217	706.23700	 23.40	
 11.899	-171.783	  4.59871	  0.66655	  4.09937	  1.96166	  2.58744	 -0.13543	  4.92748	706.23499	 23.40	
 11.900	180.000	  4.61448	  0.65873	  4.12925	  2.21603	  2.34334	 -0.13966	  4.93946	707.84698	 23.40	
 13.600	180.000	  4.49149	  0.36255	  4.28969	  2.11895	  2.24228	 -0.18181	  4.93444	706.25403	 23.50	
 13.608	-172.853	  4.47860	  0.36451	  4.26778	  1.86719	  2.48318	 -0.18014	  4.92665	706.42902	 23.50	
 13.611	-165.583	  4.47610	  0.40016	  4.21688	  1.62465	  2.73744	 -0.17932	  4.92925	707.58801	 23.50	
 13.601	-158.353	  4.46554	  0.46070	  4.12449	  1.39053	  2.98400	 -0.18001	  4.92105	706.29303	 23.50	
 13.609	-151.210	  4.47516	  0.54475	  4.02137	  1.18270	  3.22845	 -0.18022	  4.93725	707.88599	 23.50	
 13.611	-143.999	  4.45114	  0.65330	  3.85421	  0.98474	  3.43713	 -0.17569	  4.91464	706.35303	 23.50	
 13.601	-136.825	  4.45432	  0.78789	  3.68483	  0.81100	  3.64992	 -0.17191	  4.91935	707.96198	 23.50	
 13.596	-129.640	  4.44337	  0.94472	  3.47845	  0.65819	  3.82700	 -0.16648	  4.91026	707.99597	 23.50	
 13.611	-122.431	  4.44570	  1.11867	  3.26633	  0.52861	  3.99183	 -0.17564	  4.92016	706.38397	 23.50	
 13.604	-115.211	  4.43961	  1.32118	  3.02683	  0.43071	  4.11457	 -0.17798	  4.90984	706.50201	 23.50	
 13.595	-108.042	  4.45299	  1.54519	  2.78918	  0.35754	  4.22692	 -0.19019	  4.92370	706.33801	 23.50	
 13.607	-100.793	  4.44596	  1.77111	  2.53125	  0.30153	  4.28982	 -0.19821	  4.91589	707.17200	 23.50	
 13.601	-93.617	  4.44955	  2.01189	  2.28155	  0.27767	  4.32340	 -0.20583	  4.91592	706.37701	 23.50	
 13.601	-86.383	  4.45719	  2.26968	  2.03162	  0.27905	  4.33314	 -0.20491	  4.92437	706.29602	 23.50	
 13.607	-79.207	  4.46160	  2.52396	  1.79051	  0.30681	  4.30552	 -0.20294	  4.92757	707.85498	 23.50	
 13.595	-71.958	  4.46048	  2.77537	  1.55339	  0.35918	  4.23504	 -0.19156	  4.92011	708.03497	 23.50	
 13.604	-64.789	  4.46604	  3.02216	  1.33657	  0.43562	  4.14085	 -0.18843	  4.92254	706.28998	 23.50	
 13.611	-57.569	  4.46355	  3.25535	  1.12649	  0.53323	  4.00685	 -0.18988	  4.91708	706.31799	 23.50	
 13.596	-50.360	  4.47733	  3.48147	  0.95267	  0.66655	  3.85679	 -0.18570	  4.92574	708.00201	 23.60	
 13.601	-43.175	  4.47912	  3.68310	  0.79134	  0.81769	  3.67082	 -0.18613	  4.92208	708.10303	 23.60	
 13.611	-36.001	  4.48588	  3.86059	  0.65416	  0.99210	  3.46708	 -0.17358	  4.92473	707.68701	 23.60	
 13.609	-28.790	  4.48621	  4.00829	  0.54350	  1.18543	  3.24094	 -0.17151	  4.92046	706.30103	 23.60	
 13.601	-21.647	  4.49117	  4.13047	  0.45393	  1.39515	  3.00718	 -0.17183	  4.92363	707.81799	 23.60	
 13.611	-14.417	  4.49429	  4.22166	  0.39014	  1.62577	  2.75911	 -0.16917	  4.92357	707.92798	 23.60	
 13.608	 -7.147	  4.49881	  4.27724	  0.35275	  1.86857	  2.50717	 -0.17182	  4.92655	707.92297	 23.60	
 13.600	  0.000	  4.48995	  4.28861	  0.34146	  2.10833	  2.25626	 -0.17067	  4.91564	707.83002	 23.60	
 13.608	  7.147	  4.50210	  4.28888	  0.35416	  2.36794	  2.01552	 -0.17306	  4.92552	707.58502	 23.60	
 13.611	 14.417	  4.50521	  4.24406	  0.39281	  2.62648	  1.77545	 -0.17210	  4.92678	707.94800	 23.60	
 13.601	 21.647	  4.49253	  4.14913	  0.45633	  2.86912	  1.54492	 -0.16909	  4.90936	707.98798	 23.60	
 13.609	 28.790	  4.51162	  4.05358	  0.54617	  3.12414	  1.33915	 -0.17044	  4.92728	706.24902	 23.60	
 13.611	 36.001	  4.50745	  3.90693	  0.65653	  3.34730	  1.14481	 -0.16739	  4.91931	706.24298	 23.60	
 13.601	 43.175	  4.52142	  3.74102	  0.79926	  3.56235	  0.97912	 -0.16683	  4.92747	706.33197	 23.60	
 13.596	 50.360	  4.51581	  3.54364	  0.95988	  3.74548	  0.82829	 -0.15777	  4.91886	706.79102	 23.60	
 13.611	 57.569	  4.51288	  3.32474	  1.13888	  3.90744	  0.69871	 -0.16027	  4.91451	706.42603	 23.60	
 13.604	 64.789	  4.52125	  3.09502	  1.34413	  4.04442	  0.59899	 -0.16101	  4.91996	706.27301	 23.60	
 13.595	 71.958	  4.53370	  2.86082	  1.57059	  4.15453	  0.52717	 -0.17054	  4.93045	706.52698	 23.60	
 13.607	 79.207	  4.52577	  2.60318	  1.80061	  4.21556	  0.47165	 -0.18586	  4.92189	706.63599	 23.50	
 13.601	 86.383	  4.54262	  2.35684	  2.05299	  4.26444	  0.44355	 -0.19644	  4.93974	708.00403	 23.60	
 13.601	 93.617	  4.52855	  2.09923	  2.30035	  4.25342	  0.44311	 -0.19795	  4.92719	707.83801	 23.50	
 13.607	100.793	  4.53367	  1.85687	  2.55991	  4.22480	  0.46617	 -0.19655	  4.93054	706.38000	 23.50	
 13.595	108.042	  4.53363	  1.62185	  2.81346	  4.15738	  0.51729	 -0.19944	  4.93358	706.30798	 23.50	
 13.604	115.211	  4.53022	  1.39647	  3.05866	  4.05929	  0.58743	 -0.20085	  4.93357	706.66699	 23.50	
 13.611	122.431	  4.51262	  1.18756	  3.28482	  3.91339	  0.68506	 -0.19198	  4.91768	706.33301	 23.50	
 13.596	129.640	  4.51870	  1.00940	  3.50702	  3.75421	  0.81969	 -0.18246	  4.92591	706.30701	 23.50	
 13.601	136.825	  4.51210	  0.84438	  3.70317	  3.56177	  0.96602	 -0.17849	  4.92130	706.36102	 23.50	
 13.611	143.999	  4.51558	  0.69896	  3.88485	  3.35981	  1.13012	 -0.17294	  4.93601	706.46503	 23.60	
 13.609	151.210	  4.50486	  0.58461	  4.02334	  3.12563	  1.32351	 -0.16636	  4.92561	706.32397	 23.50	
 13.601	158.353	  4.49652	  0.48843	  4.13166	  2.87772	  1.52871	 -0.17404	  4.92137	706.42499	 23.50	
 13.611	165.583	  4.49420	  0.41644	  4.22162	  2.62848	  1.75171	 -0.17576	  4.92687	706.30402	 23.50	
 13.608	172.853	  4.49090	  0.37646	  4.27002	  2.37231	  1.99059	 -0.17770	  4.92762	706.43402	 23.50	
 15.298	173.587	  4.34771	  0.08726	  4.40979	  2.26304	  1.88045	 -0.21289	  4.91603	706.33899	 23.50	
 15.291	167.167	  4.34728	  0.12504	  4.35896	  2.51135	  1.64463	 -0.21162	  4.90905	706.42499	 23.50	
 15.307	160.676	  4.36810	  0.18462	  4.30169	  2.77695	  1.42160	 -0.20613	  4.92798	706.39203	 23.50	
 15.300	154.261	  4.35723	  0.26716	  4.18362	  3.01667	  1.20486	 -0.20186	  4.91320	706.48700	 23.60	
 15.288	147.854	  4.36123	  0.36883	  4.05171	  3.24882	  1.01196	 -0.20280	  4.90891	706.53302	 23.60	
 15.293	141.428	  4.37150	  0.49653	  3.90123	  3.47363	  0.84064	 -0.20360	  4.91248	706.45001	 23.60	
 15.299	134.985	  4.37671	  0.63850	  3.72268	  3.68403	  0.67420	 -0.21389	  4.91763	706.44800	 23.60	
 15.305	128.583	  4.37612	  0.80136	  3.51668	  3.86524	  0.53400	 -0.21952	  4.91118	706.45697	 23.60	
 15.309	122.142	  4.38029	  0.98144	  3.29870	  4.02583	  0.41190	 -0.22565	  4.91504	706.47302	 23.60	
 15.304	115.711	  4.39110	  1.18487	  3.06918	  4.16325	  0.31908	 -0.22677	  4.91850	706.53497	 23.60	
 15.297	109.291	  4.38576	  1.40091	  2.81909	  4.25999	  0.24494	 -0.22852	  4.91194	706.53497	 23.60	
 15.293	102.897	  4.39585	  1.63511	  2.57279	  4.34398	  0.19342	 -0.22582	  4.92190	706.35303	 23.60	
 15.293	 96.458	  4.38977	  1.86980	  2.31565	  4.37994	  0.16018	 -0.22456	  4.90972	708.09100	 23.60	
 15.300	 90.000	  4.39361	  2.11884	  2.06452	  4.39938	  0.14950	 -0.22188	  4.91446	706.51898	 23.60	
 15.293	 83.542	  4.40043	  2.37502	  1.81811	  4.38928	  0.16355	 -0.21873	  4.92525	706.50500	 23.60	
 15.293	 77.103	  4.40122	  2.63010	  1.57845	  4.34416	  0.19811	 -0.21185	  4.92491	706.56000	 23.60	
 15.297	 70.709	  4.40459	  2.88138	  1.35176	  4.27145	  0.25748	 -0.20080	  4.92857	706.52100	 23.60	
 15.304	 64.289	  4.39740	  3.12103	  1.13374	  4.16346	  0.33349	 -0.19085	  4.92462	706.48102	 23.60	
 15.309	 57.858	  4.38631	  3.34682	  0.93171	  4.02249	  0.42834	 -0.18534	  4.91761	706.52899	 23.60	
 15.305	 51.417	  4.38535	  3.56408	  0.75140	  3.86332	  0.54891	 -0.18744	  4.91988	706.51801	 23.60	
 15.299	 45.015	  4.38428	  3.76485	  0.59173	  3.68037	  0.69214	 -0.18982	  4.92134	706.75500	 23.60	
 15.293	 38.572	  4.37364	  3.93307	  0.44966	  3.46405	  0.85633	 -0.19030	  4.91116	707.65601	 23.60	
 15.288	 32.146	  4.38760	  4.10291	  0.33120	  3.25819	  1.03667	 -0.19400	  4.93075	706.44000	 23.60	
 15.300	 25.739	  4.36996	  4.21690	  0.22882	  3.01276	  1.22778	 -0.19137	  4.91754	706.47699	 23.60	
 15.307	 19.324	  4.36957	  4.31640	  0.15487	  2.76779	  1.44093	 -0.19220	  4.91750	706.48700	 23.60	
 15.291	 12.833	  4.38252	  4.40104	  0.10329	  2.52350	  1.67742	 -0.18767	  4.93730	706.57703	 23.60	
 15.298	  6.413	  4.37237	  4.43190	  0.06810	  2.26622	  1.90770	 -0.18616	  4.92554	706.58002	 23.60	
 15.300	  0.000	  4.36320	  4.43924	  0.05326	  2.00659	  2.15223	 -0.18682	  4.91954	707.12402	 23.60	
 15.298	 -6.413	  4.36803	  4.42486	  0.06682	  1.76373	  2.40336	 -0.18672	  4.92773	706.50800	 23.60	
 15.291	-12.833	  4.35747	  4.36376	  0.09858	  1.52250	  2.64518	 -0.18581	  4.91574	706.36700	 23.60	
 15.307	-19.324	  4.37035	  4.30344	  0.15247	  1.29200	  2.90984	 -0.18648	  4.93778	706.48499	 23.60	
 15.300	-25.739	  4.36390	  4.18963	  0.22952	  1.08061	  3.14495	 -0.18740	  4.93222	708.08899	 23.60	
 15.288	-32.146	  4.33744	  4.03151	  0.32769	  0.87997	  3.35531	 -0.18667	  4.90111	708.15601	 23.60	
 15.293	-38.572	  4.35142	  3.88668	  0.44726	  0.69807	  3.58791	 -0.19042	  4.92166	708.13000	 23.60	
 15.299	-45.015	  4.33722	  3.69365	  0.58301	  0.52855	  3.78274	 -0.19747	  4.91699	708.09198	 23.60	
 15.305	-51.417	  4.34356	  3.49582	  0.74652	  0.39176	  3.96462	 -0.19802	  4.92803	706.42902	 23.60	
 15.309	-57.858	  4.32898	  3.26592	  0.92453	  0.26925	  4.11180	 -0.19400	  4.91270	706.54102	 23.60	
 15.304	-64.289	  4.34355	  3.04415	  1.12658	  0.16920	  4.25891	 -0.19600	  4.93508	706.42603	 23.60	
 15.297	-70.709	  4.31782	  2.78176	  1.33445	  0.08816	  4.34161	 -0.19828	  4.91268	706.43701	 23.50	
 15.293	-77.103	  4.33036	  2.54374	  1.56461	  0.03189	  4.43064	 -0.19839	  4.93280	706.49500	 23.50	
 15.293	-83.542	  4.31239	  2.27753	  1.79752	 -0.00507	  4.45802	 -0.21087	  4.91612	706.45599	 23.50	
 15.300	-90.000	  4.30998	  2.02642	  2.04430	 -0.01869	  4.47180	 -0.21454	  4.91695	707.07001	 23.50	
 15.293	-96.458	  4.31431	  1.78478	  2.30267	 -0.00382	  4.45850	 -0.21796	  4.92097	706.40900	 23.50	
 15.293	-102.897	  4.31008	  1.54577	  2.55188	  0.02659	  4.41107	 -0.21538	  4.92067	706.30798	 23.50	
 15.297	-109.291	  4.30623	  1.32002	  2.80131	  0.08221	  4.33400	 -0.21021	  4.91761	706.43201	 23.50	
 15.304	-115.711	  4.31868	  1.11426	  3.05200	  0.16316	  4.23939	 -0.20328	  4.93027	706.45398	 23.50	
 15.309	-122.142	  4.31474	  0.91581	  3.28309	  0.26179	  4.10435	 -0.20051	  4.92523	706.44299	 23.60	
 15.305	-128.583	  4.30901	  0.73649	  3.49826	  0.38334	  3.93872	 -0.19958	  4.91733	708.01801	 23.50	
 15.299	-134.985	  4.30794	  0.57311	  3.70167	  0.51974	  3.76025	 -0.21078	  4.91446	707.19702	 23.50	
 15.293	-141.428	  4.32095	  0.44176	  3.89019	  0.68970	  3.56516	 -0.21050	  4.92495	708.07703	 23.50	
 15.288	-147.854	  4.32512	  0.32550	  4.04937	  0.87160	  3.34713	 -0.21704	  4.92333	706.43402	 23.60	
 15.300	-154.261	  4.33626	  0.23145	  4.19138	  1.07426	  3.12196	 -0.21882	  4.93424	706.51202	 23.50	
 15.307	-160.676	  4.32319	  0.15711	  4.27899	  1.28309	  2.87124	 -0.22070	  4.91529	707.69501	 23.50	
 15.291	-167.167	  4.33248	  0.10931	  4.35945	  1.52186	  2.62121	 -0.21786	  4.91605	706.43402	 23.50	
 15.298	-173.587	  4.34696	  0.07840	  4.41335	  1.76382	  2.37730	 -0.22007	  4.92845	706.45099	 23.50	
 15.300	180.000	  4.34646	  0.07348	  4.42291	  2.00712	  2.12831	 -0.21931	  4.92040	706.47400	 23.50	
 17.000	180.000	  4.19335	 -0.20190	  4.54982	  1.89507	  2.01193	 -0.24361	  4.91605	706.45398	 23.50	
 16.990	-174.179	  4.21514	 -0.19606	  4.56412	  1.66243	  2.27154	 -0.24547	  4.94973	708.22400	 23.50	
 17.009	-168.383	  4.18054	 -0.17230	  4.49173	  1.41341	  2.49988	 -0.25020	  4.91313	708.17102	 23.50	
 17.000	-162.596	  4.18507	 -0.12911	  4.43366	  1.18393	  2.75529	 -0.24854	  4.92613	708.13000	 23.50	
 16.990	-156.759	  4.18042	 -0.06287	  4.33762	  0.97032	  2.99770	 -0.24333	  4.92468	706.43701	 23.50	
 16.995	-150.919	  4.17616	  0.01748	  4.21615	  0.76614	  3.23212	 -0.24740	  4.92455	706.51801	 23.50	
 16.988	-145.161	  4.17269	  0.12421	  4.06985	  0.58156	  3.45726	 -0.23971	  4.92185	706.50403	 23.50	
 17.014	-139.343	  4.16316	  0.23817	  3.89878	  0.40558	  3.66517	 -0.24209	  4.91994	706.48199	 23.50	
 17.007	-133.546	  4.15886	  0.37631	  3.71036	  0.25473	  3.85647	 -0.23457	  4.91646	706.47101	 23.50	
 17.001	-127.699	  4.16684	  0.53841	  3.50785	  0.12252	  4.04101	 -0.22712	  4.92488	706.31799	 23.50	
 17.006	-121.937	  4.17217	  0.71242	  3.29322	  0.00492	  4.20458	 -0.22468	  4.93620	706.45898	 23.50	
 17.002	-116.134	  4.14988	  0.89664	  3.04503	 -0.09268	  4.31490	 -0.22446	  4.91214	706.38000	 23.50	
 17.001	-110.310	  4.15947	  1.10503	  2.80840	 -0.16863	  4.43093	 -0.22588	  4.92355	706.44000	 23.50	
 16.988	-104.517	  4.15039	  1.32126	  2.55706	 -0.22333	  4.49696	 -0.22231	  4.90968	706.61200	 23.50	
 17.008	-98.662	  4.16526	  1.55403	  2.31034	 -0.26861	  4.56985	 -0.21566	  4.92665	706.50403	 23.50	
 16.996	-92.909	  4.17057	  1.79503	  2.06416	 -0.28178	  4.59758	 -0.20684	  4.92993	706.52899	 23.50	
 16.996	-87.091	  4.17703	  2.04437	  1.81877	 -0.28284	  4.60492	 -0.20370	  4.93540	706.36401	 23.50	
 17.012	-81.253	  4.17937	  2.29217	  1.57452	 -0.27137	  4.58568	 -0.20605	  4.94074	706.55701	 23.50	
 16.988	-75.483	  4.17285	  2.53618	  1.34414	 -0.22834	  4.52260	 -0.19716	  4.92483	706.45398	 23.50	
 17.001	-69.690	  4.17156	  2.78376	  1.12281	 -0.16867	  4.44246	 -0.18409	  4.91849	706.43903	 23.50	
 17.002	-63.866	  4.18666	  3.03519	  0.91693	 -0.09171	  4.34827	 -0.18261	  4.92999	706.35303	 23.50	
 17.006	-58.063	  4.18677	  3.26674	  0.72317	  0.00561	  4.21501	 -0.19118	  4.92498	706.41699	 23.50	
 17.001	-52.301	  4.18887	  3.48595	  0.54410	  0.12067	  4.05763	 -0.19306	  4.92183	706.57397	 23.50	
 17.007	-46.454	  4.19118	  3.69698	  0.38492	  0.25908	  3.88129	 -0.19132	  4.91767	706.56897	 23.50	
 17.014	-40.657	  4.20768	  3.89975	  0.24075	  0.40650	  3.70365	 -0.19552	  4.93307	706.41498	 23.50	
 16.988	-34.839	  4.20027	  4.05719	  0.12211	  0.57766	  3.48139	 -0.19727	  4.91655	706.50800	 23.50	
 16.995	-29.081	  4.21183	  4.21253	  0.01872	  0.76715	  3.26410	 -0.19531	  4.92386	706.50800	 23.50	
 16.990	-23.241	  4.21081	  4.33666	 -0.06865	  0.97059	  3.02460	 -0.19525	  4.92462	706.47302	 23.50	
 17.000	-17.404	  4.22084	  4.44086	 -0.13776	  1.18392	  2.78902	 -0.19880	  4.93351	706.35199	 23.50	
 17.009	-11.617	  4.21886	  4.51032	 -0.18597	  1.41315	  2.53505	 -0.19976	  4.92702	706.47699	 23.50	
 16.990	 -5.821	  4.22100	  4.55031	 -0.20926	  1.65254	  2.28831	 -0.19169	  4.92582	706.50098	 23.50	
 17.000	  0.000	  4.21937	  4.56634	 -0.21894	  1.89360	  2.04105	 -0.19083	  4.92378	706.33600	 23.50	
 16.990	  5.821	  4.21985	  4.55634	 -0.20841	  2.14645	  1.79539	 -0.18265	  4.91954	706.51001	 23.50	
 17.009	 11.617	  4.22915	  4.52947	 -0.18011	  2.39987	  1.56508	 -0.19010	  4.92918	706.46198	 23.50	
 17.000	 17.404	  4.21783	  4.45562	 -0.13321	  2.64462	  1.33509	 -0.19116	  4.91528	707.32001	 23.50	
 16.990	 23.241	  4.22109	  4.36637	 -0.06611	  2.89441	  1.12122	 -0.18796	  4.91142	706.45398	 23.50	
 16.995	 29.081	  4.22640	  4.25509	  0.02145	  3.13780	  0.91905	 -0.19306	  4.91507	706.50201	 23.50	
 16.988	 34.839	  4.23566	  4.12266	  0.12672	  3.36833	  0.74137	 -0.19749	  4.92301	706.42603	 23.50	
 17.014	 40.657	  4.23023	  3.95520	  0.24246	  3.58175	  0.56229	 -0.20344	  4.91506	706.50098	 23.50	
 17.007	 46.454	  4.24156	  3.77894	  0.38566	  3.78954	  0.41143	 -0.20742	  4.92744	706.38702	 23.50	
 17.001	 52.301	  4.25424	  3.58091	  0.55263	  3.97583	  0.28334	 -0.20875	  4.93439	706.50201	 23.50	
 17.006	 58.063	  4.23912	  3.35180	  0.72406	  4.11788	  0.16525	 -0.20889	  4.91350	706.42200	 23.50	
 17.002	 63.866	  4.25611	  3.13070	  0.92289	  4.26876	  0.06736	 -0.21940	  4.93135	706.51898	 23.50	
 17.001	 69.690	  4.25360	  2.88725	  1.13043	  4.37808	 -0.01382	 -0.22081	  4.92879	706.48499	 23.50	
 16.988	 75.483	  4.24382	  2.63323	  1.34978	  4.44477	 -0.06983	 -0.23157	  4.91554	706.49298	 23.50	
 17.012	 81.253	  4.26298	  2.39481	  1.58530	  4.52101	 -0.11257	 -0.23769	  4.93493	706.55200	 23.50	
 16.996	 87.091	  4.25403	  2.13787	  1.82804	  4.53622	 -0.13134	 -0.23519	  4.92347	706.67401	 23.50	
 16.996	 92.909	  4.25678	  1.89157	  2.07755	  4.53636	 -0.12908	 -0.23735	  4.92487	706.62903	 23.50	
 17.008	 98.662	  4.25959	  1.64907	  2.32992	  4.51907	 -0.11873	 -0.24450	  4.93153	706.66998	 23.50	
 16.988	104.517	  4.25325	  1.40853	  2.58278	  4.45601	 -0.07827	 -0.24517	  4.92463	706.56299	 23.50	
 17.001	110.310	  4.25019	  1.18670	  2.83252	  4.37672	 -0.02199	 -0.24714	  4.92580	706.62201	 23.50	
 17.002	116.134	  4.25121	  0.97866	  3.07831	  4.26949	  0.05818	 -0.24409	  4.92688	706.58301	 23.50	
 17.006	121.937	  4.23666	  0.78284	  3.30272	  4.12348	  0.15617	 -0.24597	  4.91370	706.62799	 23.50	
 17.001	127.699	  4.24761	  0.60334	  3.53501	  3.98175	  0.26665	 -0.24590	  4.93194	706.59802	 23.50	
 17.007	133.546	  4.23446	  0.43821	  3.73119	  3.79469	  0.39460	 -0.24492	  4.92075	706.50201	 23.50	
 17.014	139.343	  4.22749	  0.29461	  3.91664	  3.59253	  0.54635	 -0.23891	  4.91760	706.57501	 23.50	
 16.988	145.161	  4.23089	  0.16902	  4.08944	  3.37914	  0.72171	 -0.23493	  4.92629	706.43402	 23.50	
 16.995	150.919	  4.21079	  0.05819	  4.21604	  3.13720	  0.89824	 -0.23822	  4.90674	706.52698	 23.50	
 16.990	156.759	  4.21186	 -0.03173	  4.33991	  2.90303	  1.09526	 -0.23838	  4.91432	706.49799	 23.50	
 17.000	162.596	  4.20569	 -0.10362	  4.43119	  2.65077	  1.31231	 -0.23990	  4.91126	706.86200	 23.60	
 17.009	168.383	  4.20352	 -0.15663	  4.50008	  2.40091	  1.53518	 -0.24273	  4.91639	706.65002	 23.60	
 16.990	174.179	  4.20248	 -0.18436	  4.53901	  2.15357	  1.77057	 -0.24420	  4.91837	708.18500	 23.60	
 18.709	174.675	  4.03173	 -0.44953	  4.64487	  2.02687	  1.64538	 -0.25803	  4.91598	706.51898	 23.50	
 18.703	169.441	  4.04867	 -0.42442	  4.62735	  2.27668	  1.42578	 -0.26256	  4.93044	707.96698	 23.60	
 18.691	164.085	  4.05352	 -0.37298	  4.56304	  2.53218	  1.20157	 -0.26629	  4.92413	706.48798	 23.60	
 18.706	158.818	  4.05060	 -0.31623	  4.47639	  2.77706	  0.98372	 -0.26638	  4.92054	706.45898	 23.60	
 18.695	153.537	  4.06636	 -0.23706	  4.38178	  3.02342	  0.79230	 -0.26067	  4.93150	706.58398	 23.60	
 18.704	148.255	  4.05829	 -0.14259	  4.23970	  3.24893	  0.60368	 -0.26221	  4.91528	706.52698	 23.60	
 18.698	142.952	  4.06959	 -0.03335	  4.09156	  3.48075	  0.42668	 -0.25833	  4.92369	706.51898	 23.60	
 18.699	137.625	  4.07195	  0.09929	  3.91694	  3.69090	  0.27031	 -0.26146	  4.92076	706.48499	 23.60	
 18.705	132.343	  4.07419	  0.24358	  3.72514	  3.87963	  0.13464	 -0.26043	  4.91867	706.40900	 23.60	
 18.713	127.067	  4.07873	  0.40315	  3.51890	  4.05978	  0.00528	 -0.25510	  4.92046	706.46301	 23.60	
 18.700	121.794	  4.09110	  0.57488	  3.30415	  4.22211	 -0.10600	 -0.25883	  4.93111	706.61102	 23.60	
 18.698	116.504	  4.08421	  0.76958	  3.06440	  4.34716	 -0.19459	 -0.24881	  4.92081	706.52100	 23.60	
 18.707	111.165	  4.08510	  0.97387	  2.81909	  4.45678	 -0.27107	 -0.23926	  4.91893	706.61603	 23.60	
 18.690	105.863	  4.09176	  1.19184	  2.57716	  4.54119	 -0.32595	 -0.23685	  4.92276	706.46301	 23.60	
 18.696	100.583	  4.08472	  1.41509	  2.32560	  4.59349	 -0.36555	 -0.23510	  4.91140	706.69202	 23.60	
 18.700	 95.309	  4.10788	  1.65719	  2.08937	  4.65189	 -0.38919	 -0.23110	  4.93742	706.51801	 23.60	
 18.700	 90.000	  4.09273	  1.89112	  1.83411	  4.64546	 -0.39685	 -0.23202	  4.91907	706.55701	 23.60	
 18.700	 84.691	  4.10446	  2.14944	  1.59388	  4.64714	 -0.38590	 -0.23218	  4.93307	706.48199	 23.60	
 18.696	 79.417	  4.08804	  2.38840	  1.35475	  4.59249	 -0.35835	 -0.23601	  4.91538	706.60797	 23.60	
 18.690	 74.137	  4.09479	  2.63729	  1.13276	  4.53901	 -0.31668	 -0.24256	  4.92333	706.54999	 23.60	
 18.707	 68.835	  4.08763	  2.88134	  0.91424	  4.45061	 -0.25871	 -0.23329	  4.91642	706.56299	 23.60	
 18.698	 63.496	  4.09646	  3.12804	  0.71608	  4.34961	 -0.17801	 -0.23293	  4.92792	706.42297	 23.60	
 18.700	 58.206	  4.08296	  3.34542	  0.52606	  4.20090	 -0.08480	 -0.23113	  4.91499	706.46198	 23.60	
 18.713	 52.933	  4.09064	  3.57383	  0.35182	  4.05591	  0.02366	 -0.22337	  4.92843	706.49597	 23.60	
 18.705	 47.657	  4.08512	  3.77242	  0.19505	  3.87222	  0.15257	 -0.22022	  4.92086	706.48199	 23.60	
 18.699	 42.375	  4.07352	  3.94957	  0.05470	  3.67517	  0.29067	 -0.21094	  4.91442	706.51898	 23.60	
 18.698	 37.048	  4.07928	  4.13059	 -0.07413	  3.47070	  0.44956	 -0.20868	  4.92201	706.60498	 23.50	
 18.704	 31.745	  4.06674	  4.27126	 -0.18508	  3.23780	  0.62372	 -0.18922	  4.91627	707.28998	 23.60	
 18.695	 26.463	  4.07302	  4.40563	 -0.27586	  3.01107	  0.81115	 -0.19030	  4.92433	706.68701	 23.60	
 18.706	 21.182	  4.06724	  4.50368	 -0.35081	  2.77089	  1.00853	 -0.17981	  4.92398	706.59802	 23.60	
 18.691	 15.915	  4.06568	  4.58400	 -0.40855	  2.52189	  1.22475	 -0.17432	  4.92412	706.57202	 23.60	
 18.703	 10.559	  4.04613	  4.62037	 -0.45021	  2.25991	  1.44159	 -0.18247	  4.90491	706.66498	 23.50	
 18.709	  5.325	  4.05787	  4.66735	 -0.47952	  2.02090	  1.67381	 -0.17343	  4.92349	706.64502	 23.50	
 18.700	  0.000	  4.05261	  4.66999	 -0.48642	  1.76795	  1.91659	 -0.17816	  4.91625	706.68103	 23.50	
 18.709	 -5.325	  4.05124	  4.65515	 -0.47838	  1.52876	  2.16291	 -0.18233	  4.91696	706.65399	 23.50	
 18.703	-10.559	  4.04060	  4.60326	 -0.45303	  1.29403	  2.39583	 -0.18559	  4.90721	706.55798	 23.50	
 18.691	-15.915	  4.05364	  4.55417	 -0.41235	  1.06915	  2.65790	 -0.19290	  4.92205	706.68500	 23.50	
 18.706	-21.182	  4.04990	  4.46634	 -0.35853	  0.85485	  2.89517	 -0.19316	  4.92066	706.57501	 23.50	
 18.695	-26.463	  4.03720	  4.34020	 -0.27545	  0.65645	  3.12298	 -0.18908	  4.90608	706.55798	 23.50	
 18.704	-31.745	  4.04665	  4.22015	 -0.18978	  0.46316	  3.36210	 -0.18750	  4.92379	706.62201	 23.50	
 18.698	-37.048	  4.02850	  4.04631	 -0.08030	  0.29094	  3.56709	 -0.18697	  4.90720	706.58801	 23.50	
 18.699	-42.375	  4.04623	  3.88810	  0.04621	  0.13407	  3.78823	 -0.18847	  4.92936	706.59698	 23.50	
 18.705	-47.657	  4.03236	  3.68727	  0.18400	 -0.01070	  3.96821	 -0.18351	  4.92194	706.56403	 23.50	
 18.713	-52.933	  4.02850	  3.47734	  0.33889	 -0.14061	  4.13968	 -0.17835	  4.92272	706.76001	 23.50	
 18.700	-58.206	  4.02353	  3.25090	  0.51328	 -0.24809	  4.28621	 -0.18151	  4.92013	706.58301	 23.60	
 18.698	-63.496	  4.01803	  3.01710	  0.70176	 -0.33859	  4.41264	 -0.17661	  4.91957	706.67798	 23.50	
 18.707	-68.835	  4.00143	  2.76735	  0.89996	 -0.41391	  4.50176	 -0.16786	  4.90445	706.56403	 23.50	
 18.690	-74.137	  4.01903	  2.53322	  1.12097	 -0.47433	  4.60691	 -0.17889	  4.93176	706.60303	 23.60	
 18.696	-79.417	  4.00324	  2.27707	  1.33837	 -0.51774	  4.65294	 -0.17579	  4.91748	706.59802	 23.60	
 18.700	-84.691	  3.99913	  2.02883	  1.57075	 -0.54587	  4.68653	 -0.18585	  4.91703	706.58899	 23.60	
 18.700	-90.000	  3.99799	  1.78337	  1.81300	 -0.55430	  4.69554	 -0.18448	  4.91822	706.58398	 23.60	
 18.700	-95.309	  4.00119	  1.54485	  2.06145	 -0.54837	  4.68864	 -0.19906	  4.92701	706.64502	 23.60	
 18.696	-100.583	  3.98809	  1.31197	  2.30300	 -0.52102	  4.63924	 -0.21061	  4.91227	706.69800	 23.60	
 18.690	-105.863	  3.98628	  1.08844	  2.54927	 -0.47768	  4.57643	 -0.21712	  4.91047	706.61902	 23.60	
 18.707	-111.165	  3.99662	  0.87471	  2.80493	 -0.42514	  4.50725	 -0.23230	  4.92554	706.37500	 23.60	
 18.698	-116.504	  3.99233	  0.67418	  3.04356	 -0.34927	  4.39430	 -0.24058	  4.92210	706.63599	 23.60	
 18.700	-121.794	  3.99044	  0.49265	  3.27056	 -0.25732	  4.26497	 -0.24601	  4.92049	706.61603	 23.60	
 18.713	-127.067	  3.98965	  0.32227	  3.49053	 -0.14933	  4.11267	 -0.24910	  4.92092	706.72400	 23.60	
 18.705	-132.343	  3.99463	  0.16451	  3.70348	 -0.02248	  3.94101	 -0.25816	  4.92225	706.71503	 23.60	
 18.699	-137.625	  4.00165	  0.03407	  3.89593	  0.12654	  3.75449	 -0.26008	  4.92185	706.65302	 23.60	
 18.698	-142.952	  4.00131	 -0.08664	  4.06978	  0.28732	  3.54762	 -0.25831	  4.92096	706.59802	 23.60	
 18.704	-148.255	  4.00680	 -0.19592	  4.22703	  0.45977	  3.33053	 -0.26233	  4.92608	706.59802	 23.60	
 18.695	-153.537	  4.01138	 -0.28340	  4.36064	  0.65243	  3.09756	 -0.26167	  4.92367	706.72998	 23.60	
 18.706	-158.818	  4.01697	 -0.34987	  4.46993	  0.85751	  2.86629	 -0.25793	  4.92584	706.59698	 23.60	
 18.691	-164.085	  4.01621	 -0.40460	  4.54945	  1.06856	  2.62327	 -0.26175	  4.91801	706.63702	 23.60	
 18.703	-169.441	  4.02309	 -0.44372	  4.61533	  1.29869	  2.37391	 -0.26234	  4.92277	706.66199	 23.60	
 18.709	-174.675	  4.03258	 -0.46173	  4.65410	  1.53490	  2.13385	 -0.26215	  4.92422	706.58099	 23.60	
 18.700	180.000	  4.03628	 -0.46560	  4.66640	  1.78063	  1.89052	 -0.25600	  4.92298	706.53497	 23.60	
 20.400	180.000	  3.86325	 -0.75892	  4.77154	  1.63825	  1.74806	 -0.26259	  4.93791	706.68103	 23.60	
 20.401	-175.153	  3.84157	 -0.75484	  4.74260	  1.39184	  1.97781	 -0.25689	  4.92250	706.55701	 23.60	
 20.407	-170.264	  3.83658	 -0.74019	  4.71263	  1.15441	  2.22155	 -0.25548	  4.92325	706.56702	 23.60	
 20.410	-165.423	  3.83486	 -0.70605	  4.65911	  0.93050	  2.46981	 -0.24806	  4.92510	706.69000	 23.60	
 20.392	-160.496	  3.82809	 -0.65864	  4.57707	  0.71503	  2.70843	 -0.24956	  4.92181	706.62598	 23.60	
 20.401	-155.705	  3.81611	 -0.59963	  4.47009	  0.50866	  2.93822	 -0.24776	  4.91246	706.59497	 23.60	
 20.405	-150.835	  3.81227	 -0.52706	  4.35087	  0.31429	  3.17459	 -0.25230	  4.91610	706.49597	 23.60	
 20.397	-145.903	  3.81260	 -0.43180	  4.21015	  0.13649	  3.40092	 -0.25787	  4.91937	706.56897	 23.60	
 20.392	-141.062	  3.81739	 -0.32524	  4.05551	 -0.02573	  3.61821	 -0.26794	  4.92775	706.50098	 23.60	
 20.396	-136.227	  3.81109	 -0.20312	  3.87225	 -0.17959	  3.81889	 -0.25772	  4.92635	706.51898	 23.60	
 20.408	-131.372	  3.81147	 -0.07041	  3.67993	 -0.31943	  4.01177	 -0.26197	  4.93287	706.59998	 23.60	
 20.410	-126.511	  3.80021	  0.08032	  3.46068	 -0.43853	  4.16807	 -0.25262	  4.91903	706.59998	 23.60	
 20.400	-121.604	  3.80946	  0.24736	  3.24718	 -0.54282	  4.32804	 -0.24725	  4.93263	706.61902	 23.60	
 20.403	-116.741	  3.80069	  0.43092	  3.00478	 -0.63324	  4.44894	 -0.23734	  4.91890	706.70697	 23.60	
 20.413	-111.900	  3.80836	  0.62589	  2.77320	 -0.70875	  4.57059	 -0.22364	  4.93134	706.59698	 23.60	
 20.398	-107.004	  3.80185	  0.83287	  2.52292	 -0.76516	  4.64770	 -0.20571	  4.91937	706.70099	 23.60	
 20.394	-102.132	  3.80605	  1.04548	  2.27867	 -0.81427	  4.71800	 -0.20246	  4.92487	706.61603	 23.60	
 20.403	-97.332	  3.81382	  1.27396	  2.03586	 -0.84258	  4.76889	 -0.17955	  4.93432	706.65399	 23.60	
 20.392	-92.440	  3.81331	  1.51079	  1.78776	 -0.85414	  4.78702	 -0.16872	  4.92827	706.57703	 23.60	
 20.392	-87.560	  3.81596	  1.75243	  1.54542	 -0.85392	  4.78993	 -0.15714	  4.92701	706.54401	 23.60	
 20.403	-82.668	  3.81296	  1.99437	  1.30760	 -0.84014	  4.76751	 -0.15572	  4.92225	706.60303	 23.60	
 20.394	-77.868	  3.82160	  2.24273	  1.08406	 -0.81019	  4.73307	 -0.15732	  4.92996	706.50403	 23.60	
 20.398	-72.996	  3.82450	  2.48810	  0.86808	 -0.76363	  4.66864	 -0.15696	  4.92665	706.58301	 23.60	
 20.413	-68.100	  3.83482	  2.74480	  0.65689	 -0.70170	  4.59163	 -0.15150	  4.93386	706.60498	 23.60	
 20.403	-63.259	  3.83378	  2.97634	  0.46562	 -0.62428	  4.47634	 -0.15147	  4.92267	706.55499	 23.60	
 20.400	-58.396	  3.83736	  3.21177	  0.27909	 -0.53378	  4.34687	 -0.15473	  4.92141	706.69897	 23.60	
 20.410	-53.489	  3.84394	  3.43800	  0.10622	 -0.43288	  4.20466	 -0.15626	  4.92643	706.68701	 23.60	
 20.408	-48.628	  3.85661	  3.66177	 -0.04800	 -0.31201	  4.04766	 -0.16046	  4.93537	706.66803	 23.60	
 20.396	-43.773	  3.84902	  3.84499	 -0.17892	 -0.16714	  3.84814	 -0.15789	  4.91425	706.66699	 23.60	
 20.392	-38.938	  3.85295	  4.02776	 -0.30835	 -0.02124	  3.64891	 -0.16208	  4.91502	706.54700	 23.60	
 20.397	-34.097	  3.86370	  4.20317	 -0.42209	  0.14000	  3.44585	 -0.15988	  4.92734	706.62598	 23.60	
 20.405	-29.165	  3.85860	  4.34058	 -0.51529	  0.31856	  3.21510	 -0.16099	  4.91735	706.47400	 23.60	
 20.401	-24.295	  3.86839	  4.47304	 -0.59315	  0.51356	  2.98549	 -0.16836	  4.92312	706.56897	 23.60	
 20.392	-19.504	  3.87214	  4.57407	 -0.65800	  0.71462	  2.75106	 -0.17140	  4.92172	706.58099	 23.60	
 20.410	-14.577	  3.87157	  4.65868	 -0.71255	  0.92779	  2.50575	 -0.17433	  4.92330	706.66498	 23.60	
 20.407	 -9.736	  3.86795	  4.70950	 -0.74442	  1.15416	  2.25823	 -0.16574	  4.91467	708.09497	 23.60	
 20.401	 -4.847	  3.87841	  4.75598	 -0.76892	  1.38871	  2.01815	 -0.17147	  4.92889	706.53198	 23.60	
 20.400	  0.000	  3.87512	  4.76473	 -0.77379	  1.62628	  1.77595	 -0.16754	  4.92294	706.58099	 23.60	
 20.401	  4.847	  3.87165	  4.75382	 -0.76736	  1.86942	  1.53325	 -0.17198	  4.91760	706.59802	 23.60	
 20.407	  9.736	  3.87929	  4.73605	 -0.74361	  2.11858	  1.30902	 -0.17508	  4.92631	706.58099	 23.60	
 20.410	 14.577	  3.87781	  4.68255	 -0.70761	  2.36510	  1.08413	 -0.17661	  4.92246	706.62598	 23.50	
 20.392	 19.504	  3.88757	  4.61707	 -0.65419	  2.62156	  0.87232	 -0.18804	  4.92625	706.54401	 23.50	
 20.401	 24.295	  3.88918	  4.52445	 -0.58808	  2.85742	  0.67576	 -0.19337	  4.92411	706.51599	 23.50	
 20.405	 29.165	  3.89020	  4.40920	 -0.50775	  3.09543	  0.48357	 -0.20169	  4.92140	706.54901	 23.50	
 20.397	 34.097	  3.89342	  4.26989	 -0.40856	  3.33243	  0.30175	 -0.21384	  4.92256	706.61102	 23.50	
 20.392	 38.938	  3.89502	  4.11073	 -0.29645	  3.54540	  0.14342	 -0.22988	  4.91964	706.59198	 23.50	
 20.396	 43.773	  3.89746	  3.93428	 -0.16883	  3.74803	 -0.00423	 -0.25054	  4.91451	706.63599	 23.50	
 20.408	 48.628	  3.89748	  3.74352	 -0.03471	  3.93763	 -0.14183	 -0.25833	  4.91600	706.52899	 23.50	
 20.410	 53.489	  3.90721	  3.54538	  0.12205	  4.12162	 -0.26496	 -0.26181	  4.92474	706.66498	 23.50	
 20.400	 58.396	  3.90264	  3.31765	  0.29405	  4.26794	 -0.36815	 -0.27388	  4.91493	706.56403	 23.50	
 20.403	 63.259	  3.91137	  3.09339	  0.47965	  4.40766	 -0.45757	 -0.27815	  4.92301	706.62201	 23.50	
 20.413	 68.100	  3.91883	  2.86639	  0.67402	  4.52878	 -0.53118	 -0.27288	  4.93137	706.68402	 23.50	
 20.398	 72.996	  3.91401	  2.61691	  0.88204	  4.60967	 -0.59259	 -0.26925	  4.92154	706.56897	 23.50	
 20.394	 77.868	  3.92016	  2.37420	  1.10506	  4.68188	 -0.63674	 -0.26890	  4.92890	706.53302	 23.50	
 20.403	 82.668	  3.91150	  2.11971	  1.32469	  4.71742	 -0.67236	 -0.25683	  4.91655	706.57703	 23.50	
 20.392	 87.560	  3.92233	  1.88376	  1.56947	  4.74733	 -0.67824	 -0.24947	  4.92781	706.65302	 23.50	
 20.392	 92.440	  3.91582	  1.63391	  1.81308	  4.73980	 -0.68102	 -0.21923	  4.92010	706.60602	 23.50	
 20.403	 97.332	  3.90935	  1.39733	  2.05415	  4.71258	 -0.66582	 -0.20952	  4.91244	706.53601	 23.50	
 20.394	102.132	  3.91241	  1.17354	  2.30163	  4.67416	 -0.63701	 -0.21146	  4.91734	706.66699	 23.50	
 20.398	107.004	  3.91934	  0.95025	  2.55642	  4.62269	 -0.59975	 -0.21911	  4.92943	706.62903	 23.50	
 20.413	111.900	  3.92261	  0.74140	  2.80619	  4.53815	 -0.54144	 -0.22236	  4.93536	706.62000	 23.50	
 20.403	116.741	  3.91159	  0.54137	  3.03879	  4.42010	 -0.46737	 -0.23589	  4.92656	706.61902	 23.50	
 20.400	121.604	  3.91003	  0.35006	  3.27191	  4.29011	 -0.38160	 -0.24484	  4.92758	706.59998	 23.50	
 20.410	126.511	  3.90571	  0.17842	  3.49596	  4.13754	 -0.27949	 -0.24656	  4.92987	706.58099	 23.40	
 20.408	131.372	  3.89469	  0.01998	  3.69910	  3.95367	 -0.15614	 -0.25515	  4.91781	706.57202	 23.50	
 20.396	136.227	  3.90603	 -0.11782	  3.90635	  3.77508	 -0.01750	 -0.26266	  4.93096	706.62799	 23.40	
 20.392	141.062	  3.89769	 -0.25197	  4.08134	  3.56930	  0.12388	 -0.26556	  4.93014	706.60797	 23.50	
 20.397	145.903	  3.88548	 -0.36990	  4.23496	  3.34491	  0.28077	 -0.26758	  4.92195	706.66998	 23.50	
 20.405	150.835	  3.88463	 -0.46690	  4.38156	  3.11484	  0.45949	 -0.27072	  4.92747	706.70502	 23.40	
 20.401	155.705	  3.88094	 -0.55157	  4.50081	  2.87218	  0.65193	 -0.27272	  4.92549	706.57703	 23.40	
 20.392	160.496	  3.87564	 -0.62042	  4.59476	  2.63705	  0.84463	 -0.27499	  4.92674	706.44800	 23.40	
 20.410	165.423	  3.86579	 -0.67342	  4.66590	  2.37879	  1.05937	 -0.26385	  4.92141	706.56702	 23.40	
 20.407	170.264	  3.85739	 -0.72059	  4.71574	  2.12681	  1.27371	 -0.26046	  4.91971	706.47699	 23.40	
 20.401	175.153	  3.86137	 -0.74192	  4.75281	  1.88348	  1.50797	 -0.26026	  4.92999	706.52899	 23.40	
  0.141	 45.000	  4.92623	  2.64110	  2.59428	  2.57624	  2.67868	  0.03706	  4.91665	706.53497	 23.40	
  4.001	128.691	  4.93524	  2.24484	  2.93024	  2.97441	  2.21907	  0.01192	  4.94078	706.62903	 23.40	
  4.002	 76.995	  4.91879	  2.71177	  2.42954	  3.07993	  2.12209	  0.01288	  4.92153	706.52899	 23.40	
  4.002	 25.892	  4.92076	  3.10916	  2.06488	  2.76156	  2.39949	  0.01189	  4.92528	706.41901	 23.40	
  4.002	-25.892	  4.91869	  3.10217	  2.05885	  2.26057	  2.89622	  0.00575	  4.92843	706.54401	 23.40	
  4.002	-76.995	  4.91227	  2.69267	  2.42160	  1.96911	  3.21641	  0.00110	  4.92832	706.56897	 23.40	
  4.001	-128.691	  4.91266	  2.21394	  2.92274	  2.07182	  3.09366	  0.00945	  4.92775	706.65302	 23.40	
  4.000	180.000	  4.92339	  2.03155	  3.15466	  2.50813	  2.64238	  0.01337	  4.93391	706.62799	 23.40	
  8.000	180.000	  4.79914	  1.33425	  3.67622	  2.38261	  2.51053	 -0.05066	  4.91681	706.48798	 23.40	
  7.991	-152.370	  4.79311	  1.44142	  3.52838	  1.84264	  3.06891	 -0.05466	  4.91833	706.62799	 23.40	
  7.997	-124.550	  4.78790	  1.77850	  3.12481	  1.43965	  3.52209	 -0.05640	  4.92079	706.65302	 23.40	
  8.006	-96.837	  4.78005	  2.28678	  2.56986	  1.26191	  3.73584	 -0.07514	  4.91556	706.63898	 23.40	
  7.988	-69.228	  4.78428	  2.85677	  2.01413	  1.32612	  3.66482	 -0.07412	  4.91158	706.57703	 23.40	
  7.997	-41.563	  4.80587	  3.36219	  1.58479	  1.62328	  3.34042	 -0.06915	  4.92567	706.63397	 23.40	
  8.008	-13.821	  4.81087	  3.65460	  1.34635	  2.10709	  2.81271	 -0.06386	  4.92377	706.61200	 23.40	
  8.008	 13.821	  4.81974	  3.66881	  1.34947	  2.68012	  2.25265	 -0.05410	  4.92755	706.72400	 23.40	
  7.997	 41.563	  4.82340	  3.39051	  1.58938	  3.20473	  1.77994	 -0.05317	  4.92232	706.63098	 23.40	
  7.988	 69.228	  4.82505	  2.90351	  2.02893	  3.55368	  1.48853	 -0.04881	  4.91923	706.66998	 23.40	
  8.006	 96.837	  4.81989	  2.33359	  2.58150	  3.62521	  1.42247	 -0.05844	  4.91618	706.75500	 23.40	
  7.997	124.550	  4.82471	  1.82474	  3.13424	  3.41385	  1.59644	 -0.06052	  4.92410	706.71802	 23.40	
  7.991	152.370	  4.81632	  1.47227	  3.53677	  2.95428	  1.98720	 -0.04525	  4.92492	706.54303	 23.40	
 12.009	161.059	  4.59852	  0.72684	  4.02304	  2.79239	  1.77109	 -0.13936	  4.91391	706.66803	 23.40	
 12.013	142.081	  4.61512	  0.97750	  3.72991	  3.35284	  1.29707	 -0.14087	  4.92217	706.51202	 23.40	
 12.006	123.113	  4.63441	  1.37409	  3.27689	  3.79057	  0.95632	 -0.15543	  4.93129	706.70099	 23.40	
 12.007	104.200	  4.63944	  1.87925	  2.71414	  4.04936	  0.75546	 -0.16318	  4.93255	706.60498	 23.40	
 11.989	 85.301	  4.63237	  2.45617	  2.11485	  4.08906	  0.72397	 -0.15465	  4.91935	706.75201	 23.40	
 12.013	 66.294	  4.64556	  3.04835	  1.57108	  3.94639	  0.84909	 -0.13273	  4.93380	706.63098	 23.30	
 12.012	 47.388	  4.61795	  3.54538	  1.11443	  3.57379	  1.12539	 -0.13136	  4.90926	706.76801	 23.30	
 11.990	 28.440	  4.61111	  3.92133	  0.80130	  3.07970	  1.53921	 -0.13904	  4.91289	706.64203	 23.30	
 11.991	  9.464	  4.60881	  4.12071	  0.63864	  2.50455	  2.05952	 -0.14062	  4.92114	706.54102	 23.30	
 11.991	 -9.464	  4.59953	  4.10325	  0.63740	  1.91511	  2.63598	 -0.14569	  4.91426	706.68500	 23.30	
 11.990	-28.440	  4.59837	  3.89226	  0.79869	  1.38514	  3.20973	 -0.14603	  4.91727	706.60797	 23.30	
 12.012	-47.388	  4.59708	  3.50470	  1.11033	  0.96422	  3.70285	 -0.15996	  4.92892	706.70502	 23.30	
 12.013	-66.294	  4.57386	  2.96816	  1.55358	  0.67853	  4.03209	 -0.17185	  4.91524	706.65002	 23.30	
 11.989	-85.301	  4.57850	  2.38718	  2.10511	  0.55978	  4.18674	 -0.17888	  4.92681	706.72101	 23.30	
 12.007	-104.200	  4.57442	  1.81236	  2.69285	  0.59517	  4.13409	 -0.16341	  4.92612	706.54901	 23.30	
 12.006	-123.113	  4.55465	  1.30584	  3.24336	  0.79282	  3.86269	 -0.13818	  4.90955	706.72101	 23.30	
 12.013	-142.081	  4.57564	  0.93315	  3.71844	  1.15268	  3.44858	 -0.13476	  4.92136	706.74597	 23.30	
 12.009	-161.059	  4.57936	  0.70022	  4.01998	  1.63357	  2.90624	 -0.14478	  4.91927	706.71503	 23.30	
 16.000	180.000	  4.29094	 -0.04384	  4.48260	  1.96499	  2.08156	 -0.23216	  4.92334	706.71802	 23.30	
 15.990	-165.604	  4.27758	  0.00245	  4.40072	  1.39721	  2.66196	 -0.23513	  4.92320	706.62903	 23.30	
 16.002	-151.165	  4.26473	  0.16065	  4.16430	  0.89137	  3.22290	 -0.23248	  4.92034	706.81598	 23.30	
 16.002	-136.836	  4.26543	  0.43494	  3.79612	  0.47028	  3.73708	 -0.21135	  4.92976	706.68500	 23.30	
 15.995	-122.439	  4.25913	  0.81615	  3.30257	  0.16077	  4.13460	 -0.21527	  4.92545	706.68701	 23.30	
 15.993	-107.966	  4.25031	  1.29182	  2.73521	 -0.04358	  4.40074	 -0.21911	  4.91996	706.73199	 23.30	
 16.005	-93.629	  4.26270	  1.83758	  2.15427	 -0.13255	  4.53418	 -0.21929	  4.93426	706.54401	 23.30	
 15.992	-79.234	  4.26152	  2.41902	  1.57986	 -0.10169	  4.49262	 -0.20361	  4.92362	706.59998	 23.30	
 16.009	-64.774	  4.26819	  3.00407	  1.05416	  0.04171	  4.30331	 -0.19258	  4.92205	706.59802	 23.30	
 15.997	-50.364	  4.28727	  3.54486	  0.62420	  0.30819	  3.97155	 -0.19866	  4.92642	706.59698	 23.30	
 15.997	-36.045	  4.29184	  3.98394	  0.28748	  0.66875	  3.51525	 -0.19607	  4.92302	706.65302	 23.30	
 16.000	-21.597	  4.29190	  4.29244	  0.06614	  1.13073	  2.97218	 -0.19455	  4.91144	706.61902	 23.30	
 16.003	 -7.169	  4.29179	  4.45535	 -0.04859	  1.66823	  2.38715	 -0.19287	  4.90657	706.65100	 23.30	
 16.003	  7.169	  4.30112	  4.47028	 -0.04658	  2.25329	  1.81625	 -0.18485	  4.90929	706.61401	 23.30	
 16.000	 21.597	  4.31920	  4.33951	  0.06958	  2.84934	  1.29182	 -0.19123	  4.92445	706.62299	 23.30	
 15.997	 36.045	  4.32573	  4.04316	  0.29543	  3.40269	  0.83068	 -0.19981	  4.92176	706.68701	 23.30	
 15.997	 50.364	  4.34121	  3.62761	  0.62815	  3.87601	  0.46764	 -0.19653	  4.93046	706.65698	 23.30	
 16.009	 64.774	  4.33971	  3.09752	  1.06446	  4.22075	  0.20747	 -0.20286	  4.92189	706.62000	 23.30	
 15.992	 79.234	  4.34092	  2.51454	  1.58778	  4.41740	  0.06002	 -0.22543	  4.92202	706.50500	 23.30	
 16.005	 93.629	  4.35026	  1.92984	  2.17083	  4.47091	  0.02680	 -0.23157	  4.93284	706.66498	 23.30	
 15.993	107.966	  4.34586	  1.37772	  2.76082	  4.34613	  0.11304	 -0.23610	  4.92805	706.63599	 23.30	
 15.995	122.439	  4.32129	  0.88447	  3.31154	  4.05396	  0.31001	 -0.23415	  4.90763	706.58099	 23.30	
 16.002	136.836	  4.32612	  0.49157	  3.81028	  3.65684	  0.61822	 -0.22409	  4.92708	706.62201	 23.30	
 16.002	151.165	  4.30760	  0.20339	  4.17232	  3.13572	  1.02525	 -0.21573	  4.91518	706.60602	 23.30	
 15.990	165.604	  4.29406	  0.02341	  4.39883	  2.55271	  1.52334	 -0.22154	  4.91377	706.58301	 23.30	
 20.003	168.362	  3.91213	 -0.63316	  4.68428	  2.25202	  1.23837	 -0.26624	  4.92597	706.61401	 23.30	
 20.008	156.764	  3.91465	 -0.50301	  4.49787	  2.82979	  0.73794	 -0.26930	  4.91629	706.56897	 23.30	
 20.000	145.147	  3.92845	 -0.28728	  4.19754	  3.38217	  0.31013	 -0.26822	  4.91984	706.72400	 23.30	
 19.995	133.545	  3.93192	  0.01672	  3.77786	  3.85609	 -0.03466	 -0.26048	  4.90803	706.49799	 23.30	
 20.009	121.926	  3.94389	  0.39295	  3.28520	  4.26032	 -0.31252	 -0.24082	  4.91752	706.66498	 23.30	
 20.005	110.327	  3.95770	  0.85056	  2.73741	  4.54062	 -0.49485	 -0.23023	  4.92618	706.69000	 23.30	
 19.989	 98.733	  3.95876	  1.37183	  2.15777	  4.68600	 -0.58962	 -0.21123	  4.91753	706.76398	 23.30	
 19.999	 87.075	  3.97351	  1.94171	  1.58691	  4.73128	 -0.60996	 -0.21672	  4.93443	706.64502	 23.30	
 19.992	 75.457	  3.95680	  2.50942	  1.04343	  4.61723	 -0.53950	 -0.23385	  4.91189	706.53302	 23.30	
 20.009	 63.844	  3.96003	  3.07950	  0.55852	  4.40876	 -0.39581	 -0.23359	  4.92693	706.67798	 23.30	
 19.989	 52.269	  3.95822	  3.60059	  0.14722	  4.06978	 -0.16326	 -0.22405	  4.93029	706.70898	 23.30	
 19.999	 40.602	  3.94632	  4.04936	 -0.19189	  3.62168	  0.15275	 -0.20530	  4.92416	706.60303	 23.30	
 20.004	 29.051	  3.93229	  4.39121	 -0.44203	  3.09693	  0.54384	 -0.18207	  4.91744	706.53998	 23.30	
 20.005	 17.433	  3.92335	  4.62439	 -0.61268	  2.53017	  1.00486	 -0.17700	  4.91804	706.58899	 23.30	
 20.006	  5.780	  3.93183	  4.74943	 -0.69731	  1.95424	  1.53443	 -0.17217	  4.93523	706.58398	 23.30	
 20.006	 -5.780	  3.92084	  4.72751	 -0.69609	  1.38600	  2.09125	 -0.17267	  4.92435	706.60797	 23.30	
 20.005	-17.433	  3.92899	  4.61089	 -0.61723	  0.85417	  2.67513	 -0.18704	  4.94050	706.57202	 23.30	
 20.004	-29.051	  3.92118	  4.34822	 -0.45170	  0.38029	  3.23181	 -0.18831	  4.93614	706.58002	 23.30	
 19.999	-40.602	  3.89838	  3.96087	 -0.19945	 -0.01013	  3.71676	 -0.18442	  4.91506	706.70898	 23.30	
 19.989	-52.269	  3.89748	  3.50268	  0.12752	 -0.33571	  4.15950	 -0.17614	  4.93014	706.77698	 23.30	
 20.009	-63.844	  3.88054	  2.96360	  0.53960	 -0.56650	  4.47540	 -0.16877	  4.92161	706.54102	 23.30	
 19.992	-75.457	  3.87417	  2.39204	  1.02519	 -0.71227	  4.68369	 -0.16900	  4.92927	706.51801	 23.30	
 19.999	-87.075	  3.86220	  1.81266	  1.55794	 -0.78016	  4.76646	 -0.17932	  4.92504	706.64203	 23.20	
 19.989	-98.733	  3.85649	  1.25184	  2.13222	 -0.76274	  4.73304	 -0.19494	  4.92741	706.49298	 23.20	
 20.005	-110.327	  3.84755	  0.73716	  2.70530	 -0.66497	  4.57605	 -0.22410	  4.91950	706.47699	 23.20	
 20.009	-121.926	  3.85966	  0.29663	  3.27018	 -0.47293	  4.31384	 -0.24589	  4.93754	706.51599	 23.20	
 19.995	-133.545	  3.85592	 -0.06392	  3.75850	 -0.19577	  3.92017	 -0.25749	  4.92431	706.52899	 23.20	
 20.000	-145.147	  3.86054	 -0.35156	  4.17529	  0.16634	  3.44404	 -0.26132	  4.92157	706.49597	 23.20	
 20.008	-156.764	  3.87666	 -0.54799	  4.49298	  0.60741	  2.91207	 -0.25944	  4.92965	706.65302	 23.20	
 20.003	-168.362	  3.87736	 -0.66107	  4.66769	  1.11036	  2.33989	 -0.25945	  4.91810	706.50201	 23.20	
 20.000	180.000	  3.89807	 -0.68716	  4.73959	  1.66647	  1.77999	 -0.26066	  4.92685	706.63098	 23.20	
