FileType=PCF
NHL=14
Date=08/25/17	14:40:00
Facility=APL
Serial=16328-6
Customer=NASA
NP=6
Mach=0.150000
Calibration=1:1
CalPts=490
TstPts=95
PortNumbering=AP Standard
Units=Torr C m/s kg/m^3 deg mm 
Theta[deg]	Phi[deg]	P1[Torr]	P2[Torr]	P3[Torr]	P4[Torr]	P5[Torr]	P6[Torr]	Pt[Torr]	Ps[Abs,Torr]	Ts[C]	
  0.000	  0.000	 11.00875	  5.80029	  5.76206	  5.64831	  5.94646	  0.08885	 10.99513	706.96600	 23.80	
  1.691	128.401	 11.00830	  5.46542	  6.08477	  6.06517	  5.51512	  0.09054	 10.99667	707.05603	 23.80	
  1.692	 77.194	 11.03777	  5.94068	  5.64105	  6.18752	  5.43267	  0.09062	 11.02758	706.91803	 23.80	
  1.699	 26.182	 11.01171	  6.28937	  5.26113	  5.88310	  5.69998	  0.08272	 10.99831	707.15503	 23.70	
  1.699	-26.182	 10.99384	  6.26683	  5.25533	  5.38485	  6.17134	  0.08137	 10.98376	707.02197	 23.80	
  1.692	-77.194	 11.00649	  5.89812	  5.62542	  5.10622	  6.46074	  0.07515	 10.99409	707.05603	 23.80	
  1.691	-128.401	 10.99100	  5.44040	  6.07507	  5.19613	  6.35434	  0.08366	 10.98076	707.09003	 23.80	
  1.700	180.000	 11.01632	  5.25582	  6.29981	  5.62999	  5.94594	  0.08806	 11.00898	707.10101	 23.80	
  3.400	180.000	 10.98201	  4.67794	  6.80333	  5.56055	  5.88689	  0.05031	 10.98959	707.10303	 23.80	
  3.388	-152.325	 10.99379	  4.79578	  6.67737	  5.07522	  6.39863	  0.04814	 11.00636	707.06097	 23.80	
  3.397	-124.529	 10.98339	  5.09840	  6.32704	  4.69503	  6.79194	  0.04486	 11.00006	707.21002	 23.80	
  3.399	-96.763	 10.98272	  5.56993	  5.81524	  4.51638	  6.98083	  0.03238	 11.00008	707.06097	 23.80	
  3.394	-69.283	 10.98232	  6.08664	  5.30407	  4.57438	  6.91799	  0.02561	 10.99392	706.99701	 23.80	
  3.400	-41.398	 10.98965	  6.56018	  4.88105	  4.86986	  6.61850	  0.05249	 11.00071	707.06097	 23.80	
  3.401	-14.021	 10.98925	  6.81509	  4.65792	  5.31363	  6.14773	  0.04187	 10.99638	706.98297	 23.80	
  3.401	 14.021	 11.00163	  6.83774	  4.67259	  5.86296	  5.62648	  0.06210	 11.00332	707.06702	 23.80	
  3.400	 41.398	 11.01585	  6.58115	  4.91270	  6.33299	  5.18974	  0.04511	 11.01440	707.20203	 23.80	
  3.394	 69.283	 11.02959	  6.17415	  5.32793	  6.64704	  4.92479	  0.06921	 11.02796	707.10999	 23.80	
  3.399	 96.763	 11.00750	  5.64152	  5.83102	  6.70541	  4.84805	  0.07263	 11.00769	707.02197	 23.80	
  3.397	124.529	 10.99243	  5.15585	  6.31625	  6.49586	  5.01212	  0.05711	 10.99352	707.05103	 23.80	
  3.388	152.325	 10.99006	  4.81062	  6.68447	  6.09449	  5.37973	  0.07087	 10.99272	707.05103	 23.80	
  5.099	161.165	 10.96005	  4.14639	  7.26246	  6.05129	  5.25884	  0.01593	 11.02003	707.04498	 23.80	
  5.109	142.013	 10.95604	  4.39572	  6.97782	  6.55834	  4.79307	  0.01734	 11.00696	707.01099	 23.80	
  5.095	123.033	 10.96813	  4.78200	  6.55402	  6.94384	  4.47067	  0.01088	 11.01425	706.97400	 23.80	
  5.105	104.191	 10.96793	  5.27424	  6.02882	  7.18448	  4.26802	  0.01094	 11.00751	706.97998	 23.80	
  5.093	 85.207	 10.96926	  5.81991	  5.47624	  7.22836	  4.23514	  0.01647	 11.00687	706.95099	 23.80	
  5.104	 66.290	 10.96292	  6.35564	  4.94921	  7.08630	  4.34572	  0.01480	 11.00053	707.21100	 23.80	
  5.094	 47.331	 10.94841	  6.82585	  4.50713	  6.76302	  4.61524	  0.01894	 10.99039	707.17200	 23.80	
  5.089	 28.397	 10.94255	  7.17889	  4.18703	  6.29578	  5.03053	  0.01279	 10.98945	707.07599	 23.80	
  5.096	  9.576	 10.96586	  7.38496	  4.02699	  5.78092	  5.53630	  0.01625	 11.01913	707.17902	 23.70	
  5.096	 -9.576	 10.95246	  7.36072	  4.02192	  5.20598	  6.09056	 -0.00178	 11.00954	707.22803	 23.70	
  5.089	-28.397	 10.93253	  7.14948	  4.17943	  4.70045	  6.60403	 -0.01011	 10.99531	706.95697	 23.70	
  5.094	-47.331	 10.93169	  6.78838	  4.48773	  4.28409	  7.06364	 -0.01721	 11.00088	707.05902	 23.70	
  5.104	-66.290	 10.92277	  6.30010	  4.92268	  3.99249	  7.38525	 -0.02733	 11.00441	707.03101	 23.70	
  5.093	-85.207	 10.91583	  5.75065	  5.44652	  3.86197	  7.52244	 -0.02743	 10.99789	707.05499	 23.70	
  5.105	-104.191	 10.91988	  5.20264	  6.01493	  3.90324	  7.48012	 -0.01368	 11.00377	707.07599	 23.70	
  5.095	-123.033	 10.92157	  4.72038	  6.53620	  4.11461	  7.23382	 -0.00125	 11.00605	707.18597	 23.70	
  5.109	-142.013	 10.91526	  4.33520	  6.96638	  4.46383	  6.83374	  0.00279	 10.99483	707.05499	 23.70	
  5.099	-161.165	 10.94374	  4.12042	  7.25868	  4.94971	  6.34357	  0.01545	 11.01410	707.24103	 23.70	
  5.100	180.000	 10.94253	  4.05373	  7.34818	  5.47955	  5.80019	  0.01575	 11.00753	707.10999	 23.70	
  6.800	180.000	 10.85935	  3.39703	  7.87144	  5.37809	  5.68936	 -0.05013	 11.02547	707.04700	 23.70	
  6.796	-166.229	 10.82216	  3.43295	  7.77931	  4.82987	  6.21461	 -0.04801	 10.99249	707.09003	 23.70	
  6.808	-152.311	 10.82846	  3.59722	  7.58294	  4.33686	  6.74649	 -0.05856	 11.01186	707.06702	 23.70	
  6.795	-138.383	 10.82286	  3.87607	  7.24410	  3.90065	  7.22251	 -0.06484	 11.01096	707.18799	 23.70	
  6.792	-124.591	 10.81504	  4.25007	  6.80791	  3.55975	  7.60378	 -0.06831	 11.01079	707.12097	 23.70	
  6.787	-110.754	 10.82802	  4.71044	  6.31549	  3.33678	  7.88311	 -0.08635	 11.02580	707.18903	 23.70	
  6.800	-96.985	 10.81784	  5.22466	  5.76385	  3.21578	  8.01766	 -0.10079	 11.00983	707.14899	 23.70	
  6.800	-83.015	 10.81575	  5.77358	  5.20957	  3.22189	  8.01348	 -0.10717	 11.00390	707.07001	 23.70	
  6.787	-69.246	 10.84422	  6.32476	  4.70719	  3.35107	  7.89532	 -0.10647	 11.03090	707.07800	 23.70	
  6.792	-55.409	 10.83555	  6.82705	  4.23572	  3.57740	  7.62179	 -0.10146	 11.01280	707.17200	 23.70	
  6.795	-41.617	 10.83745	  7.25911	  3.85912	  3.91469	  7.23939	 -0.08822	 11.00535	707.12402	 23.70	
  6.808	-27.689	 10.84887	  7.61076	  3.56901	  4.34429	  6.77063	 -0.07540	 11.01289	707.12299	 23.70	
  6.796	-13.771	 10.84751	  7.81644	  3.40269	  4.84318	  6.24398	 -0.07175	 11.00468	707.03003	 23.70	
  6.800	  0.000	 10.84388	  7.89191	  3.34468	  5.37488	  5.69692	 -0.06653	 10.99143	707.01898	 23.70	
  6.796	 13.771	 10.86726	  7.84202	  3.41184	  5.94077	  5.16992	 -0.05872	 11.01276	707.03400	 23.70	
  6.808	 27.689	 10.87395	  7.64864	  3.58552	  6.47430	  4.67881	 -0.05731	 11.01182	707.07800	 23.70	
  6.795	 41.617	 10.87361	  7.31678	  3.87685	  6.93686	  4.26831	 -0.05051	 11.00298	706.98199	 23.70	
  6.792	 55.409	 10.87149	  6.88942	  4.25538	  7.31687	  3.93850	 -0.04316	 10.99619	707.07202	 23.70	
  6.787	 69.246	 10.88743	  6.40381	  4.72095	  7.59332	  3.72131	 -0.04132	 11.01015	707.13800	 23.70	
  6.800	 83.015	 10.89068	  5.86843	  5.23234	  7.74615	  3.59326	 -0.05592	 11.01178	706.96100	 23.70	
  6.800	 96.985	 10.89180	  5.31444	  5.78896	  7.74629	  3.58890	 -0.05969	 11.01708	707.08698	 23.70	
  6.787	110.754	 10.89058	  4.80420	  6.32688	  7.60346	  3.70316	 -0.05763	 11.01477	706.95203	 23.70	
  6.792	124.591	 10.86650	  4.33517	  6.81528	  7.31591	  3.92143	 -0.05550	 10.99785	706.97699	 23.70	
  6.795	138.383	 10.85624	  3.94938	  7.24168	  6.92405	  4.24662	 -0.04499	 10.99073	707.08398	 23.70	
  6.808	152.311	 10.86637	  3.65492	  7.58943	  6.46644	  4.66109	 -0.04609	 11.01235	707.08197	 23.70	
  6.796	166.229	 10.84914	  3.47093	  7.78723	  5.92816	  5.14977	 -0.04671	 11.00767	706.99200	 23.70	
  8.491	168.704	 10.70964	  2.79285	  8.27369	  5.80766	  4.99539	 -0.12971	 11.00832	707.01599	 23.70	
  8.502	157.493	 10.72416	  2.94101	  8.11306	  6.36120	  4.48761	 -0.12021	 11.01408	707.14801	 23.60	
  8.494	146.194	 10.74896	  3.19721	  7.84221	  6.88733	  4.03860	 -0.11919	 11.02479	706.92603	 23.60	
  8.495	135.039	 10.74656	  3.52094	  7.46119	  7.34525	  3.64102	 -0.13680	 11.01519	707.21100	 23.60	
  8.487	123.723	 10.74371	  3.92642	  6.99617	  7.72019	  3.32291	 -0.14784	 11.00499	707.19702	 23.60	
  8.492	112.575	 10.77022	  4.39678	  6.49945	  8.01813	  3.10164	 -0.15029	 11.02486	707.21600	 23.60	
  8.510	101.220	 10.76009	  4.91199	  5.93929	  8.18894	  2.95522	 -0.15246	 11.00949	707.13397	 23.60	
  8.500	 90.000	 10.75509	  5.46228	  5.37319	  8.23407	  2.92012	 -0.14639	 11.00539	707.06702	 23.60	
  8.510	 78.780	 10.76858	  6.03174	  4.82347	  8.19379	  2.96308	 -0.14027	 11.02119	707.21698	 23.60	
  8.492	 67.425	 10.75898	  6.57326	  4.30103	  8.00741	  3.11001	 -0.12313	 11.01020	707.18597	 23.60	
  8.487	 56.277	 10.74151	  7.06579	  3.83304	  7.72122	  3.33003	 -0.11887	 10.99411	707.11499	 23.60	
  8.495	 44.961	 10.73763	  7.52063	  3.42706	  7.34290	  3.64771	 -0.12932	 10.99924	707.09900	 23.60	
  8.494	 33.806	 10.75645	  7.89767	  3.11958	  6.89686	  4.05502	 -0.13862	 11.02463	707.28601	 23.60	
  8.502	 22.507	 10.74732	  8.18133	  2.87384	  6.37752	  4.51118	 -0.13595	 11.02418	707.12299	 23.60	
  8.491	 11.296	 10.74100	  8.34001	  2.73190	  5.82850	  5.02252	 -0.13719	 11.02376	707.10699	 23.60	
  8.500	  0.000	 10.71595	  8.37656	  2.67350	  5.24384	  5.56583	 -0.15586	 11.00324	707.21997	 23.60	
  8.491	-11.296	 10.72472	  8.31385	  2.72479	  4.69680	  6.12913	 -0.15565	 11.02002	707.01898	 23.60	
  8.502	-22.507	 10.72365	  8.13737	  2.86254	  4.18129	  6.67378	 -0.15769	 11.02577	707.10901	 23.60	
  8.494	-33.806	 10.71100	  7.83780	  3.09850	  3.70050	  7.18992	 -0.16887	 11.01696	707.01898	 23.60	
  8.495	-44.961	 10.71551	  7.46574	  3.41704	  3.29663	  7.64824	 -0.18635	 11.03018	707.17700	 23.60	
  8.487	-56.277	 10.70198	  6.99248	  3.82194	  2.97632	  8.00859	 -0.19205	 11.02348	707.04999	 23.60	
  8.492	-67.425	 10.66708	  6.46318	  4.27091	  2.72867	  8.26526	 -0.20563	 10.99627	707.03601	 23.60	
  8.510	-78.780	 10.66658	  5.91250	  4.79567	  2.57378	  8.44881	 -0.20726	 11.00906	707.04199	 23.60	
  8.500	-90.000	 10.67314	  5.35515	  5.35252	  2.52845	  8.50696	 -0.20268	 11.01949	706.90900	 23.60	
  8.510	-101.220	 10.66211	  4.79833	  5.91367	  2.56703	  8.44250	 -0.19335	 11.01035	706.97198	 23.60	
  8.492	-112.575	 10.67557	  4.28846	  6.47453	  2.72248	  8.27298	 -0.16575	 11.02416	707.02698	 23.60	
  8.487	-123.723	 10.67203	  3.82863	  6.98104	  2.95805	  7.98703	 -0.14496	 11.01483	707.04999	 23.60	
  8.495	-135.039	 10.66670	  3.42361	  7.43562	  3.27113	  7.61142	 -0.14642	 11.00694	707.03601	 23.60	
  8.494	-146.194	 10.66472	  3.10860	  7.80859	  3.67431	  7.15513	 -0.14625	 11.00201	707.02301	 23.60	
  8.502	-157.493	 10.71181	  2.89618	  8.12051	  4.16695	  6.66309	 -0.13423	 11.04070	706.93799	 23.60	
  8.491	-168.704	 10.70207	  2.76447	  8.28074	  4.68361	  6.10643	 -0.12590	 11.01915	706.94299	 23.60	
  8.500	180.000	 10.70850	  2.72401	  8.34158	  5.23858	  5.54311	 -0.13372	 11.01715	706.92902	 23.60	
 10.200	180.000	 10.52478	  2.04847	  8.78698	  5.07733	  5.38152	 -0.22189	 11.01750	707.03900	 23.60	
 10.191	-170.497	 10.52052	  2.07354	  8.74395	  4.51725	  5.94248	 -0.21506	 11.02742	706.97998	 23.60	
 10.210	-161.034	 10.49569	  2.17303	  8.58367	  3.97621	  6.48577	 -0.22361	 11.00888	707.15698	 23.60	
 10.194	-151.526	 10.48802	  2.37240	  8.33068	  3.47419	  7.03074	 -0.23436	 11.01226	707.07202	 23.60	
 10.190	-142.105	 10.49288	  2.64154	  8.00438	  3.03385	  7.53218	 -0.23433	 11.02002	707.12097	 23.60	
 10.215	-132.646	 10.48323	  2.96693	  7.60118	  2.64757	  7.96593	 -0.23503	 11.02248	706.97498	 23.60	
 10.203	-123.092	 10.47091	  3.37619	  7.11513	  2.33077	  8.33286	 -0.23541	 11.01251	707.17102	 23.60	
 10.192	-113.678	 10.48801	  3.85176	  6.60198	  2.09615	  8.64041	 -0.25300	 11.03460	707.04199	 23.60	
 10.208	-104.249	 10.48252	  4.35460	  6.04765	  1.92789	  8.84114	 -0.28260	 11.03116	707.10901	 23.60	
 10.210	-94.801	 10.47985	  4.89508	  5.47692	  1.84382	  8.94101	 -0.29948	 11.02661	706.99902	 23.60	
 10.210	-85.199	 10.48136	  5.47234	  4.89666	  1.84751	  8.94145	 -0.30671	 11.02148	707.02002	 23.60	
 10.208	-75.751	 10.47922	  6.03177	  4.35220	  1.93152	  8.83987	 -0.31181	 11.01170	707.00299	 23.60	
 10.192	-66.322	 10.50650	  6.59431	  3.85166	  2.10756	  8.65370	 -0.30430	 11.02823	706.99200	 23.60	
 10.203	-56.908	 10.49614	  7.11088	  3.37571	  2.34366	  8.35709	 -0.28805	 11.01101	707.06702	 23.60	
 10.215	-47.354	 10.50353	  7.59765	  2.95569	  2.65947	  7.98909	 -0.28065	 11.01000	707.06702	 23.60	
 10.190	-37.895	 10.52880	  8.01803	  2.62471	  3.04970	  7.56252	 -0.26306	 11.02453	706.96100	 23.60	
 10.194	-28.474	 10.52253	  8.34559	  2.35181	  3.48546	  7.06582	 -0.24383	 11.00893	706.96802	 23.50	
 10.210	-18.966	 10.55231	  8.62424	  2.15225	  3.99229	  6.53900	 -0.24104	 11.03391	707.07501	 23.50	
 10.191	 -9.503	 10.53423	  8.75744	  2.03756	  4.51669	  5.97116	 -0.24313	 11.00666	707.07001	 23.60	
 10.200	  0.000	 10.55582	  8.83521	  1.99853	  5.08858	  5.41252	 -0.24536	 11.02545	707.12598	 23.50	
 10.191	  9.503	 10.54694	  8.78718	  2.03754	  5.66202	  4.84771	 -0.23474	 11.01380	707.13702	 23.50	
 10.210	 18.966	 10.55604	  8.64892	  2.16229	  6.22789	  4.32226	 -0.23738	 11.01075	707.10699	 23.50	
 10.194	 28.474	 10.58502	  8.43079	  2.36960	  6.78065	  3.85165	 -0.22272	 11.03624	707.01099	 23.50	
 10.190	 37.895	 10.57282	  8.09364	  2.63987	  7.27622	  3.40307	 -0.21942	 11.01111	706.91602	 23.50	
 10.215	 47.354	 10.58486	  7.70673	  2.98079	  7.73145	  3.02940	 -0.20277	 11.01933	707.16199	 23.50	
 10.203	 56.908	 10.59616	  7.23686	  3.39960	  8.10760	  2.72609	 -0.19228	 11.02412	707.04498	 23.50	
 10.192	 66.322	 10.59804	  6.71707	  3.87271	  8.38634	  2.49989	 -0.20453	 11.01796	707.12299	 23.50	
 10.208	 75.751	 10.59674	  6.17006	  4.37785	  8.58782	  2.32958	 -0.22834	 11.01545	706.93701	 23.50	
 10.210	 85.199	 10.58663	  5.59660	  4.92334	  8.68286	  2.24593	 -0.24915	 11.00414	707.02802	 23.50	
 10.210	 94.801	 10.58857	  5.01921	  5.50369	  8.68850	  2.23504	 -0.25683	 11.01040	706.99200	 23.50	
 10.208	104.249	 10.59326	  4.48562	  6.07065	  8.58887	  2.32168	 -0.25358	 11.01667	707.04700	 23.50	
 10.192	113.678	 10.61851	  3.98557	  6.64016	  8.40501	  2.49383	 -0.24584	 11.04368	707.04401	 23.50	
 10.203	123.092	 10.59061	  3.50607	  7.14609	  8.10395	  2.71054	 -0.23936	 11.02132	707.08698	 23.50	
 10.215	132.646	 10.54732	  3.06842	  7.60027	  7.70987	  2.99471	 -0.23282	 10.99209	707.09302	 23.50	
 10.190	142.105	 10.56182	  2.73401	  8.01737	  7.27339	  3.38216	 -0.20892	 11.01163	707.05603	 23.50	
 10.194	151.526	 10.54835	  2.45255	  8.34065	  6.76021	  3.82248	 -0.19680	 11.00464	706.92102	 23.50	
 10.210	161.034	 10.55735	  2.23946	  8.60264	  6.22708	  4.31087	 -0.20913	 11.02641	707.04199	 23.50	
 10.191	170.497	 10.53802	  2.11074	  8.73829	  5.65869	  4.82847	 -0.21909	 11.01675	707.03699	 23.50	
 11.899	171.783	 10.30032	  1.42524	  9.14482	  5.46985	  4.61997	 -0.31024	 11.00623	707.06097	 23.50	
 11.890	163.610	 10.31597	  1.53645	  9.02398	  6.03928	  4.09703	 -0.29847	 11.00796	707.02002	 23.50	
 11.889	155.445	 10.34410	  1.71413	  8.83058	  6.60888	  3.60238	 -0.28819	 11.02731	707.12299	 23.50	
 11.909	147.299	 10.33165	  1.95387	  8.52411	  7.13256	  3.13270	 -0.29624	 11.00687	707.05499	 23.50	
 11.902	139.148	 10.35778	  2.26535	  8.17238	  7.63005	  2.73344	 -0.31130	 11.02350	707.20300	 23.50	
 11.894	130.867	 10.35478	  2.63371	  7.72976	  8.05057	  2.38398	 -0.32776	 11.00839	707.12402	 23.50	
 11.897	122.732	 10.35992	  3.04798	  7.25045	  8.42336	  2.08636	 -0.33979	 11.00836	707.07898	 23.50	
 11.903	114.597	 10.37093	  3.51515	  6.73207	  8.72685	  1.85522	 -0.35382	 11.01448	707.07501	 23.50	
 11.893	106.346	 10.37197	  4.02616	  6.16733	  8.94066	  1.68634	 -0.35886	 11.00677	707.09302	 23.50	
 11.892	 98.155	 10.38507	  4.57368	  5.60270	  9.07921	  1.59181	 -0.36316	 11.01862	707.00299	 23.50	
 11.900	 90.000	 10.39106	  5.14226	  5.02998	  9.12433	  1.56690	 -0.34829	 11.02079	707.05298	 23.50	
 11.892	 81.845	 10.36692	  5.69859	  4.45892	  9.05268	  1.60993	 -0.32696	 10.99365	707.10999	 23.50	
 11.893	 73.654	 10.38896	  6.27932	  3.92794	  8.94285	  1.71517	 -0.30659	 11.01803	706.93799	 23.50	
 11.903	 65.403	 10.38291	  6.83173	  3.41322	  8.72334	  1.88611	 -0.28268	 11.01623	706.85797	 23.50	
 11.897	 57.268	 10.36042	  7.33397	  2.94693	  8.41240	  2.11656	 -0.26836	 11.00054	707.16901	 23.50	
 11.894	 49.133	 10.37092	  7.81693	  2.54106	  8.05394	  2.41877	 -0.28296	 11.00990	707.09802	 23.50	
 11.902	 40.852	 10.36840	  8.25411	  2.17419	  7.62504	  2.76923	 -0.29297	 11.02317	707.12097	 23.40	
 11.909	 32.701	 10.33641	  8.58637	  1.86874	  7.12649	  3.16004	 -0.31307	 11.00510	707.13202	 23.50	
 11.889	 24.555	 10.34770	  8.88251	  1.64276	  6.60200	  3.63654	 -0.32076	 11.01760	707.03601	 23.50	
 11.890	 16.390	 10.32920	  9.07359	  1.47141	  6.04197	  4.12574	 -0.32182	 11.00553	706.99200	 23.50	
 11.899	  8.217	 10.33180	  9.19927	  1.36853	  5.47932	  4.65738	 -0.33086	 11.01863	707.02698	 23.50	
 11.900	  0.000	 10.32872	  9.23074	  1.33549	  4.89823	  5.22160	 -0.33084	 11.01672	707.09497	 23.50	
 11.899	 -8.217	 10.33543	  9.19094	  1.36175	  4.33677	  5.79069	 -0.33454	 11.03341	707.08698	 23.40	
 11.890	-16.390	 10.31410	  9.02936	  1.46672	  3.79428	  6.34322	 -0.32877	 11.01280	707.10999	 23.50	
 11.889	-24.555	 10.30895	  8.81414	  1.62892	  3.28191	  6.89323	 -0.33230	 11.01668	706.97699	 23.40	
 11.909	-32.701	 10.28570	  8.50145	  1.85535	  2.80768	  7.40495	 -0.33251	 10.99847	707.02802	 23.40	
 11.902	-40.852	 10.30414	  8.15144	  2.15532	  2.40460	  7.89552	 -0.34448	 11.02446	707.00299	 23.50	
 11.894	-49.133	 10.28816	  7.70080	  2.51644	  2.03709	  8.31558	 -0.35347	 11.01595	707.04199	 23.40	
 11.897	-57.268	 10.26354	  7.20203	  2.92345	  1.72555	  8.66890	 -0.37737	 11.00422	707.04999	 23.50	
 11.903	-65.403	 10.26813	  6.68452	  3.38618	  1.48055	  8.97622	 -0.38758	 11.02358	706.95398	 23.50	
 11.893	-73.654	 10.25098	  6.11897	  3.89583	  1.30994	  9.17593	 -0.39846	 11.01346	706.93799	 23.50	
 11.892	-81.845	 10.26340	  5.55891	  4.44186	  1.21061	  9.31161	 -0.40246	 11.03294	706.97998	 23.50	
 11.900	-90.000	 10.24106	  4.97664	  4.99445	  1.17365	  9.33422	 -0.39489	 11.01229	707.11700	 23.40	
 11.892	-98.155	 10.24304	  4.42259	  5.56730	  1.20833	  9.28918	 -0.39043	 11.01969	707.11298	 23.40	
 11.893	-106.346	 10.24243	  3.88822	  6.13420	  1.30598	  9.16334	 -0.36257	 11.02292	707.06097	 23.50	
 11.903	-114.597	 10.23074	  3.37406	  6.68881	  1.46926	  8.94234	 -0.34526	 11.01237	706.96002	 23.40	
 11.897	-122.732	 10.23133	  2.91792	  7.21191	  1.70715	  8.64704	 -0.31936	 11.00844	707.03400	 23.40	
 11.894	-130.867	 10.24626	  2.51248	  7.70165	  2.01686	  8.28502	 -0.31105	 11.01743	706.98297	 23.40	
 11.902	-139.148	 10.26052	  2.16700	  8.14284	  2.38748	  7.86015	 -0.31290	 11.02237	707.06702	 23.40	
 11.909	-147.299	 10.26694	  1.87435	  8.51242	  2.79717	  7.38861	 -0.31872	 11.02928	707.10901	 23.40	
 11.889	-155.445	 10.25940	  1.64899	  8.78978	  3.26138	  6.85587	 -0.32633	 11.00907	707.20502	 23.40	
 11.890	-163.610	 10.27774	  1.49364	  9.01215	  3.78294	  6.30604	 -0.31677	 11.01555	707.09302	 23.40	
 11.899	-171.783	 10.29072	  1.40012	  9.15014	  4.32306	  5.75331	 -0.31093	 11.02001	707.14099	 23.40	
 11.900	180.000	 10.31007	  1.38386	  9.20277	  4.89113	  5.19656	 -0.31291	 11.03091	707.21002	 23.40	
 13.600	180.000	 10.03262	  0.71884	  9.55868	  4.66793	  4.96889	 -0.40795	 11.01519	707.23901	 23.40	
 13.608	-172.853	 10.01104	  0.72495	  9.51456	  4.10637	  5.51236	 -0.40822	 11.00479	707.09302	 23.40	
 13.611	-165.583	 10.02223	  0.79553	  9.42482	  3.56269	  6.09401	 -0.41195	 11.03520	707.20001	 23.40	
 13.601	-158.353	  9.99271	  0.93832	  9.20463	  3.02837	  6.64676	 -0.41384	 11.00734	707.20801	 23.40	
 13.609	-151.210	  9.99863	  1.12329	  8.96306	  2.55544	  7.18732	 -0.41631	 11.02913	707.16901	 23.40	
 13.611	-143.999	  9.97994	  1.37533	  8.62119	  2.11542	  7.68310	 -0.40651	 11.01736	707.16302	 23.40	
 13.601	-136.825	  9.96795	  1.67741	  8.22131	  1.71967	  8.14341	 -0.39618	 11.00972	707.16199	 23.40	
 13.596	-129.640	  9.98152	  2.04039	  7.78569	  1.37825	  8.57692	 -0.39195	 11.02950	707.25897	 23.40	
 13.611	-122.431	  9.96652	  2.43936	  7.28946	  1.08420	  8.92913	 -0.39484	 11.02356	707.12903	 23.40	
 13.604	-115.211	  9.96105	  2.89539	  6.75813	  0.85479	  9.22407	 -0.41132	 11.01806	707.21698	 23.40	
 13.595	-108.042	  9.96118	  3.39278	  6.20042	  0.68736	  9.44655	 -0.43160	 11.01356	707.06403	 23.40	
 13.607	-100.793	  9.96945	  3.92009	  5.63055	  0.56639	  9.60526	 -0.45096	 11.01767	707.08698	 23.40	
 13.601	-93.617	  9.96937	  4.46104	  5.05867	  0.50270	  9.68623	 -0.45758	 11.02135	707.25201	 23.40	
 13.601	-86.383	  9.95162	  5.02566	  4.47339	  0.50134	  9.67285	 -0.45261	 10.99900	707.26202	 23.40	
 13.607	-79.207	  9.96767	  5.60239	  3.92894	  0.56008	  9.61436	 -0.45267	 11.01185	707.16901	 23.40	
 13.595	-71.958	 10.00820	  6.19204	  3.41659	  0.69333	  9.48918	 -0.44698	 11.04350	707.10303	 23.40	
 13.604	-64.789	  9.99504	  6.73311	  2.91107	  0.86484	  9.25194	 -0.43998	 11.01968	707.02301	 23.40	
 13.611	-57.569	 10.02599	  7.28575	  2.45669	  1.09714	  8.98584	 -0.43002	 11.04495	706.98499	 23.40	
 13.596	-50.360	 10.03106	  7.77727	  2.04518	  1.38652	  8.62208	 -0.41707	 11.03156	707.05603	 23.40	
 13.601	-43.175	 10.03984	  8.22840	  1.68448	  1.73214	  8.20697	 -0.40942	 11.03335	707.12299	 23.40	
 13.611	-36.001	 10.02225	  8.60810	  1.36782	  2.12331	  7.72016	 -0.39613	 11.00153	707.05298	 23.40	
 13.609	-28.790	 10.02479	  8.94501	  1.10961	  2.55925	  7.21503	 -0.38950	 10.99828	707.05103	 23.40	
 13.601	-21.647	 10.04016	  9.21684	  0.91831	  3.03898	  6.68909	 -0.39006	 11.00885	707.23297	 23.40	
 13.611	-14.417	 10.07378	  9.44573	  0.77334	  3.57409	  6.13629	 -0.40016	 11.03937	707.24701	 23.40	
 13.608	 -7.147	 10.07248	  9.55711	  0.69564	  4.12158	  5.56632	 -0.39349	 11.02923	707.14099	 23.40	
 13.600	  0.000	 10.05995	  9.59236	  0.66690	  4.67007	  5.00038	 -0.38654	 11.01038	707.08600	 23.40	
 13.608	  7.147	 10.09034	  9.59502	  0.69458	  5.25789	  4.45740	 -0.39535	 11.04136	707.20300	 23.40	
 13.611	 14.417	 10.06505	  9.46629	  0.77871	  5.81426	  3.90909	 -0.39538	 11.00897	707.10101	 23.40	
 13.601	 21.647	 10.06750	  9.27993	  0.92759	  6.38443	  3.39558	 -0.39244	 11.00072	707.11298	 23.40	
 13.609	 28.790	 10.08067	  9.03667	  1.12506	  6.93913	  2.91806	 -0.39217	 11.00936	707.16498	 23.40	
 13.611	 36.001	 10.10208	  8.72865	  1.38727	  7.46233	  2.49346	 -0.39341	 11.01992	707.29797	 23.40	
 13.601	 43.175	 10.11235	  8.34939	  1.70253	  7.93158	  2.11619	 -0.36911	 11.02022	707.25897	 23.40	
 13.596	 50.360	 10.11240	  7.90509	  2.06407	  8.35264	  1.77220	 -0.35855	 11.00833	707.13202	 23.40	
 13.611	 57.569	 10.13986	  7.44187	  2.47428	  8.74948	  1.48068	 -0.34756	 11.04357	707.15997	 23.40	
 13.604	 64.789	 10.11427	  6.89801	  2.92698	  9.02565	  1.24780	 -0.36078	 11.00757	707.03101	 23.40	
 13.595	 71.958	 10.12331	  6.35012	  3.43248	  9.25371	  1.07609	 -0.38466	 11.01252	707.09900	 23.40	
 13.607	 79.207	 10.12752	  5.79024	  3.96667	  9.40039	  0.97141	 -0.40461	 11.01079	707.05499	 23.40	
 13.601	 86.383	 10.13557	  5.21363	  4.52674	  9.48876	  0.90314	 -0.43897	 11.01530	707.09802	 23.40	
 13.601	 93.617	 10.14455	  4.64886	  5.10509	  9.49719	  0.90459	 -0.45169	 11.02694	707.17102	 23.40	
 13.607	100.793	 10.12761	  4.09257	  5.66922	  9.40784	  0.95430	 -0.44955	 11.01491	707.16199	 23.40	
 13.595	108.042	 10.11951	  3.55758	  6.24051	  9.25129	  1.06840	 -0.45039	 11.00964	707.10303	 23.40	
 13.604	115.211	 10.12203	  3.05601	  6.80081	  9.03731	  1.22930	 -0.44927	 11.02191	707.08698	 23.40	
 13.611	122.431	 10.09320	  2.58578	  7.31381	  8.72004	  1.45005	 -0.43452	 10.99679	707.07202	 23.40	
 13.596	129.640	 10.12704	  2.17507	  7.83542	  8.38181	  1.74685	 -0.41392	 11.03899	707.14899	 23.40	
 13.601	136.825	 10.09731	  1.80386	  8.26063	  7.93493	  2.08054	 -0.39731	 11.01008	707.17902	 23.40	
 13.611	143.999	 10.07882	  1.47999	  8.64307	  7.45642	  2.46249	 -0.38448	 11.00885	707.09802	 23.40	
 13.609	151.210	 10.06635	  1.21608	  8.96390	  6.94091	  2.88960	 -0.37484	 11.00241	707.06702	 23.40	
 13.601	158.353	 10.08102	  1.00936	  9.24493	  6.40511	  3.37430	 -0.37963	 11.02910	707.13397	 23.30	
 13.611	165.583	 10.05579	  0.85242	  9.41819	  5.82300	  3.87851	 -0.38962	 11.01195	707.01398	 23.40	
 13.608	172.853	 10.02589	  0.74367	  9.51512	  5.23816	  4.39967	 -0.40484	 10.99613	707.10602	 23.30	
 15.298	173.587	  9.73067	  0.09249	  9.85016	  5.00040	  4.15515	 -0.48754	 11.00357	707.03900	 23.40	
 15.291	167.167	  9.75286	  0.17490	  9.76735	  5.57671	  3.62888	 -0.47921	 11.01641	707.11798	 23.40	
 15.307	160.676	  9.77775	  0.30963	  9.61592	  6.16132	  3.12379	 -0.46873	 11.03264	707.16199	 23.40	
 15.300	154.261	  9.77913	  0.49718	  9.37191	  6.71731	  2.63845	 -0.46021	 11.01635	707.13202	 23.40	
 15.288	147.854	  9.79670	  0.72801	  9.08595	  7.25113	  2.20250	 -0.45928	 11.02251	706.96503	 23.30	
 15.293	141.428	  9.80922	  1.01374	  8.73032	  7.75020	  1.80316	 -0.46384	 11.01999	707.10303	 23.40	
 15.299	134.985	  9.81217	  1.34095	  8.31612	  8.21360	  1.43210	 -0.47249	 11.01555	707.09198	 23.40	
 15.305	128.583	  9.80927	  1.70549	  7.85644	  8.62723	  1.10985	 -0.48712	 11.01001	707.10101	 23.40	
 15.309	122.142	  9.82401	  2.12421	  7.36535	  8.99869	  0.83364	 -0.50583	 11.01969	707.09302	 23.40	
 15.304	115.711	  9.83496	  2.57913	  6.84058	  9.29750	  0.62090	 -0.51670	 11.02087	707.07202	 23.40	
 15.297	109.291	  9.83827	  3.06492	  6.28700	  9.52189	  0.45791	 -0.51199	 11.01046	707.11499	 23.40	
 15.293	102.897	  9.85031	  3.59364	  5.72560	  9.70209	  0.33556	 -0.51277	 11.02321	706.98297	 23.40	
 15.293	 96.458	  9.84659	  4.12799	  5.14875	  9.80204	  0.25727	 -0.51383	 11.02076	707.09003	 23.40	
 15.300	 90.000	  9.85947	  4.70066	  4.57597	  9.84732	  0.23923	 -0.50755	 11.03028	707.04498	 23.30	
 15.293	 83.542	  9.84992	  5.26608	  4.00806	  9.79757	  0.27156	 -0.49686	 11.01521	707.16199	 23.30	
 15.293	 77.103	  9.86028	  5.84793	  3.46738	  9.70459	  0.35544	 -0.47155	 11.02962	707.00598	 23.30	
 15.297	 70.709	  9.84574	  6.39594	  2.94768	  9.52352	  0.47637	 -0.44551	 11.02118	707.01099	 23.30	
 15.304	 64.289	  9.85162	  6.95544	  2.45812	  9.29712	  0.65238	 -0.41869	 11.03140	707.14899	 23.30	
 15.309	 57.858	  9.83436	  7.46514	  2.00437	  8.99022	  0.86757	 -0.41991	 11.01941	707.08698	 23.30	
 15.305	 51.417	  9.83257	  7.96250	  1.59390	  8.63217	  1.13495	 -0.41374	 11.02634	707.11298	 23.30	
 15.299	 45.015	  9.82822	  8.41570	  1.22838	  8.21192	  1.46597	 -0.42010	 11.03205	707.17200	 23.30	
 15.293	 38.572	  9.81934	  8.81032	  0.91320	  7.74326	  1.83396	 -0.43125	 11.02465	707.15503	 23.30	
 15.288	 32.146	  9.81037	  9.15514	  0.64160	  7.24490	  2.23474	 -0.43182	 11.02592	707.17102	 23.30	
 15.300	 25.739	  9.80074	  9.44275	  0.41745	  6.71156	  2.68110	 -0.42868	 11.02178	707.11798	 23.30	
 15.307	 19.324	  9.78962	  9.66391	  0.24301	  6.15185	  3.16001	 -0.42233	 11.02333	707.22699	 23.30	
 15.291	 12.833	  9.78139	  9.81294	  0.12515	  5.57596	  3.67901	 -0.42131	 11.01981	707.12598	 23.30	
 15.298	  6.413	  9.77236	  9.90272	  0.04684	  5.00675	  4.20000	 -0.41950	 11.01771	707.17200	 23.30	
 15.300	  0.000	  9.77500	  9.93093	  0.01883	  4.42891	  4.76219	 -0.42736	 11.02681	707.17700	 23.30	
 15.298	 -6.413	  9.75680	  9.87688	  0.03715	  3.86375	  5.31770	 -0.41538	 11.01087	707.15198	 23.30	
 15.291	-12.833	  9.77463	  9.78626	  0.11089	  3.33389	  5.89230	 -0.41756	 11.03172	707.20203	 23.30	
 15.307	-19.324	  9.75600	  9.59762	  0.23022	  2.79649	  6.45628	 -0.42115	 11.01959	707.20203	 23.30	
 15.300	-25.739	  9.73874	  9.33783	  0.40476	  2.31489	  6.98548	 -0.42798	 11.00542	707.11298	 23.30	
 15.288	-32.146	  9.74197	  9.04346	  0.62135	  1.86948	  7.50826	 -0.42779	 11.01359	707.18201	 23.30	
 15.293	-38.572	  9.73200	  8.67618	  0.88649	  1.44641	  8.00409	 -0.43009	 11.02008	707.13397	 23.30	
 15.299	-45.015	  9.72998	  8.26346	  1.20502	  1.07604	  8.46267	 -0.43591	 11.02901	707.20502	 23.30	
 15.305	-51.417	  9.72513	  7.79559	  1.57606	  0.76703	  8.85615	 -0.45589	 11.02398	707.18201	 23.30	
 15.309	-57.858	  9.70896	  7.29427	  1.97730	  0.49189	  9.19956	 -0.44479	 11.01693	707.12598	 23.30	
 15.304	-64.289	  9.69158	  6.75432	  2.42384	  0.25942	  9.49001	 -0.44639	 11.01642	707.11298	 23.30	
 15.297	-70.709	  9.69336	  6.20703	  2.91304	  0.07931	  9.73446	 -0.44395	 11.03083	707.14398	 23.30	
 15.293	-77.103	  9.67480	  5.63737	  3.41907	 -0.05373	  9.89017	 -0.44302	 11.02396	707.12299	 23.30	
 15.293	-83.542	  9.67048	  5.06706	  3.95883	 -0.13659	  9.99385	 -0.46125	 11.02750	706.94897	 23.30	
 15.300	-90.000	  9.66231	  4.49056	  4.52124	 -0.15812	 10.02011	 -0.47439	 11.02632	707.10602	 23.30	
 15.293	-96.458	  9.65181	  3.92411	  5.09477	 -0.13377	  9.97085	 -0.48574	 11.01715	707.19299	 23.30	
 15.293	-102.897	  9.64821	  3.39388	  5.66424	 -0.05797	  9.86561	 -0.49042	 11.01086	707.02197	 23.30	
 15.297	-109.291	  9.67235	  2.89287	  6.24539	  0.06548	  9.72174	 -0.48980	 11.04339	707.05603	 23.30	
 15.304	-115.711	  9.64678	  2.40692	  6.77874	  0.24026	  9.46606	 -0.46709	 11.01746	707.01599	 23.30	
 15.309	-122.142	  9.65125	  1.96591	  7.30932	  0.46560	  9.17014	 -0.45358	 11.01538	707.03699	 23.30	
 15.305	-128.583	  9.66083	  1.56516	  7.81190	  0.74407	  8.81769	 -0.44988	 11.01993	706.99103	 23.30	
 15.299	-134.985	  9.66508	  1.20861	  8.26789	  1.05903	  8.42240	 -0.46097	 11.02379	706.97400	 23.30	
 15.293	-141.428	  9.67745	  0.89769	  8.68765	  1.43514	  7.97007	 -0.47828	 11.02383	707.10303	 23.30	
 15.288	-147.854	  9.67544	  0.63376	  9.03760	  1.85576	  7.46237	 -0.49187	 11.01116	707.08197	 23.30	
 15.300	-154.261	  9.68623	  0.41564	  9.34178	  2.30046	  6.95128	 -0.49735	 11.01615	707.07599	 23.30	
 15.307	-160.676	  9.69318	  0.25447	  9.57539	  2.78688	  6.40648	 -0.49302	 11.01680	707.06403	 23.30	
 15.291	-167.167	  9.71643	  0.14199	  9.75357	  3.32720	  5.84040	 -0.49151	 11.02008	707.02698	 23.30	
 15.298	-173.587	  9.72871	  0.08212	  9.85947	  3.87268	  5.28195	 -0.49126	 11.02420	707.12299	 23.30	
 15.300	180.000	  9.73433	  0.06362	  9.89475	  4.42893	  4.72014	 -0.49305	 11.01997	707.12299	 23.30	
 17.000	180.000	  9.40958	 -0.56292	 10.20027	  4.17176	  4.44986	 -0.55801	 11.03671	707.03601	 23.30	
 16.990	-174.179	  9.37929	 -0.54775	 10.14461	  3.60741	  5.00164	 -0.54936	 11.01120	707.08398	 23.30	
 17.009	-168.383	  9.36678	 -0.50585	 10.06050	  3.06615	  5.55481	 -0.55031	 11.01849	706.96503	 23.30	
 17.000	-162.596	  9.37563	 -0.40977	  9.92603	  2.54539	  6.13196	 -0.54594	 11.04071	707.09497	 23.30	
 16.990	-156.759	  9.36140	 -0.26283	  9.70071	  2.05781	  6.67489	 -0.55660	 11.03371	707.17902	 23.30	
 16.995	-150.919	  9.34291	 -0.08360	  9.42173	  1.59351	  7.20434	 -0.55877	 11.02628	707.05103	 23.30	
 16.988	-145.161	  9.33241	  0.14849	  9.08650	  1.16660	  7.71364	 -0.55177	 11.02423	707.07501	 23.30	
 17.014	-139.343	  9.32108	  0.42005	  8.70517	  0.77287	  8.19501	 -0.53048	 11.01834	707.11798	 23.30	
 17.007	-133.546	  9.33384	  0.73395	  8.29617	  0.43441	  8.64721	 -0.51799	 11.04202	707.09302	 23.30	
 17.001	-127.699	  9.31892	  1.08988	  7.81879	  0.13502	  9.03022	 -0.50987	 11.02838	707.11499	 23.30	
 17.006	-121.937	  9.30739	  1.48045	  7.30944	 -0.13566	  9.38014	 -0.50502	 11.02342	707.13202	 23.30	
 17.002	-116.134	  9.29726	  1.90661	  6.77886	 -0.35109	  9.66331	 -0.51238	 11.01085	707.10699	 23.30	
 17.001	-110.310	  9.31775	  2.37216	  6.24662	 -0.52947	  9.93046	 -0.51492	 11.04134	707.02002	 23.30	
 16.988	-104.517	  9.29390	  2.87150	  5.66285	 -0.64540	 10.07580	 -0.50502	 11.00367	707.07001	 23.30	
 17.008	-98.662	  9.32025	  3.39917	  5.10131	 -0.74112	 10.23152	 -0.48810	 11.03446	707.07898	 23.30	
 16.996	-92.909	  9.32679	  3.93692	  4.54231	 -0.77118	 10.28741	 -0.45738	 11.03384	707.07800	 23.30	
 16.996	-87.091	  9.31589	  4.49146	  3.97446	 -0.76805	 10.27658	 -0.43514	 11.01374	707.13098	 23.30	
 17.012	-81.253	  9.31878	  5.05393	  3.42746	 -0.73343	 10.22505	 -0.43445	 11.01590	707.03400	 23.30	
 16.988	-75.483	  9.34901	  5.63333	  2.91085	 -0.65183	 10.13712	 -0.41266	 11.04304	707.03400	 23.30	
 17.001	-69.690	  9.33968	  6.18655	  2.40209	 -0.52438	  9.94841	 -0.40238	 11.02588	707.14801	 23.30	
 17.002	-63.866	  9.34820	  6.73807	  1.92996	 -0.34732	  9.70741	 -0.41398	 11.01857	707.01300	 23.30	
 17.006	-58.063	  9.37270	  7.28361	  1.49727	 -0.12434	  9.42545	 -0.41374	 11.03426	707.13098	 23.30	
 17.001	-52.301	  9.39312	  7.79275	  1.10537	  0.14385	  9.08386	 -0.42635	 11.03477	707.09198	 23.30	
 17.007	-46.454	  9.41318	  8.28487	  0.73861	  0.44162	  8.70180	 -0.41804	 11.05028	707.04498	 23.30	
 17.014	-40.657	  9.40231	  8.69796	  0.41568	  0.77552	  8.25523	 -0.43169	 11.03456	707.04999	 23.30	
 16.988	-34.839	  9.41751	  9.08605	  0.14734	  1.17519	  7.77782	 -0.43309	 11.03381	707.02197	 23.30	
 16.995	-29.081	  9.42272	  9.41472	 -0.08142	  1.59797	  7.26955	 -0.42870	 11.02718	706.90601	 23.30	
 16.990	-23.241	  9.42377	  9.69185	 -0.26977	  2.05893	  6.72805	 -0.43403	 11.02241	707.13397	 23.30	
 17.000	-17.404	  9.43527	  9.92592	 -0.42525	  2.54784	  6.18483	 -0.42750	 11.03446	707.08398	 23.30	
 17.009	-11.617	  9.43295	 10.07960	 -0.52959	  3.06793	  5.61314	 -0.42001	 11.02450	707.08698	 23.30	
 16.990	 -5.821	  9.44126	 10.17587	 -0.58395	  3.60826	  5.05411	 -0.41509	 11.02744	707.14099	 23.30	
 17.000	  0.000	  9.43103	 10.20351	 -0.59971	  4.15613	  4.49183	 -0.40611	 11.01289	707.05499	 23.30	
 16.990	  5.821	  9.44483	 10.19487	 -0.57816	  4.73837	  3.94429	 -0.41029	 11.02121	707.02802	 23.30	
 17.009	 11.617	  9.45026	 10.12352	 -0.52028	  5.30512	  3.41212	 -0.41352	 11.02653	706.94098	 23.30	
 17.000	 17.404	  9.45683	  9.98465	 -0.41411	  5.87332	  2.90564	 -0.41828	 11.02692	706.98297	 23.30	
 16.990	 23.241	  9.46695	  9.78463	 -0.26311	  6.44440	  2.41671	 -0.42871	 11.02765	707.16199	 23.30	
 16.995	 29.081	  9.46486	  9.51469	 -0.06848	  6.97982	  1.96363	 -0.43844	 11.01875	707.01599	 23.30	
 16.988	 34.839	  9.47856	  9.20963	  0.16597	  7.49570	  1.55666	 -0.44769	 11.02115	707.20001	 23.30	
 17.014	 40.657	  9.49237	  8.85236	  0.43511	  8.00245	  1.16186	 -0.45758	 11.03105	707.07898	 23.30	
 17.007	 46.454	  9.48903	  8.42753	  0.75362	  8.44501	  0.81577	 -0.46215	 11.02506	707.01599	 23.30	
 17.001	 52.301	  9.50094	  7.97214	  1.11844	  8.85182	  0.52099	 -0.45432	 11.02707	707.08197	 23.30	
 17.006	 58.063	  9.51423	  7.49142	  1.51922	  9.21149	  0.26715	 -0.45556	 11.03060	707.06097	 23.30	
 17.002	 63.866	  9.50061	  6.95484	  1.95406	  9.50236	  0.04763	 -0.46946	 11.01017	707.12299	 23.30	
 17.001	 69.690	  9.52482	  6.42458	  2.43169	  9.77595	 -0.13594	 -0.48804	 11.03610	707.07599	 23.30	
 16.988	 75.483	  9.51770	  5.84960	  2.94010	  9.95059	 -0.26959	 -0.50267	 11.02262	707.05499	 23.30	
 17.012	 81.253	  9.51473	  5.29092	  3.46431	 10.07165	 -0.35655	 -0.51859	 11.01991	706.97998	 23.30	
 16.996	 87.091	  9.52255	  4.72638	  4.01820	 10.13098	 -0.39464	 -0.52298	 11.01942	707.10699	 23.30	
 16.996	 92.909	  9.51013	  4.14776	  4.58455	 10.12805	 -0.40909	 -0.52394	 11.01358	706.96503	 23.30	
 17.008	 98.662	  9.50250	  3.59982	  5.14536	 10.06870	 -0.37959	 -0.51852	 11.00965	707.02301	 23.30	
 16.988	104.517	  9.50341	  3.07462	  5.71731	  9.94163	 -0.28230	 -0.52318	 11.01069	706.98499	 23.30	
 17.001	110.310	  9.50936	  2.57737	  6.28787	  9.76550	 -0.15137	 -0.53741	 11.01696	706.90198	 23.30	
 17.002	116.134	  9.50193	  2.09526	  6.83726	  9.51799	  0.02066	 -0.54336	 11.01463	706.95697	 23.30	
 17.006	121.937	  9.50147	  1.65461	  7.36962	  9.21775	  0.23659	 -0.54776	 11.01959	706.95801	 23.30	
 17.001	127.699	  9.49451	  1.24495	  7.86911	  8.86699	  0.48922	 -0.55114	 11.02382	707.00000	 23.30	
 17.007	133.546	  9.46441	  0.86697	  8.31837	  8.44705	  0.77940	 -0.53989	 11.00414	707.04401	 23.30	
 17.014	139.343	  9.46212	  0.53995	  8.74780	  8.00185	  1.12177	 -0.53830	 11.00621	707.01300	 23.30	
 16.988	145.161	  9.46966	  0.26011	  9.13452	  7.51689	  1.51567	 -0.53199	 11.02523	707.03101	 23.30	
 16.995	150.919	  9.44468	  0.01400	  9.44188	  6.98665	  1.92465	 -0.53285	 11.00890	706.95203	 23.30	
 16.990	156.759	  9.43549	 -0.17508	  9.70219	  6.44290	  2.37866	 -0.53693	 11.00509	707.04999	 23.30	
 17.000	162.596	  9.44525	 -0.34160	  9.93840	  5.89133	  2.86665	 -0.53900	 11.03026	706.93701	 23.30	
 17.009	168.383	  9.41993	 -0.46588	 10.07797	  5.31193	  3.36250	 -0.55812	 11.02477	706.86200	 23.30	
 16.990	174.179	  9.42053	 -0.52783	 10.16708	  4.74946	  3.89767	 -0.55367	 11.02861	706.93402	 23.30	
 18.709	174.675	  9.03115	 -1.12466	 10.40437	  4.45037	  3.60097	 -0.58557	 11.01536	706.84399	 23.30	
 18.703	169.441	  9.05422	 -1.06251	 10.33954	  5.01463	  3.09478	 -0.58954	 11.02494	707.03400	 23.30	
 18.691	164.085	  9.08631	 -0.95931	 10.22409	  5.60194	  2.59414	 -0.58582	 11.04359	706.94397	 23.30	
 18.706	158.818	  9.08439	 -0.82426	 10.03004	  6.16192	  2.10812	 -0.58657	 11.03217	706.96002	 23.30	
 18.695	153.537	  9.09434	 -0.65230	  9.78807	  6.70229	  1.66135	 -0.59253	 11.03251	706.95801	 23.30	
 18.704	148.255	  9.10959	 -0.44703	  9.50071	  7.23822	  1.24019	 -0.59250	 11.03706	706.91998	 23.30	
 18.698	142.952	  9.10620	 -0.20015	  9.13894	  7.74150	  0.84447	 -0.59123	 11.02014	706.91803	 23.20	
 18.699	137.625	  9.11845	  0.09396	  8.74470	  8.22430	  0.48926	 -0.58002	 11.02101	706.98901	 23.30	
 18.705	132.343	  9.12652	  0.41205	  8.31876	  8.65824	  0.17408	 -0.57684	 11.02204	706.92902	 23.30	
 18.713	127.067	  9.12190	  0.76664	  7.84144	  9.05120	 -0.11548	 -0.56391	 11.01191	706.97400	 23.30	
 18.700	121.794	  9.14511	  1.17510	  7.34922	  9.41659	 -0.35372	 -0.55103	 11.03099	706.94897	 23.30	
 18.698	116.504	  9.13899	  1.60501	  6.80901	  9.70659	 -0.56204	 -0.53416	 11.01280	706.95203	 23.20	
 18.707	111.165	  9.15643	  2.07104	  6.26952	  9.97456	 -0.73415	 -0.50859	 11.03220	706.93701	 23.30	
 18.690	105.863	  9.16049	  2.56443	  5.70739	 10.15839	 -0.86125	 -0.50231	 11.02571	706.92102	 23.30	
 18.696	100.583	  9.16899	  3.08427	  5.14727	 10.29513	 -0.93650	 -0.49232	 11.02961	706.94598	 23.30	
 18.700	 95.309	  9.17006	  3.61584	  4.58499	 10.37337	 -0.98973	 -0.49105	 11.02716	706.85901	 23.30	
 18.700	 90.000	  9.14924	  4.15409	  4.01183	 10.37525	 -1.00364	 -0.50166	 11.00193	706.94397	 23.20	
 18.700	 84.691	  9.17409	  4.72555	  3.47185	 10.37575	 -0.98117	 -0.51409	 11.03736	706.94299	 23.30	
 18.696	 79.417	  9.16111	  5.28122	  2.93452	 10.28162	 -0.92933	 -0.51372	 11.02048	706.92999	 23.20	
 18.690	 74.137	  9.15131	  5.83324	  2.42459	 10.13276	 -0.82828	 -0.51451	 11.00892	706.89801	 23.30	
 18.707	 68.835	  9.16072	  6.40106	  1.92874	  9.96061	 -0.70888	 -0.50949	 11.02981	706.88702	 23.20	
 18.698	 63.496	  9.14303	  6.93571	  1.46399	  9.69341	 -0.53682	 -0.50371	 11.01603	707.05603	 23.30	
 18.700	 58.206	  9.14753	  7.46802	  1.04063	  9.38941	 -0.31873	 -0.48824	 11.02199	706.88098	 23.20	
 18.713	 52.933	  9.15101	  7.96696	  0.64984	  9.05053	 -0.08094	 -0.49173	 11.04109	706.98199	 23.20	
 18.705	 47.657	  9.13680	  8.42119	  0.29924	  8.63273	  0.21521	 -0.47660	 11.02217	706.91602	 23.30	
 18.699	 42.375	  9.11602	  8.83274	 -0.02108	  8.18727	  0.52633	 -0.45279	 11.01038	706.88898	 23.20	
 18.698	 37.048	  9.10010	  9.20572	 -0.29404	  7.70369	  0.88647	 -0.42755	 11.00073	706.91302	 23.20	
 18.704	 31.745	  9.10289	  9.55427	 -0.53940	  7.20021	  1.28521	 -0.41544	 11.01478	706.85901	 23.20	
 18.695	 26.463	  9.10058	  9.84311	 -0.73611	  6.67395	  1.71217	 -0.39424	 11.02370	706.88501	 23.20	
 18.706	 21.182	  9.11003	 10.09932	 -0.91274	  6.14129	  2.16090	 -0.38214	 11.04692	706.91199	 23.20	
 18.691	 15.915	  9.07361	 10.23729	 -1.02943	  5.56115	  2.63831	 -0.37949	 11.00662	706.90198	 23.20	
 18.703	 10.559	  9.09257	 10.39373	 -1.12909	  5.00603	  3.15093	 -0.37048	 11.04243	706.79199	 23.20	
 18.709	  5.325	  9.08719	 10.46077	 -1.18414	  4.45163	  3.66036	 -0.36354	 11.04007	706.90100	 23.20	
 18.700	  0.000	  9.06871	 10.45058	 -1.19598	  3.87185	  4.21031	 -0.38921	 11.01727	706.97998	 23.20	
 18.709	 -5.325	  9.05998	 10.41535	 -1.18231	  3.32043	  4.76206	 -0.38478	 11.01087	706.84399	 23.20	
 18.703	-10.559	  9.07713	 10.34971	 -1.13382	  2.79788	  5.32625	 -0.38155	 11.03623	707.00598	 23.20	
 18.691	-15.915	  9.06126	 10.18394	 -1.03998	  2.27194	  5.88931	 -0.39562	 11.01962	706.88898	 23.20	
 18.706	-21.182	  9.06524	  9.99600	 -0.91733	  1.79604	  6.43214	 -0.41027	 11.03125	707.10602	 23.20	
 18.695	-26.463	  9.05283	  9.72559	 -0.74827	  1.33494	  6.96449	 -0.42693	 11.01655	706.96100	 23.20	
 18.704	-31.745	  9.05105	  9.43470	 -0.56179	  0.89624	  7.49386	 -0.41906	 11.03037	706.91803	 23.20	
 18.698	-37.048	  9.04564	  9.07222	 -0.31537	  0.51319	  7.98010	 -0.42201	 11.02514	707.02002	 23.20	
 18.699	-42.375	  9.04572	  8.67695	 -0.03507	  0.15407	  8.44978	 -0.42419	 11.03476	707.03699	 23.20	
 18.705	-47.657	  9.00691	  8.21301	  0.27568	 -0.16778	  8.84879	 -0.40423	 11.00302	707.01099	 23.20	
 18.713	-52.933	  9.00092	  7.74458	  0.62034	 -0.45739	  9.24040	 -0.39467	 11.01594	706.93500	 23.20	
 18.700	-58.206	  9.01974	  7.25975	  1.01851	 -0.69917	  9.60718	 -0.38952	 11.04627	706.83600	 23.20	
 18.698	-63.496	  8.98794	  6.71865	  1.43860	 -0.90179	  9.87086	 -0.36221	 11.02203	706.94098	 23.20	
 18.707	-68.835	  8.97134	  6.16300	  1.89717	 -1.06698	 10.10511	 -0.35738	 11.01669	707.09900	 23.20	
 18.690	-74.137	  8.96917	  5.60163	  2.38758	 -1.18753	 10.28834	 -0.36492	 11.01802	706.85901	 23.20	
 18.696	-79.417	  8.94634	  5.02675	  2.88713	 -1.29188	 10.40832	 -0.37358	 11.00558	706.95398	 23.20	
 18.700	-84.691	  8.93600	  4.46317	  3.41491	 -1.35106	 10.48573	 -0.38689	 11.01313	706.99200	 23.20	
 18.700	-90.000	  8.94212	  3.90770	  3.96929	 -1.37000	 10.51589	 -0.40865	 11.01678	706.97198	 23.20	
 18.700	-95.309	  8.93813	  3.36485	  4.52653	 -1.35188	 10.48517	 -0.43361	 11.02122	706.90198	 23.20	
 18.696	-100.583	  8.92494	  2.84339	  5.08327	 -1.29775	 10.39353	 -0.46269	 11.00903	706.84998	 23.20	
 18.690	-105.863	  8.92563	  2.34215	  5.64957	 -1.20785	 10.26192	 -0.48344	 11.01397	706.90399	 23.20	
 18.707	-111.165	  8.92658	  1.86799	  6.20471	 -1.08035	 10.07981	 -0.46874	 11.01865	706.86499	 23.20	
 18.698	-116.504	  8.90664	  1.41343	  6.73639	 -0.91232	  9.81287	 -0.47819	 10.99606	706.92603	 23.20	
 18.700	-121.794	  8.90784	  0.98978	  7.26507	 -0.71010	  9.52131	 -0.49677	 11.00153	706.84998	 23.20	
 18.713	-127.067	  8.93476	  0.61603	  7.78295	 -0.46675	  9.20347	 -0.50903	 11.02630	707.00000	 23.20	
 18.705	-132.343	  8.93105	  0.26941	  8.24661	 -0.18049	  8.80466	 -0.51460	 11.01293	706.93402	 23.20	
 18.699	-137.625	  8.94491	 -0.03023	  8.68431	  0.14672	  8.38327	 -0.52206	 11.01895	706.93701	 23.20	
 18.698	-142.952	  8.94370	 -0.31248	  9.07762	  0.49820	  7.91472	 -0.53692	 11.01505	706.85797	 23.20	
 18.704	-148.255	  8.94446	 -0.55142	  9.42435	  0.88983	  7.41509	 -0.53599	 11.00768	706.95203	 23.20	
 18.695	-153.537	  8.95998	 -0.73753	  9.72311	  1.32852	  6.89793	 -0.53617	 11.00775	706.92700	 23.20	
 18.706	-158.818	  8.97260	 -0.89835	  9.97894	  1.78664	  6.36790	 -0.53944	 11.01297	706.89801	 23.20	
 18.691	-164.085	  8.98117	 -1.01738	 10.16951	  2.27509	  5.81501	 -0.54071	 11.01175	706.93701	 23.20	
 18.703	-169.441	  8.99459	 -1.10182	 10.31704	  2.79758	  5.24656	 -0.54953	 11.01614	706.92700	 23.20	
 18.709	-174.675	  9.01410	 -1.14856	 10.40708	  3.32883	  4.70407	 -0.54955	 11.02542	706.78802	 23.20	
 18.700	180.000	  9.02737	 -1.14789	 10.43181	  3.88195	  4.15559	 -0.55203	 11.01782	706.84698	 23.20	
 20.400	180.000	  8.63509	 -1.72117	 10.64897	  3.58487	  3.85365	 -0.54162	 11.03324	706.82001	 23.20	
 20.401	-175.153	  8.60319	 -1.72559	 10.61243	  3.03796	  4.37792	 -0.53685	 11.01570	706.96002	 23.20	
 20.407	-170.264	  8.58782	 -1.69371	 10.53680	  2.50506	  4.92322	 -0.52934	 11.01827	706.94098	 23.20	
 20.410	-165.423	  8.55712	 -1.61392	 10.38281	  1.98587	  5.47507	 -0.51133	 10.98910	706.97400	 23.20	
 20.392	-160.496	  8.58492	 -1.51653	 10.24685	  1.51882	  6.03547	 -0.52304	 11.03291	706.94397	 23.20	
 20.401	-155.705	  8.56319	 -1.40163	 10.02342	  1.05750	  6.55821	 -0.51337	 11.02935	706.90997	 23.20	
 20.405	-150.835	  8.55307	 -1.23450	  9.74633	  0.61644	  7.08992	 -0.51240	 11.03184	707.00299	 23.20	
 20.397	-145.903	  8.53078	 -1.01397	  9.39651	  0.22153	  7.58733	 -0.52574	 11.00730	706.95099	 23.20	
 20.392	-141.062	  8.53711	 -0.77725	  9.04214	 -0.14615	  8.07323	 -0.52908	 11.01823	706.92603	 23.20	
 20.396	-136.227	  8.53584	 -0.50792	  8.64137	 -0.48085	  8.53284	 -0.53494	 11.02768	707.00500	 23.20	
 20.408	-131.372	  8.52870	 -0.21322	  8.20167	 -0.79326	  8.96022	 -0.52605	 11.03754	707.06201	 23.20	
 20.410	-126.511	  8.50888	  0.12665	  7.71117	 -1.05395	  9.31777	 -0.51476	 11.01235	706.91803	 23.20	
 20.400	-121.604	  8.50991	  0.50481	  7.20565	 -1.28238	  9.65816	 -0.49829	 11.00829	706.96899	 23.10	
 20.403	-116.741	  8.51141	  0.90534	  6.68825	 -1.48164	  9.95696	 -0.48256	 11.01903	706.93500	 23.20	
 20.413	-111.900	  8.52025	  1.32951	  6.15835	 -1.65414	 10.22063	 -0.47110	 11.03676	706.76001	 23.20	
 20.398	-107.004	  8.52541	  1.80246	  5.60576	 -1.77945	 10.42416	 -0.43903	 11.03908	706.82599	 23.10	
 20.394	-102.132	  8.50696	  2.27720	  5.03741	 -1.86590	 10.53872	 -0.41980	 11.00523	706.84998	 23.20	
 20.403	-97.332	  8.52931	  2.78165	  4.49265	 -1.93310	 10.65993	 -0.39510	 11.03282	706.80298	 23.10	
 20.392	-92.440	  8.53652	  3.31194	  3.93622	 -1.96303	 10.71227	 -0.38962	 11.03475	706.90601	 23.10	
 20.392	-87.560	  8.53146	  3.85593	  3.38525	 -1.96414	 10.71171	 -0.35835	 11.02423	706.98798	 23.10	
 20.403	-82.668	  8.52009	  4.40422	  2.84249	 -1.92919	 10.64863	 -0.36048	 11.00548	706.99701	 23.10	
 20.394	-77.868	  8.55264	  4.96763	  2.34755	 -1.86451	 10.58812	 -0.33594	 11.03622	707.00800	 23.20	
 20.398	-72.996	  8.56004	  5.52821	  1.85197	 -1.76789	 10.44431	 -0.34125	 11.02782	706.83600	 23.10	
 20.413	-68.100	  8.56114	  6.08025	  1.38159	 -1.63495	 10.24597	 -0.31591	 11.01698	706.99103	 23.10	
 20.403	-63.259	  8.58654	  6.63417	  0.94701	 -1.46751	 10.01299	 -0.34653	 11.02924	706.91302	 23.10	
 20.400	-58.396	  8.60116	  7.16762	  0.53781	 -1.26789	  9.72520	 -0.35087	 11.03154	706.91998	 23.10	
 20.410	-53.489	  8.59621	  7.66855	  0.14746	 -1.04068	  9.38121	 -0.35704	 11.01309	706.94098	 23.20	
 20.408	-48.628	  8.61065	  8.14980	 -0.19459	 -0.78745	  9.02058	 -0.36767	 11.02394	706.81702	 23.10	
 20.396	-43.773	  8.61477	  8.58639	 -0.49655	 -0.47648	  8.59102	 -0.38535	 11.00504	706.83301	 23.10	
 20.392	-38.938	  8.63490	  9.01389	 -0.77037	 -0.14189	  8.15032	 -0.38245	 11.01813	707.03400	 23.10	
 20.397	-34.097	  8.65052	  9.39621	 -1.01780	  0.21827	  7.68353	 -0.38007	 11.02859	706.94299	 23.10	
 20.405	-29.165	  8.64927	  9.72314	 -1.23459	  0.61715	  7.17087	 -0.39902	 11.02557	706.82800	 23.10	
 20.401	-24.295	  8.65011	  9.99598	 -1.39633	  1.05627	  6.63546	 -0.38882	 11.01426	706.96600	 23.10	
 20.392	-19.504	  8.67476	 10.25018	 -1.54160	  1.50829	  6.12071	 -0.38263	 11.04195	706.91803	 23.10	
 20.410	-14.577	  8.66247	 10.41799	 -1.65350	  1.99105	  5.56026	 -0.37399	 11.02336	706.77502	 23.10	
 20.407	 -9.736	  8.66639	 10.55406	 -1.73382	  2.50041	  5.00464	 -0.35624	 11.02717	706.92102	 23.10	
 20.401	 -4.847	  8.65746	 10.61535	 -1.76841	  3.02366	  4.44513	 -0.35032	 11.01359	706.81897	 23.10	
 20.400	  0.000	  8.66466	 10.65847	 -1.78840	  3.56131	  3.90396	 -0.34538	 11.01937	706.98901	 23.10	
 20.401	  4.847	  8.66686	 10.64940	 -1.77252	  4.10969	  3.36919	 -0.33948	 11.02053	706.76099	 23.10	
 20.407	  9.736	  8.66530	 10.58349	 -1.71909	  4.66593	  2.84919	 -0.33559	 11.01540	706.85101	 23.10	
 20.410	 14.577	  8.68312	 10.49041	 -1.64880	  5.23292	  2.35686	 -0.33652	 11.02805	706.91998	 23.10	
 20.392	 19.504	  8.68869	 10.31334	 -1.52374	  5.80358	  1.87246	 -0.35187	 11.01808	706.96600	 23.10	
 20.401	 24.295	  8.69278	 10.10419	 -1.37960	  6.33668	  1.43102	 -0.36783	 11.01362	706.94299	 23.10	
 20.405	 29.165	  8.70638	  9.85908	 -1.21730	  6.88004	  0.99952	 -0.36552	 11.02712	706.85400	 23.10	
 20.397	 34.097	  8.70805	  9.53725	 -0.99876	  7.40686	  0.58817	 -0.39106	 11.02024	706.77502	 23.10	
 20.392	 38.938	  8.71809	  9.18443	 -0.75398	  7.89498	  0.23104	 -0.42272	 11.01891	706.85797	 23.10	
 20.396	 43.773	  8.73392	  8.80090	 -0.47472	  8.36043	 -0.09021	 -0.44246	 11.02627	707.04498	 23.10	
 20.408	 48.628	  8.73510	  8.37020	 -0.17402	  8.79157	 -0.40211	 -0.46779	 11.02420	706.91302	 23.10	
 20.410	 53.489	  8.72891	  7.89532	  0.16991	  9.17991	 -0.67621	 -0.48861	 11.01668	706.80902	 23.10	
 20.400	 58.396	  8.74876	  7.40917	  0.55670	  9.54439	 -0.90836	 -0.50267	 11.02423	706.82001	 23.10	
 20.403	 63.259	  8.75734	  6.89315	  0.97035	  9.85009	 -1.10059	 -0.50737	 11.03164	706.98798	 23.10	
 20.413	 68.100	  8.74056	  6.34732	  1.40582	 10.07415	 -1.25576	 -0.50906	 10.99916	706.91998	 23.10	
 20.398	 72.996	  8.77463	  5.81730	  1.88589	 10.31035	 -1.38853	 -0.50974	 11.03442	706.92999	 23.10	
 20.394	 77.868	  8.75290	  5.24609	  2.37950	 10.43758	 -1.48855	 -0.49008	 11.00442	706.84998	 23.10	
 20.403	 82.668	  8.76556	  4.70087	  2.89490	 10.54937	 -1.55396	 -0.46613	 11.01763	706.85101	 23.10	
 20.392	 87.560	  8.77151	  4.14672	  3.43373	 10.59900	 -1.58492	 -0.46129	 11.01994	706.72400	 23.10	
 20.392	 92.440	  8.76765	  3.59197	  3.98118	 10.59260	 -1.58388	 -0.44863	 11.01623	706.83398	 23.10	
 20.403	 97.332	  8.77211	  3.06038	  4.54281	 10.55666	 -1.55759	 -0.43785	 11.02378	706.90900	 23.10	
 20.394	102.132	  8.77199	  2.55028	  5.09737	 10.46233	 -1.50072	 -0.44375	 11.02488	706.92102	 23.10	
 20.398	107.004	  8.76410	  2.04709	  5.65935	 10.30822	 -1.40199	 -0.45531	 11.01711	706.92902	 23.10	
 20.413	111.900	  8.75914	  1.56982	  6.21280	 10.11678	 -1.28223	 -0.45751	 11.02191	706.88098	 23.10	
 20.403	116.741	  8.75034	  1.12610	  6.74683	  9.86555	 -1.12346	 -0.48717	 11.02199	706.91602	 23.10	
 20.400	121.604	  8.74247	  0.69399	  7.27600	  9.57294	 -0.94332	 -0.51800	 11.02701	706.87500	 23.10	
 20.410	126.511	  8.71717	  0.29990	  7.76956	  9.20723	 -0.71181	 -0.53784	 11.00588	706.85901	 23.10	
 20.408	131.372	  8.73660	 -0.04987	  8.26497	  8.83618	 -0.44163	 -0.55367	 11.03276	706.90399	 23.10	
 20.396	136.227	  8.72891	 -0.36427	  8.70508	  8.39952	 -0.13343	 -0.57723	 11.03154	706.88702	 23.10	
 20.392	141.062	  8.72052	 -0.64507	  9.10308	  7.94147	  0.18864	 -0.60384	 11.02632	706.92603	 23.10	
 20.397	145.903	  8.69875	 -0.90006	  9.45810	  7.44372	  0.54341	 -0.61411	 11.01790	706.94397	 23.10	
 20.405	150.835	  8.69293	 -1.12225	  9.78736	  6.91553	  0.94367	 -0.61656	 11.02611	706.79901	 23.10	
 20.401	155.705	  8.68170	 -1.29246	 10.05145	  6.37462	  1.37620	 -0.60769	 11.01895	706.93500	 23.10	
 20.392	160.496	  8.68494	 -1.43903	 10.27799	  5.84511	  1.81693	 -0.60525	 11.03140	706.87903	 23.10	
 20.410	165.423	  8.67251	 -1.55608	 10.44794	  5.27112	  2.30462	 -0.58953	 11.03293	706.76398	 23.10	
 20.407	170.264	  8.64918	 -1.63878	 10.55045	  4.70081	  2.79861	 -0.57547	 11.02167	706.76898	 23.10	
 20.401	175.153	  8.64176	 -1.68802	 10.61814	  4.13876	  3.32136	 -0.57159	 11.02323	706.78802	 23.10	
  0.141	 45.000	 11.03897	  5.85648	  5.74401	  5.69181	  5.94587	  0.09769	 11.02060	706.84998	 23.10	
  4.001	128.691	 11.01309	  4.95434	  6.51184	  6.60181	  4.89874	  0.04123	 11.02026	706.83301	 23.10	
  4.002	 76.995	 11.03023	  6.05111	  5.39999	  6.87108	  4.68436	  0.04257	 11.03513	706.69800	 23.10	
  4.002	 25.892	 11.01970	  6.94086	  4.55369	  6.14207	  5.32879	  0.03949	 11.02915	706.80798	 23.10	
  4.002	-25.892	 11.00418	  6.91210	  4.54095	  4.99708	  6.44637	  0.02366	 11.02487	706.78497	 23.10	
  4.002	-76.995	 10.99570	  5.98191	  5.37684	  4.32633	  7.17410	  0.01077	 11.02838	706.65997	 23.10	
  4.001	-128.691	 11.00623	  4.89917	  6.52403	  4.57821	  6.90162	  0.03548	 11.03829	706.68402	 23.10	
  4.000	180.000	 10.99936	  4.47831	  7.01597	  5.54794	  5.87692	  0.04482	 11.01986	706.81702	 23.10	
  8.000	180.000	 10.76655	  2.92589	  8.21595	  5.28643	  5.59554	 -0.10440	 11.02910	706.87799	 23.10	
  7.991	-152.370	 10.72492	  3.16058	  7.86798	  4.05920	  6.83800	 -0.11795	 11.00347	706.82800	 23.10	
  7.997	-124.550	 10.72382	  3.93179	  6.96224	  3.14840	  7.86597	 -0.12171	 11.02015	706.69000	 23.10	
  8.006	-96.837	 10.72578	  5.08541	  5.72240	  2.74039	  8.35820	 -0.16526	 11.02354	706.71301	 23.10	
  7.988	-69.228	 10.75085	  6.38244	  4.47004	  2.89805	  8.20521	 -0.17117	 11.03390	706.83600	 23.10	
  7.997	-41.563	 10.74954	  7.49431	  3.47056	  3.55645	  7.43877	 -0.14998	 11.01917	706.77100	 23.10	
  8.008	-13.821	 10.77231	  8.16098	  2.93824	  4.66205	  6.25427	 -0.13165	 11.02212	706.65100	 23.10	
  8.008	 13.821	 10.78293	  8.18271	  2.94305	  5.95704	  4.97678	 -0.11666	 11.02076	706.72302	 23.10	
  7.997	 41.563	 10.81300	  7.57723	  3.49372	  7.15388	  3.92577	 -0.10292	 11.03433	706.76398	 23.10	
  7.988	 69.228	 10.83280	  6.48532	  4.49590	  7.94561	  3.26763	 -0.10856	 11.04126	706.80603	 23.10	
  8.006	 96.837	 10.81777	  5.19382	  5.74603	  8.10606	  3.11890	 -0.12454	 11.02812	706.91302	 23.10	
  7.997	124.550	 10.78360	  4.02653	  6.96739	  7.59475	  3.50477	 -0.12264	 10.99915	706.84698	 23.10	
  7.991	152.370	 10.77848	  3.22737	  7.88372	  6.56872	  4.39100	 -0.09443	 11.01633	706.84003	 23.10	
 12.009	161.059	 10.32305	  1.54760	  9.00614	  6.22523	  3.92044	 -0.29961	 11.03208	706.92603	 23.10	
 12.013	142.081	 10.34508	  2.11134	  8.33417	  7.47968	  2.83698	 -0.30715	 11.03053	706.80902	 23.10	
 12.006	123.113	 10.38029	  3.01187	  7.30275	  8.45248	  2.07122	 -0.34655	 11.04350	706.72400	 23.10	
 12.007	104.200	 10.37987	  4.15746	  6.02650	  9.02494	  1.61982	 -0.36617	 11.02877	706.81598	 23.10	
 11.989	 85.301	 10.37481	  5.45574	  4.68795	  9.12825	  1.54009	 -0.35251	 11.01854	706.80200	 23.10	
 12.013	 66.294	 10.40029	  6.79360	  3.45310	  8.80067	  1.82685	 -0.29297	 11.05190	706.80798	 23.10	
 12.012	 47.388	 10.36960	  7.93781	  2.42581	  7.99311	  2.45065	 -0.29222	 11.02828	706.70898	 23.10	
 11.990	 28.440	 10.33241	  8.77319	  1.70578	  6.86264	  3.37887	 -0.32090	 11.01045	706.64203	 23.10	
 11.991	  9.464	 10.34073	  9.22829	  1.34303	  5.57394	  4.56503	 -0.33010	 11.04044	706.73798	 23.10	
 11.991	 -9.464	 10.30724	  9.18410	  1.33755	  4.23091	  5.86568	 -0.32882	 11.01838	706.89001	 23.10	
 11.990	-28.440	 10.30862	  8.71335	  1.69660	  3.02690	  7.16745	 -0.33522	 11.03146	706.75500	 23.10	
 12.012	-47.388	 10.28263	  7.81685	  2.40268	  2.07275	  8.25419	 -0.35974	 11.02439	706.80798	 23.10	
 12.013	-66.294	 10.24455	  6.62447	  3.40680	  1.41585	  9.01620	 -0.39324	 11.01159	706.77698	 23.10	
 11.989	-85.301	 10.23637	  5.30759	  4.64960	  1.14715	  9.35191	 -0.39752	 11.02295	706.88702	 23.10	
 12.007	-104.200	 10.22632	  4.00225	  5.98173	  1.22694	  9.23214	 -0.37295	 11.02577	706.76398	 23.10	
 12.006	-123.113	 10.22685	  2.87380	  7.24630	  1.68398	  8.65969	 -0.31915	 11.02018	706.81299	 23.10	
 12.013	-142.081	 10.24180	  2.01017	  8.30032	  2.49660	  7.69464	 -0.33196	 11.01899	706.69202	 23.10	
 12.009	-161.059	 10.27253	  1.48731	  8.99399	  3.59402	  6.48948	 -0.32407	 11.03093	706.68201	 23.10	
 16.000	180.000	  9.59655	 -0.19603	 10.01594	  4.32429	  4.60482	 -0.52051	 11.01675	706.74402	 23.10	
 15.990	-165.604	  9.56860	 -0.09879	  9.83674	  3.04176	  5.91095	 -0.52118	 11.01716	706.69299	 23.10	
 16.002	-151.165	  9.54297	  0.26020	  9.30284	  1.89065	  7.18948	 -0.52644	 11.01554	706.78003	 23.10	
 16.002	-136.836	  9.51032	  0.87665	  8.43884	  0.93765	  8.32201	 -0.48695	 10.99783	706.67603	 23.10	
 15.995	-122.439	  9.50400	  1.73914	  7.34022	  0.24088	  9.22230	 -0.47541	 10.99911	706.65698	 23.10	
 15.993	-107.966	  9.49083	  2.81445	  6.06339	 -0.21918	  9.82683	 -0.49475	 10.99648	706.75201	 23.10	
 16.005	-93.629	  9.53103	  4.05020	  4.75614	 -0.41848	 10.13500	 -0.48034	 11.03490	706.71802	 23.10	
 15.992	-79.234	  9.53270	  5.36648	  3.45758	 -0.34924	 10.04727	 -0.45077	 11.02065	706.73798	 23.10	
 16.009	-64.774	  9.55733	  6.68707	  2.27780	 -0.02512	  9.62758	 -0.44699	 11.02603	706.57397	 23.10	
 15.997	-50.364	  9.60458	  7.91864	  1.29884	  0.56930	  8.88484	 -0.43574	 11.04282	706.66803	 23.10	
 15.997	-36.045	  9.59394	  8.89029	  0.53999	  1.38916	  7.83804	 -0.42944	 11.00558	706.62201	 23.10	
 16.000	-21.597	  9.62916	  9.62819	  0.03468	  2.44121	  6.63305	 -0.42802	 11.02857	706.64502	 23.10	
 16.003	 -7.169	  9.62592	  9.98960	 -0.21417	  3.67152	  5.29934	 -0.42293	 11.01344	706.63702	 23.10	
 16.003	  7.169	  9.65015	 10.03087	 -0.21242	  4.99677	  4.00731	 -0.40866	 11.03050	706.64697	 23.10	
 16.000	 21.597	  9.66298	  9.70232	  0.04664	  6.33129	  2.80728	 -0.42900	 11.02629	706.65900	 23.10	
 15.997	 36.045	  9.67170	  9.02743	  0.55559	  7.56851	  1.77105	 -0.44417	 11.01363	706.70697	 23.10	
 15.997	 50.364	  9.67602	  8.05843	  1.30522	  8.62068	  0.94121	 -0.43049	 11.00060	706.65100	 23.10	
 16.009	 64.774	  9.68076	  6.87712	  2.29100	  9.39640	  0.36470	 -0.44681	 10.99403	706.70099	 23.10	
 15.992	 79.234	  9.71518	  5.58847	  3.48998	  9.87104	  0.04162	 -0.49960	 11.02277	706.60498	 23.10	
 16.005	 93.629	  9.71253	  4.25506	  4.79414	  9.96190	 -0.03815	 -0.52572	 11.02162	706.59100	 23.10	
 15.993	107.966	  9.70928	  3.01227	  6.12976	  9.68912	  0.16178	 -0.52748	 11.02026	706.53497	 23.10	
 15.995	122.439	  9.69705	  1.90526	  7.40387	  9.07151	  0.60754	 -0.52871	 11.01904	706.58002	 23.10	
 16.002	136.836	  9.69960	  1.00389	  8.52424	  8.16953	  1.29397	 -0.50695	 11.05002	706.62201	 23.10	
 16.002	151.165	  9.66117	  0.35386	  9.34429	  6.98964	  2.22256	 -0.48947	 11.02737	706.62799	 23.10	
 15.990	165.604	  9.62396	 -0.04858	  9.84618	  5.66434	  3.34859	 -0.50465	 11.01163	706.64301	 23.10	
 20.003	168.362	  8.75247	 -1.48214	 10.47397	  4.97445	  2.69104	 -0.59748	 11.02441	707.85303	 23.10	
 20.008	156.764	  8.77588	 -1.20180	 10.07091	  6.28882	  1.57208	 -0.60728	 11.02317	706.70099	 23.10	
 20.000	145.147	  8.81191	 -0.73609	  9.39873	  7.54040	  0.60525	 -0.60755	 11.03933	706.60602	 23.10	
 19.995	133.545	  8.82064	 -0.06601	  8.44833	  8.61749	 -0.17320	 -0.58180	 11.01572	706.82300	 23.10	
 20.009	121.926	  8.83471	  0.78316	  7.32130	  9.51410	 -0.79380	 -0.51943	 11.02019	706.65100	 23.10	
 20.005	110.327	  8.87264	  1.82191	  6.08402	 10.15783	 -1.18957	 -0.47810	 11.04375	706.73798	 23.10	
 19.989	 98.733	  8.85734	  2.99126	  4.76394	 10.47162	 -1.40368	 -0.45696	 11.01194	706.74402	 23.10	
 19.999	 87.075	  8.86543	  4.25594	  3.46574	 10.54849	 -1.44650	 -0.47456	 11.01969	706.75500	 23.10	
 19.992	 75.457	  8.86081	  5.56498	  2.24581	 10.32551	 -1.29372	 -0.50701	 11.00952	706.53302	 23.10	
 20.009	 63.844	  8.84237	  6.83769	  1.14128	  9.82388	 -0.97314	 -0.51421	 11.00311	706.72900	 23.10	
 19.989	 52.269	  8.84856	  8.02735	  0.21719	  9.07047	 -0.46122	 -0.48737	 11.02545	706.70898	 23.10	
 19.999	 40.602	  8.81297	  9.02866	 -0.53039	  8.05213	  0.23794	 -0.43623	 11.01077	706.74402	 23.10	
 20.004	 29.051	  8.79932	  9.82318	 -1.08091	  6.88495	  1.12705	 -0.37935	 11.01500	706.57703	 23.10	
 20.005	 17.433	  8.78094	 10.34860	 -1.44197	  5.60917	  2.16541	 -0.35092	 11.01963	706.70099	 23.10	
 20.006	  5.780	  8.77243	 10.60694	 -1.62864	  4.28935	  3.34601	 -0.34251	 11.03157	706.75201	 23.10	
 20.006	 -5.780	  8.76813	 10.58025	 -1.63428	  3.00619	  4.62355	 -0.34907	 11.02761	706.70203	 23.10	
 20.005	-17.433	  8.75273	 10.27450	 -1.45598	  1.80203	  5.92294	 -0.38158	 11.02029	706.67603	 23.10	
 20.004	-29.051	  8.74729	  9.69924	 -1.10282	  0.74125	  7.17870	 -0.39741	 11.02422	706.76300	 23.10	
 19.999	-40.602	  8.74923	  8.88484	 -0.55535	 -0.13592	  8.32837	 -0.38795	 11.04938	706.55701	 23.10	
 19.989	-52.269	  8.70631	  7.80514	  0.18356	 -0.84494	  9.27905	 -0.36158	 11.02568	706.68701	 23.00	
 20.009	-63.844	  8.67689	  6.59550	  1.10937	 -1.34200	  9.99846	 -0.34441	 11.01812	706.63098	 23.10	
 19.992	-75.457	  8.66822	  5.30742	  2.20697	 -1.66569	 10.48050	 -0.34031	 11.03314	706.56897	 23.10	
 19.999	-87.075	  8.62638	  3.98842	  3.40521	 -1.81209	 10.64962	 -0.35479	 11.00859	706.73199	 23.00	
 19.989	-98.733	  8.62176	  2.73483	  4.70521	 -1.77146	 10.58632	 -0.40408	 11.02175	706.68103	 23.00	
 20.005	-110.327	  8.61023	  1.59209	  6.00660	 -1.54939	 10.23441	 -0.47730	 11.01323	706.62598	 23.00	
 20.009	-121.926	  8.62569	  0.59842	  7.26717	 -1.13792	  9.63188	 -0.54746	 11.03414	706.75201	 23.00	
 19.995	-133.545	  8.63647	 -0.21160	  8.39655	 -0.52167	  8.76702	 -0.56874	 11.03035	706.66699	 23.00	
 20.000	-145.147	  8.64999	 -0.84220	  9.33538	  0.27829	  7.69597	 -0.56027	 11.03043	706.77502	 23.10	
 20.008	-156.764	  8.66470	 -1.28364	 10.03273	  1.26446	  6.48060	 -0.54212	 11.02174	706.63098	 23.00	
 20.003	-168.362	  8.69269	 -1.52558	 10.45109	  2.39872	  5.21064	 -0.54450	 11.02310	706.51599	 23.10	
 20.000	180.000	  8.72863	 -1.57655	 10.59426	  3.65361	  3.93337	 -0.56496	 11.02315	706.56403	 23.10	
