FileType=PCF
NHL=14
Date=08/30/17	14:46:37
Facility=APL
Serial=16328-19
Customer=NASA
NP=6
Mach=0.150000
Calibration=1:1
CalPts=490
TstPts=95
PortNumbering=AP Standard
Units=Torr C m/s kg/m^3 deg mm 
Theta[deg]	Phi[deg]	P1[Torr]	P2[Torr]	P3[Torr]	P4[Torr]	P5[Torr]	P6[Torr]	Pt[Torr]	Ps[Abs,Torr]	Ts[C]	
  0.000	  0.000	 11.21217	  5.82664	  5.82924	  5.76810	  6.09939	  0.08718	 11.20555	703.86102	 23.70	
  1.691	128.401	 11.22253	  5.48741	  6.16148	  6.20232	  5.66568	  0.09146	 11.21842	703.83899	 23.70	
  1.692	 77.194	 11.21148	  5.94764	  5.69463	  6.30664	  5.56158	  0.09039	 11.21035	703.83398	 23.70	
  1.699	 26.182	 11.22261	  6.33505	  5.32637	  6.01145	  5.84293	  0.08293	 11.21855	705.47198	 23.70	
  1.699	-26.182	 11.21980	  6.32371	  5.32057	  5.51728	  6.32696	  0.07581	 11.21748	703.90399	 23.70	
  1.692	-77.194	 11.23473	  5.92848	  5.70325	  5.24638	  6.62340	  0.06944	 11.23706	703.92902	 23.70	
  1.691	-128.401	 11.21242	  5.46606	  6.15306	  5.33600	  6.50727	  0.07727	 11.21273	703.89502	 23.70	
  1.700	180.000	 11.24350	  5.27261	  6.39515	  5.77882	  6.09502	  0.08359	 11.24311	704.13397	 23.70	
  3.400	180.000	 11.19774	  4.68683	  6.90635	  5.69184	  6.03371	  0.05572	 11.21628	703.95099	 23.70	
  3.388	-152.325	 11.19513	  4.77917	  6.78130	  5.19607	  6.55260	  0.05934	 11.21967	704.73901	 23.70	
  3.397	-124.529	 11.18084	  5.10037	  6.39782	  4.79966	  6.94951	  0.03711	 11.20975	704.83002	 23.70	
  3.399	-96.763	 11.19028	  5.59036	  5.87569	  4.61940	  7.16331	  0.02114	 11.22220	703.92102	 23.70	
  3.394	-69.283	 11.18534	  6.12298	  5.34530	  4.68583	  7.08737	  0.02837	 11.21668	703.81403	 23.70	
  3.400	-41.398	 11.20597	  6.61527	  4.93204	  4.96766	  6.77172	  0.02729	 11.22581	703.77100	 23.70	
  3.401	-14.021	 11.20539	  6.88312	  4.70634	  5.40844	  6.30652	  0.03453	 11.22487	703.75702	 23.70	
  3.401	 14.021	 11.22172	  6.92197	  4.71335	  5.97921	  5.75726	  0.04934	 11.23529	703.98602	 23.70	
  3.400	 41.398	 11.20807	  6.64006	  4.94602	  6.46359	  5.30778	  0.04577	 11.21391	703.75702	 23.70	
  3.394	 69.283	 11.20917	  6.19501	  5.35070	  6.78345	  5.03594	  0.05267	 11.21121	704.75098	 23.70	
  3.399	 96.763	 11.21858	  5.65506	  5.89376	  6.85548	  4.98511	  0.05907	 11.22206	705.37500	 23.70	
  3.397	124.529	 11.21683	  5.16449	  6.40106	  6.65687	  5.15704	  0.05861	 11.21657	703.91602	 23.70	
  3.388	152.325	 11.20346	  4.81231	  6.77031	  6.23381	  5.51860	  0.05732	 11.21791	703.90100	 23.70	
  5.099	161.165	 11.16324	  4.12893	  7.35943	  6.18706	  5.40431	  0.02001	 11.22636	703.77197	 23.70	
  5.109	142.013	 11.15914	  4.38451	  7.06352	  6.70432	  4.93126	  0.01945	 11.21731	703.93298	 23.80	
  5.095	123.033	 11.19271	  4.79547	  6.63248	  7.11706	  4.60821	  0.01746	 11.23791	703.93298	 23.80	
  5.105	104.191	 11.16793	  5.28026	  6.08313	  7.34615	  4.39142	  0.01326	 11.21364	703.93298	 23.80	
  5.093	 85.207	 11.18001	  5.84711	  5.53055	  7.39446	  4.35957	  0.01511	 11.22216	704.60498	 23.80	
  5.104	 66.290	 11.18945	  6.41895	  4.98885	  7.24802	  4.48155	  0.01201	 11.23287	704.09900	 23.80	
  5.094	 47.331	 11.16389	  6.90103	  4.53717	  6.90222	  4.74549	  0.01276	 11.21269	704.45300	 23.80	
  5.089	 28.397	 11.16202	  7.26680	  4.22083	  6.43640	  5.14791	 -0.00104	 11.22243	704.54199	 23.80	
  5.096	  9.576	 11.15564	  7.44750	  4.05893	  5.88627	  5.65716	 -0.00618	 11.21684	703.90399	 23.80	
  5.096	 -9.576	 11.14954	  7.44144	  4.05837	  5.30601	  6.22899	 -0.01282	 11.22575	703.98798	 23.80	
  5.089	-28.397	 11.13253	  7.21918	  4.22155	  4.79617	  6.75709	 -0.02634	 11.21286	703.88800	 23.80	
  5.094	-47.331	 11.14040	  6.84943	  4.54548	  4.38395	  7.22799	 -0.02928	 11.23157	703.84998	 23.80	
  5.104	-66.290	 11.13215	  6.35324	  4.97621	  4.09635	  7.55995	 -0.03711	 11.23277	704.96997	 23.80	
  5.093	-85.207	 11.12922	  5.78590	  5.51614	  3.97216	  7.70332	 -0.03333	 11.23136	704.40503	 23.80	
  5.105	-104.191	 11.12760	  5.21864	  6.08515	  4.01554	  7.65978	 -0.01847	 11.23184	704.79602	 23.80	
  5.095	-123.033	 11.12512	  4.72359	  6.62176	  4.22638	  7.40925	 -0.00902	 11.22665	704.00800	 23.80	
  5.109	-142.013	 11.13861	  4.33993	  7.07070	  4.58575	  7.01551	  0.00403	 11.23264	703.96002	 23.80	
  5.099	-161.165	 11.14625	  4.10628	  7.35435	  5.07207	  6.49994	  0.01208	 11.23029	703.85400	 23.80	
  5.100	180.000	 11.16061	  4.04477	  7.46078	  5.62144	  5.94544	  0.01727	 11.23606	704.17200	 23.80	
  6.800	180.000	 11.05509	  3.39215	  7.96901	  5.51526	  5.83555	 -0.04426	 11.22925	705.40601	 23.80	
  6.796	-166.229	 11.03761	  3.41946	  7.90485	  4.96420	  6.37490	 -0.05897	 11.22746	704.03003	 23.80	
  6.808	-152.311	 11.03781	  3.58949	  7.69416	  4.47588	  6.90740	 -0.06180	 11.23817	703.94702	 23.80	
  6.795	-138.383	 11.01696	  3.86991	  7.34150	  4.02831	  7.38604	 -0.06115	 11.22561	703.94098	 23.80	
  6.792	-124.591	 11.01138	  4.24919	  6.90057	  3.68135	  7.77993	 -0.07596	 11.23198	704.00299	 23.80	
  6.787	-110.754	 11.01679	  4.71925	  6.39147	  3.45427	  8.05126	 -0.08647	 11.23997	704.04498	 23.80	
  6.800	-96.985	 11.02448	  5.23872	  5.84656	  3.33345	  8.20011	 -0.10781	 11.24806	704.01300	 23.80	
  6.800	-83.015	 10.99282	  5.79376	  5.26172	  3.31637	  8.18409	 -0.12030	 11.21752	705.70203	 23.80	
  6.787	-69.246	 11.01976	  6.35511	  4.75822	  3.44841	  8.05135	 -0.12609	 11.23641	704.89398	 23.80	
  6.792	-55.409	 11.01345	  6.86330	  4.28481	  3.66944	  7.78000	 -0.11516	 11.22041	704.12402	 23.80	
  6.795	-41.617	 11.03237	  7.32228	  3.90763	  4.01440	  7.39680	 -0.10617	 11.23305	704.08197	 23.80	
  6.808	-27.689	 11.03875	  7.68373	  3.61456	  4.43912	  6.91678	 -0.10180	 11.22838	703.97803	 23.80	
  6.796	-13.771	 11.06488	  7.91330	  3.44925	  4.95034	  6.39772	 -0.08502	 11.24344	703.97498	 23.80	
  6.800	  0.000	 11.07398	  8.00359	  3.39041	  5.49428	  5.84545	 -0.07811	 11.24414	704.20300	 23.80	
  6.796	 13.771	 11.07741	  7.94520	  3.44320	  6.05304	  5.30072	 -0.07235	 11.23593	704.07001	 23.80	
  6.808	 27.689	 11.07406	  7.73193	  3.61362	  6.58800	  4.80786	 -0.06341	 11.22330	704.05103	 23.80	
  6.795	 41.617	 11.09237	  7.39827	  3.91696	  7.08022	  4.39325	 -0.04814	 11.22886	704.00500	 23.80	
  6.792	 55.409	 11.08804	  6.95582	  4.29723	  7.47113	  4.06339	 -0.04965	 11.21661	703.96802	 23.80	
  6.787	 69.246	 11.11661	  6.46178	  4.76878	  7.77058	  3.84754	 -0.04585	 11.24128	704.12598	 23.80	
  6.800	 83.015	 11.11480	  5.91320	  5.28169	  7.91628	  3.72704	 -0.05529	 11.23860	704.10400	 23.80	
  6.800	 96.985	 11.09787	  5.34033	  5.83215	  7.91619	  3.72507	 -0.05396	 11.22921	704.65802	 23.80	
  6.787	110.754	 11.10627	  4.81357	  6.39439	  7.77577	  3.84798	 -0.05514	 11.23735	704.05103	 23.80	
  6.792	124.591	 11.09854	  4.33893	  6.91336	  7.49716	  4.07024	 -0.04902	 11.23501	704.04401	 23.80	
  6.795	138.383	 11.09982	  3.95287	  7.34744	  7.10231	  4.41138	 -0.04245	 11.23995	704.16498	 23.80	
  6.808	152.311	 11.09661	  3.64189	  7.70827	  6.62871	  4.82343	 -0.04081	 11.25128	704.01599	 23.80	
  6.796	166.229	 11.07074	  3.45914	  7.90529	  6.07586	  5.30435	 -0.04294	 11.23338	703.94397	 23.80	
  8.491	168.704	 10.92393	  2.79210	  8.39107	  5.96327	  5.14305	 -0.11112	 11.22920	703.96399	 23.80	
  8.502	157.493	 10.93264	  2.94048	  8.21733	  6.51219	  4.63986	 -0.11989	 11.22766	704.07599	 23.80	
  8.494	146.194	 10.95061	  3.18628	  7.93519	  7.04261	  4.18925	 -0.13068	 11.23088	704.09601	 23.80	
  8.495	135.039	 10.96057	  3.52625	  7.54412	  7.51175	  3.79942	 -0.12204	 11.23120	703.98199	 23.80	
  8.487	123.723	 10.98216	  3.94682	  7.07952	  7.91428	  3.48693	 -0.13296	 11.24540	703.90900	 23.80	
  8.492	112.575	 10.96585	  4.40077	  6.55354	  8.17777	  3.26001	 -0.14256	 11.22040	704.14899	 23.80	
  8.510	101.220	 10.97167	  4.93461	  5.98677	  8.35827	  3.11253	 -0.15065	 11.22415	704.12299	 23.80	
  8.500	 90.000	 11.00458	  5.51359	  5.43641	  8.43632	  3.06670	 -0.13734	 11.25328	704.04498	 23.80	
  8.510	 78.780	 10.98130	  6.06880	  4.86592	  8.35958	  3.10560	 -0.12577	 11.23120	704.09900	 23.80	
  8.492	 67.425	 10.99146	  6.63694	  4.35033	  8.17725	  3.25306	 -0.12702	 11.24316	704.04700	 23.80	
  8.487	 56.277	 10.98362	  7.15837	  3.88070	  7.88120	  3.47933	 -0.12398	 11.24097	704.08197	 23.80	
  8.495	 44.961	 10.96282	  7.60672	  3.47222	  7.48485	  3.78053	 -0.12039	 11.22865	704.08197	 23.80	
  8.494	 33.806	 10.96577	  7.99698	  3.14847	  7.02194	  4.17809	 -0.13152	 11.24181	704.11798	 23.80	
  8.502	 22.507	 10.94750	  8.27124	  2.90507	  6.48880	  4.62985	 -0.15160	 11.23513	704.23901	 23.80	
  8.491	 11.296	 10.95300	  8.44144	  2.77408	  5.94077	  5.14819	 -0.15585	 11.24640	704.02197	 23.90	
  8.500	  0.000	 10.92655	  8.48998	  2.70340	  5.35025	  5.69045	 -0.15864	 11.23500	704.10400	 23.90	
  8.491	-11.296	 10.91885	  8.41244	  2.76048	  4.78558	  6.26350	 -0.16786	 11.23611	704.04498	 23.90	
  8.502	-22.507	 10.91920	  8.24295	  2.89591	  4.27664	  6.81220	 -0.18030	 11.25223	703.97998	 23.90	
  8.494	-33.806	 10.88384	  7.91278	  3.13127	  3.77910	  7.32694	 -0.18667	 11.22588	704.01099	 23.80	
  8.495	-44.961	 10.88729	  7.52835	  3.44938	  3.38685	  7.79238	 -0.19544	 11.24188	703.90601	 23.90	
  8.487	-56.277	 10.88142	  7.04023	  3.87034	  3.07708	  8.16102	 -0.20759	 11.23844	704.01599	 23.90	
  8.492	-67.425	 10.85852	  6.51560	  4.31470	  2.83722	  8.42760	 -0.22685	 11.22019	703.92603	 23.90	
  8.510	-78.780	 10.87107	  5.95598	  4.85115	  2.69158	  8.62012	 -0.22881	 11.24829	703.98602	 23.90	
  8.500	-90.000	 10.87532	  5.38081	  5.41878	  2.65775	  8.67834	 -0.20838	 11.25037	704.01599	 23.90	
  8.510	-101.220	 10.84433	  4.80058	  5.97565	  2.68590	  8.60534	 -0.19064	 11.22310	704.07599	 23.90	
  8.492	-112.575	 10.86004	  4.28577	  6.54503	  2.83797	  8.44086	 -0.16839	 11.23432	704.05902	 23.90	
  8.487	-123.723	 10.85944	  3.83231	  7.05466	  3.07907	  8.15408	 -0.15695	 11.23020	704.11200	 23.90	
  8.495	-135.039	 10.86257	  3.42508	  7.53112	  3.39876	  7.77890	 -0.14261	 11.22595	704.05902	 23.90	
  8.494	-146.194	 10.88002	  3.11114	  7.92180	  3.80333	  7.33774	 -0.13145	 11.23870	704.05402	 23.90	
  8.502	-157.493	 10.87945	  2.88166	  8.20994	  4.29264	  6.79304	 -0.13590	 11.22508	704.20801	 23.90	
  8.491	-168.704	 10.91395	  2.76548	  8.39748	  4.82341	  6.26720	 -0.13611	 11.24738	704.08398	 23.90	
  8.500	180.000	 10.90525	  2.72721	  8.44598	  5.37225	  5.69448	 -0.12673	 11.22293	704.19299	 23.90	
 10.200	180.000	 10.72411	  2.03959	  8.89712	  5.20862	  5.52165	 -0.22080	 11.22731	704.11499	 23.90	
 10.191	-170.497	 10.71780	  2.06478	  8.86076	  4.64542	  6.08990	 -0.22711	 11.24217	704.20300	 23.90	
 10.210	-161.034	 10.70876	  2.16412	  8.71106	  4.10330	  6.65786	 -0.23385	 11.24568	704.14899	 23.90	
 10.194	-151.526	 10.70848	  2.35818	  8.46746	  3.60465	  7.20195	 -0.22694	 11.25599	703.95697	 23.90	
 10.190	-142.105	 10.67007	  2.61709	  8.10802	  3.15090	  7.68236	 -0.21653	 11.23267	704.02002	 23.90	
 10.215	-132.646	 10.67109	  2.94777	  7.70079	  2.76085	  8.14267	 -0.23600	 11.24380	704.03101	 23.90	
 10.203	-123.092	 10.64562	  3.35567	  7.19356	  2.44543	  8.49959	 -0.23890	 11.22445	704.14801	 23.90	
 10.192	-113.678	 10.64481	  3.82774	  6.66461	  2.21462	  8.78677	 -0.25361	 11.22372	704.20001	 23.90	
 10.208	-104.249	 10.63931	  4.33882	  6.09956	  2.03798	  8.99009	 -0.27598	 11.22376	704.03699	 23.90	
 10.210	-94.801	 10.63829	  4.88751	  5.52636	  1.95490	  9.09319	 -0.30233	 11.22602	704.02301	 23.90	
 10.210	-85.199	 10.67774	  5.49048	  4.95369	  1.95603	  9.12924	 -0.32949	 11.26329	703.95099	 23.90	
 10.208	-75.751	 10.65609	  6.05913	  4.39265	  2.03660	  9.00302	 -0.32901	 11.23325	704.11798	 23.90	
 10.192	-66.322	 10.66370	  6.62128	  3.88695	  2.19729	  8.80241	 -0.32592	 11.22957	704.11298	 23.90	
 10.203	-56.908	 10.66417	  7.15871	  3.40772	  2.43288	  8.51174	 -0.31100	 11.22201	704.08502	 23.90	
 10.215	-47.354	 10.68918	  7.67343	  2.99662	  2.74303	  8.15050	 -0.28853	 11.23732	703.93298	 23.90	
 10.190	-37.895	 10.68415	  8.07940	  2.65435	  3.11396	  7.71038	 -0.27496	 11.22419	703.98901	 23.90	
 10.194	-28.474	 10.69973	  8.42525	  2.39347	  3.56445	  7.19531	 -0.27926	 11.22373	703.91901	 23.90	
 10.210	-18.966	 10.70238	  8.68947	  2.18595	  4.05721	  6.65574	 -0.26461	 11.21660	704.00500	 23.90	
 10.191	 -9.503	 10.72207	  8.85455	  2.07605	  4.60575	  6.09411	 -0.24262	 11.22109	703.95502	 23.90	
 10.200	  0.000	 10.74164	  8.93731	  2.03405	  5.17867	  5.51971	 -0.23855	 11.23027	703.96301	 23.90	
 10.191	  9.503	 10.75362	  8.89576	  2.07116	  5.76145	  4.96686	 -0.25079	 11.23374	704.02002	 23.90	
 10.210	 18.966	 10.75531	  8.75417	  2.18983	  6.32582	  4.44088	 -0.24878	 11.22114	704.06500	 23.90	
 10.194	 28.474	 10.79184	  8.52679	  2.39725	  6.89972	  3.95763	 -0.23856	 11.25108	704.16302	 23.90	
 10.190	 37.895	 10.78389	  8.18957	  2.66813	  7.40310	  3.51923	 -0.21227	 11.23152	704.11798	 24.00	
 10.215	 47.354	 10.78744	  7.78044	  3.00150	  7.85839	  3.14697	 -0.20411	 11.22987	704.20001	 23.90	
 10.203	 56.908	 10.80051	  7.30374	  3.42145	  8.24508	  2.84744	 -0.20634	 11.22934	704.14899	 23.90	
 10.192	 66.322	 10.81338	  6.77261	  3.89864	  8.54846	  2.62945	 -0.20691	 11.23647	704.12299	 24.00	
 10.208	 75.751	 10.81126	  6.21348	  4.40165	  8.75420	  2.47262	 -0.21465	 11.22926	704.02802	 24.00	
 10.210	 85.199	 10.81573	  5.64386	  4.95746	  8.86307	  2.38890	 -0.23540	 11.23685	703.99597	 24.00	
 10.210	 94.801	 10.81863	  5.04836	  5.55157	  8.87411	  2.39616	 -0.25209	 11.24139	704.12097	 24.00	
 10.208	104.249	 10.79843	  4.49173	  6.11463	  8.75353	  2.47920	 -0.25216	 11.22004	703.99103	 24.00	
 10.192	113.678	 10.82501	  3.98921	  6.68921	  8.57549	  2.65409	 -0.24485	 11.25207	704.14600	 24.00	
 10.203	123.092	 10.80953	  3.50761	  7.21414	  8.28585	  2.87144	 -0.22427	 11.24827	704.11798	 24.00	
 10.215	132.646	 10.79572	  3.06707	  7.70936	  7.90844	  3.15696	 -0.21440	 11.24332	704.09302	 24.00	
 10.190	142.105	 10.77790	  2.72816	  8.10749	  7.43629	  3.53885	 -0.20839	 11.22766	704.03900	 24.00	
 10.194	151.526	 10.77976	  2.44243	  8.45948	  6.93204	  3.97545	 -0.20789	 11.23983	704.19397	 24.00	
 10.210	161.034	 10.75132	  2.22010	  8.70573	  6.37097	  4.44471	 -0.20615	 11.23065	704.14899	 24.00	
 10.191	170.497	 10.74893	  2.10666	  8.85074	  5.80841	  4.96671	 -0.20187	 11.23348	704.16101	 24.00	
 11.899	171.783	 10.50785	  1.41735	  9.26191	  5.60759	  4.75869	 -0.29780	 11.21520	704.21899	 24.00	
 11.890	163.610	 10.52219	  1.51657	  9.14284	  6.18415	  4.22774	 -0.29758	 11.22253	704.16803	 24.00	
 11.889	155.445	 10.56124	  1.70515	  8.94734	  6.76213	  3.75096	 -0.29411	 11.25521	704.23700	 24.00	
 11.909	147.299	 10.56550	  1.93804	  8.64373	  7.30426	  3.28831	 -0.29410	 11.24565	704.15198	 24.00	
 11.902	139.148	 10.56755	  2.25253	  8.25675	  7.78963	  2.88918	 -0.29742	 11.23185	704.22400	 24.00	
 11.894	130.867	 10.56582	  2.62239	  7.80905	  8.22111	  2.53947	 -0.30515	 11.21585	704.10901	 24.00	
 11.897	122.732	 10.58313	  3.04568	  7.32040	  8.60698	  2.24756	 -0.32143	 11.23009	704.19397	 24.00	
 11.903	114.597	 10.60231	  3.52343	  6.79099	  8.91711	  2.02435	 -0.33857	 11.23983	704.19897	 24.00	
 11.893	106.346	 10.60361	  4.04296	  6.21893	  9.12633	  1.86249	 -0.35639	 11.23770	704.28101	 24.00	
 11.892	 98.155	 10.61501	  4.59407	  5.64034	  9.25639	  1.77188	 -0.35524	 11.24125	704.20300	 24.00	
 11.900	 90.000	 10.60981	  5.16001	  5.06189	  9.28932	  1.73362	 -0.34379	 11.23325	704.23901	 24.00	
 11.892	 81.845	 10.60509	  5.73655	  4.49247	  9.24630	  1.75918	 -0.31586	 11.23253	704.21100	 24.00	
 11.893	 73.654	 10.60948	  6.31995	  3.94900	  9.10778	  1.86115	 -0.29986	 11.23554	704.25800	 24.00	
 11.903	 65.403	 10.60642	  6.89421	  3.43555	  8.87537	  2.02488	 -0.28716	 11.23678	704.25500	 24.00	
 11.897	 57.268	 10.60769	  7.43428	  2.97728	  8.57384	  2.25102	 -0.28078	 11.24521	704.26703	 24.00	
 11.894	 49.133	 10.60310	  7.91517	  2.56276	  8.19049	  2.55271	 -0.28571	 11.24767	704.21399	 24.00	
 11.902	 40.852	 10.58717	  8.34957	  2.19947	  7.74624	  2.88085	 -0.29257	 11.24123	704.28900	 24.00	
 11.909	 32.701	 10.57048	  8.70887	  1.89716	  7.25090	  3.27938	 -0.32084	 11.24311	704.17700	 24.00	
 11.889	 24.555	 10.56523	  8.98958	  1.67929	  6.70519	  3.75783	 -0.33310	 11.23887	704.19897	 24.00	
 11.890	 16.390	 10.55667	  9.20358	  1.50968	  6.14624	  4.24240	 -0.34276	 11.24241	704.15698	 24.00	
 11.899	  8.217	 10.51800	  9.31065	  1.39352	  5.56274	  4.75372	 -0.33744	 11.22157	704.15399	 24.00	
 11.900	  0.000	 10.51343	  9.34117	  1.36426	  4.97472	  5.33003	 -0.32744	 11.22622	704.18597	 24.00	
 11.899	 -8.217	 10.51982	  9.31343	  1.39108	  4.41711	  5.89563	 -0.33262	 11.25076	704.23901	 24.00	
 11.890	-16.390	 10.49307	  9.13900	  1.49261	  3.86763	  6.46393	 -0.33913	 11.23309	704.18500	 24.00	
 11.889	-24.555	 10.47088	  8.90138	  1.65750	  3.34420	  7.02288	 -0.34908	 11.22527	704.31201	 24.00	
 11.909	-32.701	 10.48529	  8.61292	  1.89519	  2.89508	  7.55068	 -0.35253	 11.24417	704.30902	 24.00	
 11.902	-40.852	 10.46949	  8.22439	  2.18478	  2.48614	  8.02636	 -0.35845	 11.23868	704.23700	 24.00	
 11.894	-49.133	 10.44268	  7.75789	  2.54002	  2.11196	  8.45981	 -0.37906	 11.22482	704.15198	 24.00	
 11.897	-57.268	 10.43279	  7.25519	  2.95110	  1.81829	  8.82002	 -0.39188	 11.22196	704.32703	 24.00	
 11.903	-65.403	 10.43121	  6.72153	  3.40842	  1.57456	  9.12479	 -0.41304	 11.23033	704.20203	 24.00	
 11.893	-73.654	 10.43635	  6.15009	  3.93049	  1.42103	  9.34171	 -0.42014	 11.24501	704.32098	 24.00	
 11.892	-81.845	 10.42860	  5.57279	  4.47268	  1.33321	  9.45660	 -0.41750	 11.23584	704.15698	 24.00	
 11.900	-90.000	 10.41339	  4.98597	  5.02729	  1.29134	  9.49616	 -0.41620	 11.22949	704.11298	 24.00	
 11.892	-98.155	 10.41534	  4.41090	  5.61798	  1.31393	  9.46999	 -0.39414	 11.24096	704.18500	 24.00	
 11.893	-106.346	 10.39891	  3.86153	  6.18478	  1.41983	  9.32091	 -0.36374	 11.22268	704.09003	 23.90	
 11.903	-114.597	 10.41681	  3.35170	  6.77089	  1.57801	  9.12432	 -0.33977	 11.24196	704.09302	 23.90	
 11.897	-122.732	 10.41883	  2.89579	  7.29626	  1.81861	  8.82251	 -0.32702	 11.23634	704.13000	 23.90	
 11.894	-130.867	 10.40939	  2.47917	  7.78467	  2.12705	  8.44272	 -0.31026	 11.22016	704.21600	 23.90	
 11.902	-139.148	 10.42215	  2.13058	  8.23363	  2.48856	  8.01177	 -0.30869	 11.22410	704.28601	 23.90	
 11.909	-147.299	 10.45336	  1.84945	  8.62142	  2.90966	  7.54562	 -0.32925	 11.24300	704.24103	 23.90	
 11.889	-155.445	 10.44947	  1.64295	  8.89998	  3.38458	  7.00713	 -0.32159	 11.22116	704.25000	 23.90	
 11.890	-163.610	 10.46888	  1.47825	  9.13358	  3.90037	  6.45029	 -0.32892	 11.22689	704.26202	 23.90	
 11.899	-171.783	 10.49946	  1.39218	  9.28138	  4.44803	  5.90045	 -0.32682	 11.24419	704.27002	 23.90	
 11.900	180.000	 10.51101	  1.36869	  9.32619	  5.01913	  5.33430	 -0.31084	 11.24021	704.35797	 23.90	
 13.600	180.000	 10.24334	  0.69620	  9.70640	  4.80453	  5.10244	 -0.40235	 11.24039	704.25598	 23.90	
 13.608	-172.853	 10.21301	  0.70141	  9.66116	  4.22653	  5.65708	 -0.41587	 11.23182	704.22998	 23.90	
 13.611	-165.583	 10.20735	  0.78030	  9.54841	  3.66647	  6.23808	 -0.42870	 11.24145	704.31403	 23.90	
 13.601	-158.353	 10.18463	  0.91866	  9.33309	  3.13793	  6.79672	 -0.42689	 11.22913	704.33698	 23.90	
 13.609	-151.210	 10.16553	  1.09654	  9.06876	  2.65953	  7.32741	 -0.41367	 11.22525	704.17102	 23.90	
 13.611	-143.999	 10.14076	  1.33784	  8.71780	  2.21993	  7.81943	 -0.40629	 11.21172	704.24799	 23.90	
 13.601	-136.825	 10.15020	  1.64755	  8.32522	  1.82928	  8.31348	 -0.39430	 11.23727	704.29602	 23.90	
 13.596	-129.640	 10.13182	  1.99224	  7.86615	  1.47724	  8.73392	 -0.39128	 11.23387	704.23297	 23.90	
 13.611	-122.431	 10.12296	  2.40720	  7.35198	  1.19165	  9.09182	 -0.39568	 11.22307	704.31403	 23.90	
 13.604	-115.211	 10.12424	  2.87463	  6.80955	  0.96923	  9.38617	 -0.41873	 11.22667	704.17999	 23.90	
 13.595	-108.042	 10.11761	  3.34459	  6.25672	  0.78969	  9.61656	 -0.43898	 11.22665	704.28198	 23.90	
 13.607	-100.793	 10.11898	  3.88867	  5.67289	  0.66697	  9.77463	 -0.46788	 11.22924	704.32898	 23.90	
 13.601	-93.617	 10.13607	  4.45415	  5.09619	  0.62171	  9.86083	 -0.47803	 11.24371	704.25897	 23.90	
 13.601	-86.383	 10.14863	  5.04027	  4.52107	  0.62111	  9.87242	 -0.47850	 11.25524	704.24103	 23.90	
 13.607	-79.207	 10.15043	  5.62316	  3.96511	  0.67585	  9.79133	 -0.47077	 11.24668	704.24701	 23.90	
 13.595	-71.958	 10.14831	  6.20727	  3.42505	  0.78575	  9.63827	 -0.46759	 11.23678	704.24402	 23.90	
 13.604	-64.789	 10.14176	  6.76706	  2.92480	  0.94753	  9.40427	 -0.45675	 11.22009	704.32599	 23.90	
 13.611	-57.569	 10.16217	  7.31121	  2.47484	  1.16978	  9.13398	 -0.44940	 11.23847	704.18298	 23.80	
 13.596	-50.360	 10.18226	  7.83350	  2.06549	  1.44898	  8.78366	 -0.43330	 11.25332	704.17700	 23.80	
 13.601	-43.175	 10.18823	  8.29406	  1.71028	  1.79705	  8.35123	 -0.41522	 11.23977	704.15997	 23.80	
 13.611	-36.001	 10.20278	  8.71279	  1.39843	  2.19093	  7.87987	 -0.41087	 11.24736	704.17999	 23.80	
 13.609	-28.790	 10.21328	  9.06313	  1.14831	  2.62907	  7.36167	 -0.40757	 11.24356	704.25800	 23.80	
 13.601	-21.647	 10.20603	  9.32443	  0.95074	  3.09868	  6.81372	 -0.40186	 11.22002	704.23401	 23.80	
 13.611	-14.417	 10.21908	  9.53504	  0.80575	  3.62254	  6.24229	 -0.39553	 11.22222	704.32898	 23.80	
 13.608	 -7.147	 10.24238	  9.67618	  0.71934	  4.17887	  5.67038	 -0.39370	 11.23689	704.28900	 23.80	
 13.600	  0.000	 10.25611	  9.72161	  0.70227	  4.74799	  5.10586	 -0.39445	 11.23318	704.23401	 23.80	
 13.608	  7.147	 10.26994	  9.71185	  0.72245	  5.33389	  4.53957	 -0.40644	 11.24400	704.25500	 23.80	
 13.611	 14.417	 10.26958	  9.59406	  0.80331	  5.90363	  4.00483	 -0.41796	 11.22961	704.16498	 23.80	
 13.601	 21.647	 10.27808	  9.39818	  0.95928	  6.48411	  3.48845	 -0.41795	 11.22140	704.16302	 23.80	
 13.609	 28.790	 10.30273	  9.15728	  1.15185	  7.04836	  3.02305	 -0.40852	 11.23955	704.20001	 23.80	
 13.611	 36.001	 10.30651	  8.83108	  1.40260	  7.56299	  2.59702	 -0.38933	 11.22824	704.26501	 23.80	
 13.601	 43.175	 10.32152	  8.45090	  1.71322	  8.04309	  2.22445	 -0.36663	 11.23530	704.26501	 23.80	
 13.596	 50.360	 10.33356	  8.00675	  2.07004	  8.48909	  1.89293	 -0.35960	 11.24321	704.20801	 23.80	
 13.611	 57.569	 10.33887	  7.50488	  2.48042	  8.87117	  1.60485	 -0.35973	 11.23532	704.27802	 23.80	
 13.604	 64.789	 10.35633	  6.97295	  2.94990	  9.18845	  1.39207	 -0.36274	 11.24570	704.20001	 23.80	
 13.595	 71.958	 10.34726	  6.40139	  3.43951	  9.41530	  1.22730	 -0.37633	 11.23160	704.24799	 23.80	
 13.607	 79.207	 10.34737	  5.82598	  3.96688	  9.58017	  1.11142	 -0.39714	 11.22898	704.29602	 23.80	
 13.601	 86.383	 10.36222	  5.25364	  4.53197	  9.66951	  1.06608	 -0.42391	 11.24297	704.37402	 23.80	
 13.601	 93.617	 10.36263	  4.66909	  5.11373	  9.67846	  1.06716	 -0.44237	 11.24190	704.19598	 23.80	
 13.607	100.793	 10.36808	  4.10674	  5.69830	  9.61212	  1.12634	 -0.44509	 11.25179	704.33398	 23.70	
 13.595	108.042	 10.35669	  3.56305	  6.28562	  9.44975	  1.23904	 -0.44125	 11.24252	704.35498	 23.70	
 13.604	115.211	 10.35331	  3.06291	  6.84853	  9.22878	  1.40250	 -0.43446	 11.24759	704.38501	 23.70	
 13.611	122.431	 10.34443	  2.58729	  7.39186	  8.92336	  1.62538	 -0.41192	 11.24642	704.43402	 23.70	
 13.596	129.640	 10.32871	  2.16005	  7.89720	  8.54755	  1.90313	 -0.39740	 11.24252	704.39099	 23.70	
 13.601	136.825	 10.32208	  1.79340	  8.34671	  8.10542	  2.24853	 -0.37806	 11.23397	704.49799	 23.70	
 13.611	143.999	 10.30785	  1.46762	  8.74668	  7.63733	  2.60570	 -0.38603	 11.23604	704.43597	 23.70	
 13.609	151.210	 10.30208	  1.20022	  9.09144	  7.11431	  3.03684	 -0.38078	 11.23851	704.42200	 23.70	
 13.601	158.353	 10.28718	  0.98849	  9.35816	  6.55909	  3.50132	 -0.38725	 11.24055	704.36603	 23.70	
 13.611	165.583	 10.27000	  0.82926	  9.55175	  5.97137	  4.01086	 -0.39071	 11.23970	704.44202	 23.70	
 13.608	172.853	 10.24052	  0.73558	  9.65023	  5.37666	  4.54416	 -0.39527	 11.22269	704.32599	 23.70	
 15.298	173.587	  9.95720	  0.07988	 10.00439	  5.14536	  4.29360	 -0.47580	 11.24176	704.27502	 23.70	
 15.291	167.167	  9.96070	  0.15465	  9.90263	  5.71517	  3.76471	 -0.46404	 11.23161	704.37402	 23.70	
 15.307	160.676	  9.97659	  0.29086	  9.72712	  6.30710	  3.24346	 -0.46621	 11.22999	704.35699	 23.70	
 15.300	154.261	  9.98483	  0.46742	  9.48462	  6.86967	  2.76794	 -0.46408	 11.23169	704.45203	 23.70	
 15.288	147.854	 10.00074	  0.70962	  9.17362	  7.40429	  2.34629	 -0.45810	 11.22449	704.40302	 23.70	
 15.293	141.428	 10.00816	  0.98376	  8.81027	  7.91333	  1.94298	 -0.45661	 11.22601	704.41302	 23.70	
 15.299	134.985	 10.02423	  1.31241	  8.39817	  8.38747	  1.58726	 -0.46283	 11.23055	704.40503	 23.60	
 15.305	128.583	 10.03179	  1.68002	  7.92978	  8.81228	  1.26897	 -0.46781	 11.23471	704.46997	 23.60	
 15.309	122.142	 10.03533	  2.09387	  7.41921	  9.17784	  1.00217	 -0.48676	 11.23400	704.48401	 23.60	
 15.304	115.711	 10.05776	  2.56548	  6.88181	  9.48192	  0.79971	 -0.49458	 11.24022	704.42200	 23.60	
 15.297	109.291	 10.07125	  3.06560	  6.32110	  9.71902	  0.64215	 -0.50182	 11.24370	704.35797	 23.60	
 15.293	102.897	 10.07504	  3.58775	  5.74479	  9.89283	  0.51156	 -0.50576	 11.24332	704.30298	 23.60	
 15.293	 96.458	 10.07572	  4.13493	  5.16120	  9.98596	  0.44558	 -0.50317	 11.23710	704.39697	 23.60	
 15.300	 90.000	 10.07090	  4.71411	  4.57437	 10.00400	  0.42861	 -0.49513	 11.23105	704.36603	 23.60	
 15.293	 83.542	 10.07335	  5.29793	  4.00393	  9.97243	  0.43837	 -0.48032	 11.23776	704.42401	 23.60	
 15.293	 77.103	 10.08154	  5.88635	  3.46770	  9.86519	  0.51085	 -0.45928	 11.24708	704.41302	 23.60	
 15.297	 70.709	 10.08004	  6.46263	  2.94863	  9.69177	  0.62922	 -0.43977	 11.24744	704.46600	 23.60	
 15.304	 64.289	 10.07092	  7.02235	  2.46608	  9.43539	  0.80277	 -0.42468	 11.24324	704.40302	 23.60	
 15.309	 57.858	 10.06085	  7.55536	  2.00548	  9.12170	  1.01306	 -0.42102	 11.24159	704.45203	 23.60	
 15.305	 51.417	 10.04624	  8.05019	  1.60266	  8.75058	  1.26852	 -0.41810	 11.23859	704.52899	 23.50	
 15.299	 45.015	 10.02403	  8.49061	  1.24878	  8.30867	  1.58225	 -0.42662	 11.22025	704.37201	 23.50	
 15.293	 38.572	 10.03447	  8.91577	  0.94092	  7.84506	  1.95139	 -0.43755	 11.23526	704.40802	 23.50	
 15.288	 32.146	 10.02352	  9.26669	  0.67099	  7.33877	  2.34713	 -0.44478	 11.23931	704.48700	 23.50	
 15.300	 25.739	 10.00633	  9.56458	  0.43999	  6.79676	  2.77841	 -0.45039	 11.24007	704.46698	 23.50	
 15.307	 19.324	  9.98895	  9.79058	  0.26392	  6.22282	  3.25180	 -0.45979	 11.23831	704.36798	 23.50	
 15.291	 12.833	  9.98603	  9.94958	  0.15647	  5.65280	  3.76517	 -0.44724	 11.24108	704.43799	 23.50	
 15.298	  6.413	  9.96810	 10.03629	  0.07572	  5.07028	  4.29259	 -0.43957	 11.23634	704.42999	 23.50	
 15.300	  0.000	  9.96406	 10.06202	  0.05698	  4.49795	  4.85552	 -0.43801	 11.24158	704.40698	 23.50	
 15.298	 -6.413	  9.93091	 10.00044	  0.06773	  3.92297	  5.41060	 -0.42315	 11.22625	704.46997	 23.50	
 15.291	-12.833	  9.93152	  9.90739	  0.13543	  3.38988	  5.97545	 -0.43078	 11.24137	704.41901	 23.50	
 15.307	-19.324	  9.91175	  9.70226	  0.25645	  2.85144	  6.56199	 -0.43237	 11.22761	704.43799	 23.50	
 15.300	-25.739	  9.90840	  9.45513	  0.43215	  2.37607	  7.10970	 -0.44355	 11.23468	704.41101	 23.50	
 15.288	-32.146	  9.90239	  9.15023	  0.64840	  1.92833	  7.63775	 -0.43926	 11.24147	704.33398	 23.50	
 15.293	-38.572	  9.90886	  8.79124	  0.90895	  1.52132	  8.15119	 -0.44122	 11.26484	704.38300	 23.50	
 15.299	-45.015	  9.89615	  8.35440	  1.22315	  1.14335	  8.62016	 -0.44890	 11.26643	704.35199	 23.50	
 15.305	-51.417	  9.86856	  7.86625	  1.58552	  0.83366	  9.00504	 -0.45613	 11.24115	704.42798	 23.50	
 15.309	-57.858	  9.87225	  7.35811	  1.99627	  0.57430	  9.36990	 -0.45645	 11.25201	704.42102	 23.40	
 15.304	-64.289	  9.87626	  6.82490	  2.43915	  0.34800	  9.68259	 -0.45990	 11.27326	704.43903	 23.40	
 15.297	-70.709	  9.83277	  6.22195	  2.92486	  0.17388	  9.88063	 -0.46852	 11.22950	704.39899	 23.40	
 15.293	-77.103	  9.84410	  5.65567	  3.44664	  0.05144	 10.06905	 -0.46966	 11.25492	704.41302	 23.40	
 15.293	-83.542	  9.83981	  5.07598	  3.98398	 -0.01413	 10.16403	 -0.48990	 11.25527	704.40302	 23.40	
 15.300	-90.000	  9.83203	  4.49930	  4.55277	 -0.03272	 10.18719	 -0.49143	 11.24850	704.52301	 23.40	
 15.293	-96.458	  9.83042	  3.92708	  5.13313	 -0.01387	 10.15814	 -0.50558	 11.25692	704.43903	 23.40	
 15.293	-102.897	  9.80431	  3.35927	  5.71755	  0.05399	 10.03687	 -0.50394	 11.23368	704.45801	 23.40	
 15.297	-109.291	  9.81264	  2.85302	  6.28649	  0.18240	  9.87289	 -0.49522	 11.23917	704.48999	 23.40	
 15.304	-115.711	  9.81925	  2.36719	  6.85084	  0.35545	  9.64341	 -0.48597	 11.24805	704.37201	 23.40	
 15.309	-122.142	  9.80976	  1.90784	  7.39298	  0.57112	  9.33267	 -0.47066	 11.23194	704.37402	 23.40	
 15.305	-128.583	  9.83706	  1.51707	  7.91397	  0.84979	  8.99617	 -0.46227	 11.25700	704.26202	 23.40	
 15.299	-134.985	  9.85237	  1.16749	  8.37270	  1.16499	  8.60061	 -0.46431	 11.25901	704.25800	 23.40	
 15.293	-141.428	  9.84840	  0.84911	  8.79587	  1.53465	  8.12413	 -0.47338	 11.24351	704.32098	 23.40	
 15.288	-147.854	  9.87746	  0.59453	  9.18206	  1.95841	  7.62782	 -0.48632	 11.25993	704.37598	 23.40	
 15.300	-154.261	  9.87741	  0.38389	  9.48206	  2.40427	  7.09590	 -0.50105	 11.24680	704.46600	 23.40	
 15.307	-160.676	  9.89480	  0.21986	  9.72830	  2.89422	  6.54996	 -0.51914	 11.25030	704.31000	 23.40	
 15.291	-167.167	  9.90125	  0.11893	  9.88632	  3.43252	  5.97923	 -0.50392	 11.23246	704.54498	 23.40	
 15.298	-173.587	  9.93247	  0.05700	 10.00727	  3.99076	  5.42177	 -0.49968	 11.25027	704.55499	 23.40	
 15.300	180.000	  9.94277	  0.04417	 10.03959	  4.56069	  4.85429	 -0.48179	 11.24628	704.46600	 23.30	
 17.000	180.000	  9.59328	 -0.61344	 10.33927	  4.28693	  4.56508	 -0.54530	 11.24455	704.45898	 23.30	
 16.990	-174.179	  9.59120	 -0.59549	 10.31887	  3.72330	  5.13514	 -0.54901	 11.25919	704.41602	 23.30	
 17.009	-168.383	  9.56405	 -0.55030	 10.21483	  3.16790	  5.68988	 -0.55621	 11.24842	704.39099	 23.30	
 17.000	-162.596	  9.54571	 -0.45403	 10.05148	  2.63933	  6.25406	 -0.56315	 11.24117	704.39099	 23.30	
 16.990	-156.759	  9.54248	 -0.31253	  9.84316	  2.14746	  6.81641	 -0.55827	 11.25538	704.23297	 23.30	
 16.995	-150.919	  9.51744	 -0.13214	  9.54597	  1.68380	  7.34913	 -0.54876	 11.24161	704.30603	 23.30	
 16.988	-145.161	  9.50466	  0.08542	  9.21770	  1.25163	  7.85994	 -0.54800	 11.24573	704.36200	 23.30	
 17.014	-139.343	  9.48551	  0.34622	  8.82429	  0.86180	  8.34675	 -0.53155	 11.24485	704.40503	 23.30	
 17.007	-133.546	  9.48656	  0.66996	  8.39360	  0.52650	  8.79789	 -0.51951	 11.24922	704.50598	 23.30	
 17.001	-127.699	  9.47126	  1.02101	  7.91107	  0.21720	  9.20158	 -0.52361	 11.24705	704.40002	 23.30	
 17.006	-121.937	  9.47716	  1.42494	  7.40662	 -0.03602	  9.55847	 -0.52850	 11.25626	704.41400	 23.30	
 17.002	-116.134	  9.46263	  1.85471	  6.86020	 -0.25456	  9.85519	 -0.52527	 11.24984	704.54602	 23.30	
 17.001	-110.310	  9.46824	  2.32902	  6.30440	 -0.43623	 10.11414	 -0.52426	 11.26247	704.31000	 23.30	
 16.988	-104.517	  9.46672	  2.83019	  5.72919	 -0.54665	 10.28155	 -0.51418	 11.25220	704.47302	 23.30	
 17.008	-98.662	  9.46146	  3.36119	  5.13547	 -0.64108	 10.40469	 -0.49770	 11.25154	704.23102	 23.30	
 16.996	-92.909	  9.47466	  3.90821	  4.58526	 -0.67361	 10.46550	 -0.49153	 11.25752	704.40302	 23.20	
 16.996	-87.091	  9.47549	  4.48304	  4.00479	 -0.68198	 10.47298	 -0.46589	 11.25452	704.37701	 23.20	
 17.012	-81.253	  9.46724	  5.06140	  3.43376	 -0.65096	 10.40934	 -0.45294	 11.24594	704.45502	 23.20	
 16.988	-75.483	  9.47936	  5.63784	  2.91708	 -0.56347	 10.29288	 -0.43331	 11.23888	704.34302	 23.20	
 17.001	-69.690	  9.49105	  6.21802	  2.40969	 -0.45480	 10.13474	 -0.41765	 11.25682	704.27002	 23.20	
 17.002	-63.866	  9.49607	  6.77824	  1.94270	 -0.27834	  9.88030	 -0.43712	 11.24440	704.40698	 23.20	
 17.006	-58.063	  9.51530	  7.33147	  1.50566	 -0.06049	  9.59726	 -0.42487	 11.25503	704.37402	 23.20	
 17.001	-52.301	  9.51563	  7.84369	  1.10756	  0.19339	  9.23269	 -0.45111	 11.24032	704.32898	 23.20	
 17.007	-46.454	  9.54741	  8.35198	  0.75046	  0.49664	  8.84464	 -0.45953	 11.26259	704.42200	 23.20	
 17.014	-40.657	  9.53393	  8.77997	  0.42593	  0.83109	  8.38561	 -0.44461	 11.23642	704.40503	 23.20	
 16.988	-34.839	  9.54384	  9.16971	  0.15966	  1.21479	  7.90335	 -0.44695	 11.23678	704.35498	 23.20	
 16.995	-29.081	  9.57723	  9.54064	 -0.07342	  1.65009	  7.38741	 -0.44907	 11.25725	704.38000	 23.20	
 16.990	-23.241	  9.58386	  9.81803	 -0.25213	  2.11093	  6.84189	 -0.45994	 11.24825	704.14801	 23.20	
 17.000	-17.404	  9.59357	 10.05202	 -0.40431	  2.59549	  6.28433	 -0.44648	 11.25165	704.30902	 23.20	
 17.009	-11.617	  9.60540	 10.21618	 -0.50788	  3.11868	  5.71348	 -0.42939	 11.24857	704.29602	 23.20	
 16.990	 -5.821	  9.60012	 10.29975	 -0.56755	  3.65263	  5.13747	 -0.41978	 11.23003	704.46100	 23.20	
 17.000	  0.000	  9.64090	 10.37243	 -0.58423	  4.22810	  4.59006	 -0.42855	 11.25926	704.25598	 23.20	
 16.990	  5.821	  9.63493	 10.33640	 -0.56140	  4.80607	  4.01467	 -0.43294	 11.24211	704.35797	 23.20	
 17.009	 11.617	  9.66093	 10.28494	 -0.51227	  5.37980	  3.49749	 -0.43826	 11.26771	704.32098	 23.20	
 17.000	 17.404	  9.66229	 10.12772	 -0.39885	  5.94834	  2.99795	 -0.44357	 11.24804	704.44501	 23.20	
 16.990	 23.241	  9.67789	  9.93213	 -0.25775	  6.52539	  2.50625	 -0.44905	 11.25720	704.23401	 23.20	
 16.995	 29.081	  9.68869	  9.66677	 -0.06466	  7.08222	  2.05354	 -0.45476	 11.25545	704.32703	 23.20	
 16.988	 34.839	  9.69392	  9.33733	  0.17091	  7.60322	  1.64731	 -0.46152	 11.24720	704.38300	 23.10	
 17.014	 40.657	  9.70025	  8.96517	  0.43224	  8.10671	  1.26342	 -0.46329	 11.24655	704.29498	 23.10	
 17.007	 46.454	  9.70080	  8.54058	  0.74319	  8.56104	  0.92545	 -0.46341	 11.24039	704.34302	 23.10	
 17.001	 52.301	  9.73952	  8.08522	  1.11560	  9.00147	  0.64320	 -0.47063	 11.26408	704.39697	 23.10	
 17.006	 58.063	  9.75175	  7.58845	  1.50832	  9.38115	  0.38035	 -0.48036	 11.27540	704.35999	 23.10	
 17.002	 63.866	  9.73929	  7.04292	  1.94782	  9.66523	  0.18204	 -0.48066	 11.24688	704.24701	 23.10	
 17.001	 69.690	  9.74436	  6.47778	  2.41897	  9.92486	  0.02002	 -0.48675	 11.24763	704.33197	 23.10	
 16.988	 75.483	  9.74390	  5.90553	  2.92115	 10.11660	 -0.10698	 -0.49978	 11.24222	704.43402	 23.10	
 17.012	 81.253	  9.72011	  5.31080	  3.43516	 10.22968	 -0.19607	 -0.50104	 11.21823	704.36499	 23.10	
 16.996	 87.091	  9.74010	  4.74123	  3.99673	 10.31223	 -0.23601	 -0.50634	 11.23863	704.39099	 23.10	
 16.996	 92.909	  9.74220	  4.17157	  4.56994	 10.31921	 -0.22636	 -0.50358	 11.24062	704.39600	 23.10	
 17.008	 98.662	  9.72027	  3.60748	  5.13400	 10.25071	 -0.19541	 -0.49835	 11.21835	704.44501	 23.10	
 16.988	104.517	  9.73434	  3.06652	  5.73392	 10.14001	 -0.09640	 -0.50208	 11.23785	704.35498	 23.10	
 17.001	110.310	  9.72927	  2.55666	  6.31128	  9.95600	  0.02584	 -0.51227	 11.23577	704.27899	 23.10	
 17.002	116.134	  9.73454	  2.07161	  6.88854	  9.72396	  0.18810	 -0.51624	 11.25145	704.34100	 23.10	
 17.006	121.937	  9.72512	  1.62795	  7.42446	  9.41135	  0.40396	 -0.51841	 11.24241	704.52600	 23.10	
 17.001	127.699	  9.72923	  1.21538	  7.94209	  9.06650	  0.65524	 -0.51926	 11.25760	704.33698	 23.10	
 17.007	133.546	  9.73309	  0.84087	  8.43422	  8.67458	  0.93813	 -0.51682	 11.27547	704.30902	 23.10	
 17.014	139.343	  9.70489	  0.49922	  8.86263	  8.19558	  1.27033	 -0.52224	 11.25561	704.28198	 23.10	
 16.988	145.161	  9.70505	  0.22169	  9.25180	  7.69814	  1.64933	 -0.52517	 11.25837	704.50299	 23.00	
 16.995	150.919	  9.68458	 -0.01082	  9.57261	  7.16942	  2.06085	 -0.53166	 11.24557	704.25897	 23.00	
 16.990	156.759	  9.66330	 -0.22129	  9.84613	  6.61250	  2.50335	 -0.53322	 11.24416	704.23102	 23.00	
 17.000	162.596	  9.65092	 -0.38659	 10.07338	  6.03494	  2.98261	 -0.53102	 11.24789	704.22198	 23.00	
 17.009	168.383	  9.63153	 -0.50012	 10.22384	  5.44975	  3.48643	 -0.53298	 11.24290	704.31702	 22.90	
 16.990	174.179	  9.62814	 -0.57036	 10.32335	  4.87834	  4.01789	 -0.53575	 11.25339	704.47498	 22.90	
 18.709	174.675	  9.23117	 -1.20316	 10.56906	  4.56666	  3.71486	 -0.56284	 11.23676	704.28101	 22.90	
 18.703	169.441	  9.27214	 -1.14612	 10.51390	  5.14793	  3.20553	 -0.57360	 11.26301	704.46198	 22.90	
 18.691	164.085	  9.24848	 -1.03796	 10.33258	  5.71676	  2.68160	 -0.57495	 11.22159	704.36200	 22.90	
 18.706	158.818	  9.28204	 -0.90203	 10.16286	  6.29318	  2.21804	 -0.57945	 11.24522	704.28900	 22.90	
 18.695	153.537	  9.29911	 -0.72434	  9.91106	  6.85151	  1.77810	 -0.58035	 11.24247	704.39001	 22.90	
 18.704	148.255	  9.31200	 -0.51861	  9.61297	  7.39190	  1.35833	 -0.56775	 11.24684	704.34302	 22.90	
 18.698	142.952	  9.29417	 -0.26274	  9.21777	  7.89756	  0.95959	 -0.56005	 11.21506	704.30103	 22.90	
 18.699	137.625	  9.32053	  0.02821	  8.83140	  8.39530	  0.62063	 -0.55365	 11.23135	704.24799	 22.90	
 18.705	132.343	  9.33621	  0.36814	  8.38720	  8.83509	  0.32098	 -0.53871	 11.23233	704.26703	 22.90	
 18.713	127.067	  9.34297	  0.71693	  7.91283	  9.24638	  0.04117	 -0.52381	 11.24411	704.21600	 22.80	
 18.700	121.794	  9.35230	  1.13358	  7.39079	  9.60102	 -0.19400	 -0.50754	 11.23855	704.28699	 22.80	
 18.698	116.504	  9.36423	  1.57324	  6.85925	  9.90993	 -0.39865	 -0.49692	 11.24682	704.30103	 22.90	
 18.707	111.165	  9.36506	  2.03893	  6.29042	 10.15294	 -0.56002	 -0.48061	 11.23374	704.41602	 22.80	
 18.690	105.863	  9.38612	  2.54842	  5.72476	 10.35798	 -0.68193	 -0.47071	 11.25095	704.42102	 22.80	
 18.696	100.583	  9.38042	  3.06499	  5.14186	 10.47969	 -0.76551	 -0.46432	 11.23739	704.40002	 22.90	
 18.700	 95.309	  9.38869	  3.61049	  4.57446	 10.55649	 -0.81948	 -0.45902	 11.23966	704.30603	 22.80	
 18.700	 90.000	  9.39748	  4.18198	  4.00739	 10.58616	 -0.83850	 -0.46980	 11.25148	704.24701	 22.80	
 18.700	 84.691	  9.39691	  4.75614	  3.44583	 10.54467	 -0.80808	 -0.48261	 11.24291	704.34003	 22.90	
 18.696	 79.417	  9.38479	  5.32142	  2.90919	 10.45113	 -0.76545	 -0.49038	 11.23374	704.42999	 22.80	
 18.690	 74.137	  9.39458	  5.90398	  2.39846	 10.32276	 -0.68595	 -0.50829	 11.25863	704.38202	 22.80	
 18.707	 68.835	  9.38652	  6.46957	  1.90639	 10.11594	 -0.55748	 -0.50536	 11.25032	704.34003	 22.80	
 18.698	 63.496	  9.37040	  7.01260	  1.45439	  9.84429	 -0.39207	 -0.50780	 11.23550	704.32098	 22.80	
 18.700	 58.206	  9.38070	  7.55961	  1.03159	  9.54715	 -0.19545	 -0.50164	 11.25840	704.34302	 22.80	
 18.713	 52.933	  9.35990	  8.05800	  0.63167	  9.16770	  0.04179	 -0.49558	 11.24173	704.38202	 22.80	
 18.705	 47.657	  9.36493	  8.54054	  0.28970	  8.76933	  0.32096	 -0.48263	 11.25868	704.41302	 22.80	
 18.699	 42.375	  9.33200	  8.94766	 -0.02389	  8.30426	  0.62826	 -0.47405	 11.23100	704.41302	 22.80	
 18.698	 37.048	  9.33718	  9.35145	 -0.29589	  7.82407	  0.98474	 -0.46245	 11.24410	704.43103	 22.80	
 18.704	 31.745	  9.30619	  9.68301	 -0.54390	  7.29535	  1.35567	 -0.43533	 11.22717	704.44397	 22.80	
 18.695	 26.463	  9.32149	  9.99506	 -0.74276	  6.76614	  1.79723	 -0.42236	 11.25351	704.34802	 22.80	
 18.706	 21.182	  9.30276	 10.23580	 -0.92139	  6.22199	  2.22330	 -0.42225	 11.25380	704.32397	 22.80	
 18.691	 15.915	  9.28701	 10.41323	 -1.04598	  5.64592	  2.70671	 -0.40149	 11.25155	704.27502	 22.80	
 18.703	 10.559	  9.27472	 10.53693	 -1.13700	  5.06736	  3.21279	 -0.39616	 11.24966	704.30902	 22.80	
 18.709	  5.325	  9.24689	 10.59291	 -1.19938	  4.49317	  3.72452	 -0.39406	 11.23513	704.27197	 22.80	
 18.700	  0.000	  9.25221	 10.61520	 -1.20624	  3.91892	  4.28778	 -0.39078	 11.24523	704.28998	 22.80	
 18.709	 -5.325	  9.23920	 10.58305	 -1.20331	  3.36161	  4.84498	 -0.41043	 11.25220	704.36603	 22.80	
 18.703	-10.559	  9.23506	 10.49267	 -1.14607	  2.83653	  5.40205	 -0.40784	 11.25520	704.39899	 22.80	
 18.691	-15.915	  9.22560	 10.34059	 -1.05273	  2.31791	  5.98522	 -0.42179	 11.25799	704.23297	 22.80	
 18.706	-21.182	  9.20470	 10.12770	 -0.92626	  1.82797	  6.53042	 -0.43260	 11.24730	704.27301	 22.80	
 18.695	-26.463	  9.19267	  9.86837	 -0.76943	  1.37649	  7.07072	 -0.43763	 11.24374	704.34100	 22.80	
 18.704	-31.745	  9.16649	  9.53965	 -0.56999	  0.94216	  7.58760	 -0.42747	 11.23099	704.26202	 22.80	
 18.698	-37.048	  9.17137	  9.17867	 -0.32214	  0.54376	  8.11310	 -0.42916	 11.24689	704.35498	 22.80	
 18.699	-42.375	  9.17083	  8.77424	 -0.04006	  0.19774	  8.57930	 -0.42498	 11.25323	704.31000	 22.80	
 18.705	-47.657	  9.15122	  8.31101	  0.26665	 -0.11919	  9.00755	 -0.41657	 11.24561	704.36499	 22.80	
 18.713	-52.933	  9.12823	  7.81749	  0.61468	 -0.41862	  9.40259	 -0.40311	 11.24042	704.34900	 22.80	
 18.700	-58.206	  9.13370	  7.30424	  1.00812	 -0.65651	  9.76285	 -0.39063	 11.25883	704.36798	 22.80	
 18.698	-63.496	  9.12316	  6.75409	  1.44158	 -0.84641	 10.03907	 -0.38750	 11.24232	704.31201	 22.80	
 18.707	-68.835	  9.11005	  6.19025	  1.90025	 -1.01523	 10.28003	 -0.37554	 11.23803	704.28699	 22.80	
 18.690	-74.137	  9.11839	  5.62116	  2.39439	 -1.13942	 10.48578	 -0.37224	 11.26179	704.31799	 22.80	
 18.696	-79.417	  9.08779	  5.04554	  2.89674	 -1.22665	 10.58680	 -0.38329	 11.23194	704.27197	 22.80	
 18.700	-84.691	  9.09155	  4.47429	  3.43131	 -1.27770	 10.67617	 -0.40628	 11.24648	704.26398	 22.80	
 18.700	-90.000	  9.09371	  3.90597	  3.99779	 -1.29050	 10.70837	 -0.43482	 11.25556	704.28101	 22.80	
 18.700	-95.309	  9.06760	  3.34523	  4.54896	 -1.27605	 10.66032	 -0.45421	 11.23159	704.27301	 22.80	
 18.696	-100.583	  9.06816	  2.81670	  5.11563	 -1.21631	 10.57298	 -0.47995	 11.22556	704.21399	 22.80	
 18.690	-105.863	  9.07594	  2.30605	  5.69248	 -1.12441	 10.44968	 -0.51432	 11.23959	704.37402	 22.70	
 18.707	-111.165	  9.06250	  1.80052	  6.26542	 -1.01118	 10.25987	 -0.53030	 11.24025	704.44501	 22.70	
 18.698	-116.504	  9.09532	  1.35041	  6.85028	 -0.84327	 10.04303	 -0.53754	 11.27603	704.41901	 22.80	
 18.700	-121.794	  9.08075	  0.92216	  7.36988	 -0.63631	  9.72571	 -0.55691	 11.25251	704.39099	 22.70	
 18.713	-127.067	  9.07628	  0.54644	  7.86881	 -0.39298	  9.36952	 -0.55037	 11.23956	704.28900	 22.70	
 18.705	-132.343	  9.09956	  0.18339	  8.37411	 -0.10734	  8.98747	 -0.55456	 11.25660	704.42102	 22.70	
 18.699	-137.625	  9.10369	 -0.11047	  8.80366	  0.21859	  8.54344	 -0.56542	 11.24448	704.23102	 22.70	
 18.698	-142.952	  9.10760	 -0.39762	  9.21239	  0.57446	  8.06688	 -0.56677	 11.24365	704.40302	 22.70	
 18.704	-148.255	  9.15081	 -0.62698	  9.59689	  0.97739	  7.58878	 -0.56751	 11.27486	704.39301	 22.70	
 18.695	-153.537	  9.13832	 -0.81704	  9.87506	  1.41921	  7.03357	 -0.55337	 11.23594	704.30603	 22.70	
 18.706	-158.818	  9.16898	 -0.99342	 10.16151	  1.88076	  6.50392	 -0.55819	 11.26856	704.41901	 22.70	
 18.691	-164.085	  9.17600	 -1.10753	 10.34406	  2.36330	  5.94908	 -0.55894	 11.25262	704.42700	 22.70	
 18.703	-169.441	  9.19516	 -1.18208	 10.49226	  2.90572	  5.36990	 -0.56312	 11.25382	704.32397	 22.70	
 18.709	-174.675	  9.23055	 -1.22785	 10.60061	  3.44711	  4.83029	 -0.56221	 11.27422	704.42401	 22.70	
 18.700	180.000	  9.22976	 -1.23248	 10.61050	  3.99869	  4.26682	 -0.56539	 11.25663	704.32703	 22.70	
 20.400	180.000	  8.81487	 -1.84403	 10.81818	  3.67983	  3.94080	 -0.55431	 11.24697	704.23297	 22.70	
 20.401	-175.153	  8.79762	 -1.84100	 10.79829	  3.13216	  4.48937	 -0.53145	 11.25631	704.23102	 22.70	
 20.407	-170.264	  8.78093	 -1.81881	 10.73674	  2.59354	  5.03248	 -0.52254	 11.26810	704.24200	 22.70	
 20.410	-165.423	  8.75952	 -1.74672	 10.59847	  2.07347	  5.59707	 -0.52628	 11.25963	704.25098	 22.70	
 20.392	-160.496	  8.76340	 -1.63851	 10.42756	  1.59299	  6.16448	 -0.52117	 11.27591	704.21100	 22.70	
 20.401	-155.705	  8.72213	 -1.50444	 10.17151	  1.12740	  6.68697	 -0.52412	 11.24863	704.27899	 22.70	
 20.405	-150.835	  8.71995	 -1.33308	  9.89620	  0.68114	  7.23314	 -0.53564	 11.25524	704.16101	 22.70	
 20.397	-145.903	  8.70482	 -1.12931	  9.55998	  0.27392	  7.75213	 -0.55195	 11.25893	704.12402	 22.70	
 20.392	-141.062	  8.69262	 -0.88278	  9.18404	 -0.08709	  8.23076	 -0.56395	 11.24966	704.09900	 22.70	
 20.396	-136.227	  8.67155	 -0.61947	  8.75818	 -0.43782	  8.69333	 -0.57585	 11.25154	704.27802	 22.70	
 20.408	-131.372	  8.67127	 -0.30365	  8.30728	 -0.73672	  9.13181	 -0.57324	 11.26287	704.21899	 22.70	
 20.410	-126.511	  8.63965	  0.03664	  7.80331	 -1.00640	  9.49564	 -0.55921	 11.23173	704.28601	 22.70	
 20.400	-121.604	  8.64663	  0.41181	  7.29829	 -1.23198	  9.84631	 -0.54897	 11.23854	704.28601	 22.70	
 20.403	-116.741	  8.65315	  0.82997	  6.77129	 -1.42780	 10.15140	 -0.54052	 11.25243	704.35101	 22.70	
 20.413	-111.900	  8.64298	  1.26160	  6.21030	 -1.60562	 10.40326	 -0.51326	 11.24961	704.34003	 22.70	
 20.398	-107.004	  8.63738	  1.73838	  5.64376	 -1.73158	 10.59288	 -0.49057	 11.23968	704.45898	 22.70	
 20.394	-102.132	  8.65379	  2.23382	  5.07767	 -1.83217	 10.75983	 -0.46399	 11.25689	704.26703	 22.70	
 20.403	-97.332	  8.64013	  2.73294	  4.51216	 -1.90780	 10.85023	 -0.43749	 11.25147	704.37402	 22.70	
 20.392	-92.440	  8.65437	  3.28928	  3.94808	 -1.93414	 10.90396	 -0.41032	 11.25447	704.46698	 22.70	
 20.392	-87.560	  8.64489	  3.83017	  3.38579	 -1.93863	 10.89837	 -0.39415	 11.24415	704.27197	 22.70	
 20.403	-82.668	  8.64845	  4.40296	  2.85052	 -1.89953	 10.84212	 -0.37863	 11.23238	704.31403	 22.70	
 20.394	-77.868	  8.66578	  4.96375	  2.33450	 -1.85402	 10.77792	 -0.35618	 11.25731	704.36902	 22.70	
 20.398	-72.996	  8.67729	  5.53962	  1.83930	 -1.75788	 10.63532	 -0.35759	 11.25134	704.28601	 22.70	
 20.413	-68.100	  8.68157	  6.11752	  1.35634	 -1.62816	 10.43625	 -0.35145	 11.25162	704.31799	 22.70	
 20.403	-63.259	  8.69196	  6.66538	  0.92233	 -1.45775	 10.18352	 -0.35651	 11.23925	704.31702	 22.70	
 20.400	-58.396	  8.70612	  7.21394	  0.50191	 -1.26753	  9.90136	 -0.36850	 11.25500	704.34100	 22.70	
 20.410	-53.489	  8.71444	  7.73807	  0.12102	 -1.04486	  9.56568	 -0.37513	 11.25581	704.26398	 22.70	
 20.408	-48.628	  8.73772	  8.24995	 -0.23331	 -0.78198	  9.19199	 -0.38714	 11.27127	704.28699	 22.70	
 20.396	-43.773	  8.74828	  8.70350	 -0.52935	 -0.46499	  8.75109	 -0.40816	 11.25440	704.24402	 22.70	
 20.392	-38.938	  8.75536	  9.12458	 -0.80194	 -0.12565	  8.28795	 -0.40384	 11.25041	704.14801	 22.70	
 20.397	-34.097	  8.75820	  9.50431	 -1.05722	  0.23445	  7.79818	 -0.40182	 11.24460	704.13202	 22.70	
 20.405	-29.165	  8.78175	  9.86711	 -1.27425	  0.62789	  7.28792	 -0.40577	 11.26253	704.18597	 22.70	
 20.401	-24.295	  8.78077	 10.14371	 -1.44263	  1.06753	  6.73848	 -0.40615	 11.24641	704.08099	 22.70	
 20.392	-19.504	  8.78811	 10.37192	 -1.57457	  1.52576	  6.19541	 -0.40725	 11.23930	704.25000	 22.70	
 20.410	-14.577	  8.79342	 10.55486	 -1.69053	  2.00903	  5.63237	 -0.40104	 11.23202	704.26703	 22.70	
 20.407	 -9.736	  8.80121	 10.68733	 -1.76889	  2.52125	  5.06037	 -0.39410	 11.22114	704.21399	 22.70	
 20.401	 -4.847	  8.80199	 10.76590	 -1.81553	  3.04729	  4.50160	 -0.39437	 11.21930	704.18799	 22.70	
 20.400	  0.000	  8.84500	 10.83798	 -1.83196	  3.60240	  3.97254	 -0.37366	 11.25857	704.20001	 22.70	
 20.401	  4.847	  8.83638	 10.80996	 -1.81826	  4.16605	  3.42001	 -0.37613	 11.23544	704.18298	 22.70	
 20.407	  9.736	  8.85041	 10.75716	 -1.77116	  4.71835	  2.90540	 -0.37099	 11.24506	704.16101	 22.70	
 20.410	 14.577	  8.86653	 10.65317	 -1.69606	  5.28699	  2.40996	 -0.36831	 11.24977	704.16101	 22.70	
 20.392	 19.504	  8.87738	 10.47625	 -1.56421	  5.86933	  1.92529	 -0.36987	 11.24197	704.19897	 22.70	
 20.401	 24.295	  8.89571	 10.27724	 -1.42879	  6.41408	  1.48779	 -0.37629	 11.24418	704.09802	 22.70	
 20.405	 29.165	  8.88615	  9.99224	 -1.25486	  6.95205	  1.06001	 -0.39414	 11.22958	704.14899	 22.70	
 20.397	 34.097	  8.90793	  9.66760	 -1.02822	  7.50255	  0.66087	 -0.42408	 11.23298	704.06799	 22.70	
 20.392	 38.938	  8.91856	  9.31150	 -0.78307	  8.00270	  0.30473	 -0.45081	 11.23266	704.12299	 22.70	
 20.396	 43.773	  8.94950	  8.93814	 -0.51462	  8.49127	 -0.02333	 -0.47716	 11.26297	704.12097	 22.70	
 20.408	 48.628	  8.92927	  8.46595	 -0.20779	  8.90914	 -0.31679	 -0.48787	 11.23026	704.15503	 22.70	
 20.410	 53.489	  8.95199	  7.99714	  0.13734	  9.32802	 -0.57805	 -0.49950	 11.24469	704.17700	 22.70	
 20.400	 58.396	  8.95014	  7.48736	  0.51701	  9.67489	 -0.79769	 -0.50199	 11.23100	704.20801	 22.70	
 20.403	 63.259	  8.96279	  6.96240	  0.92646	 10.00085	 -0.99686	 -0.50392	 11.24096	704.24200	 22.70	
 20.413	 68.100	  8.97865	  6.42246	  1.36648	 10.26078	 -1.13582	 -0.50076	 11.24653	704.16302	 22.70	
 20.398	 72.996	  8.98650	  5.86132	  1.84738	 10.47404	 -1.26160	 -0.50109	 11.24706	704.21600	 22.70	
 20.394	 77.868	  8.98985	  5.28802	  2.34462	 10.62674	 -1.34663	 -0.46773	 11.24079	704.17700	 22.70	
 20.403	 82.668	  8.97893	  4.71934	  2.84691	 10.72957	 -1.42136	 -0.45522	 11.23480	704.22498	 22.70	
 20.392	 87.560	  8.99113	  4.15433	  3.39698	 10.78789	 -1.43737	 -0.41923	 11.24063	704.04700	 22.70	
 20.392	 92.440	  8.98939	  3.57930	  3.96639	 10.80441	 -1.45124	 -0.40457	 11.24998	704.06702	 22.70	
 20.403	 97.332	  8.98500	  3.04584	  4.52315	 10.75746	 -1.42108	 -0.40421	 11.24368	704.15698	 22.70	
 20.394	102.132	  8.99280	  2.53006	  5.09244	 10.66809	 -1.34732	 -0.40811	 11.25047	704.13397	 22.70	
 20.398	107.004	  8.97826	  2.01408	  5.66473	 10.51309	 -1.25833	 -0.40605	 11.23828	704.05402	 22.70	
 20.413	111.900	  8.95574	  1.52384	  6.22071	 10.30147	 -1.13640	 -0.42798	 11.22503	704.10101	 22.70	
 20.403	116.741	  8.97399	  1.08166	  6.78162	 10.07842	 -0.98053	 -0.45416	 11.25488	704.25897	 22.70	
 20.400	121.604	  8.96162	  0.64344	  7.32963	  9.76583	 -0.78180	 -0.47887	 11.24889	704.14001	 22.70	
 20.410	126.511	  8.95346	  0.24157	  7.85367	  9.41982	 -0.57259	 -0.50422	 11.25792	704.19098	 22.70	
 20.408	131.372	  8.94991	 -0.11374	  8.33875	  9.01666	 -0.30252	 -0.52266	 11.25364	703.96301	 22.70	
 20.396	136.227	  8.95593	 -0.42969	  8.80387	  8.58634	 -0.00293	 -0.55303	 11.26544	704.19299	 22.70	
 20.392	141.062	  8.94864	 -0.72110	  9.22021	  8.12819	  0.30615	 -0.56155	 11.27459	704.10101	 22.70	
 20.397	145.903	  8.92598	 -0.97897	  9.58071	  7.61609	  0.66164	 -0.57602	 11.25877	704.13702	 22.60	
 20.405	150.835	  8.90344	 -1.20448	  9.91524	  7.06879	  1.05756	 -0.58523	 11.24733	704.08099	 22.60	
 20.401	155.705	  8.89878	 -1.39667	 10.20590	  6.52453	  1.47820	 -0.58882	 11.25833	704.14600	 22.60	
 20.392	160.496	  8.87322	 -1.53811	 10.40955	  5.97677	  1.90748	 -0.58085	 11.23950	704.05902	 22.70	
 20.410	165.423	  8.86582	 -1.66996	 10.60634	  5.39556	  2.39122	 -0.57362	 11.25258	704.09302	 22.70	
 20.407	170.264	  8.84480	 -1.75586	 10.71734	  4.82122	  2.89015	 -0.57215	 11.24684	704.09802	 22.60	
 20.401	175.153	  8.83801	 -1.81911	 10.80725	  4.25220	  3.41861	 -0.56357	 11.26117	704.08398	 22.60	
  0.141	 45.000	 11.26189	  5.88493	  5.82617	  5.83350	  6.09444	  0.09207	 11.25152	704.09198	 22.60	
  4.001	128.691	 11.23031	  4.95968	  6.58940	  6.76528	  5.03185	  0.05116	 11.24535	704.01898	 22.60	
  4.002	 76.995	 11.24947	  6.09470	  5.44460	  7.03749	  4.81284	  0.04291	 11.25948	704.00299	 22.60	
  4.002	 25.892	 11.23060	  7.00756	  4.59966	  6.26769	  5.46044	  0.03640	 11.25040	704.08899	 22.60	
  4.002	-25.892	 11.21440	  6.98501	  4.58137	  5.09502	  6.59794	  0.02233	 11.25176	704.02301	 22.60	
  4.002	-76.995	 11.19474	  6.01270	  5.42123	  4.42298	  7.34671	  0.01392	 11.24195	703.87299	 22.60	
  4.001	-128.691	 11.18166	  4.89753	  6.57505	  4.66830	  7.05899	  0.03127	 11.22741	704.05103	 22.60	
  4.000	180.000	 11.21521	  4.47029	  7.11961	  5.68650	  6.02128	  0.04926	 11.24654	703.87799	 22.60	
  8.000	180.000	 10.98527	  2.93374	  8.33458	  5.43895	  5.75049	 -0.10076	 11.25388	703.87000	 22.60	
  7.991	-152.370	 10.95871	  3.16466	  8.00309	  4.20890	  7.01244	 -0.10363	 11.25967	703.97400	 22.60	
  7.997	-124.550	 10.91574	  3.92663	  7.05334	  3.26997	  8.03359	 -0.13409	 11.23553	703.96600	 22.60	
  8.006	-96.837	 10.93589	  5.10834	  5.80131	  2.85949	  8.54462	 -0.16598	 11.26881	703.82202	 22.60	
  7.988	-69.228	 10.93762	  6.42230	  4.52046	  2.99762	  8.37471	 -0.19422	 11.25326	703.87299	 22.60	
  7.997	-41.563	 10.94770	  7.57218	  3.51577	  3.65760	  7.59279	 -0.16571	 11.24816	703.94098	 22.60	
  8.008	-13.821	 10.96353	  8.25418	  2.97650	  4.74578	  6.39639	 -0.13965	 11.23738	703.80798	 22.60	
  8.008	 13.821	 11.00491	  8.29561	  2.98055	  6.07601	  5.11340	 -0.13205	 11.25559	703.87097	 22.60	
  7.997	 41.563	 11.02130	  7.65521	  3.53221	  7.27726	  4.05872	 -0.09809	 11.24112	703.97198	 22.60	
  7.988	 69.228	 11.02263	  6.52321	  4.52987	  8.08443	  3.40010	 -0.10227	 11.23211	703.92700	 22.60	
  8.006	 96.837	 11.03382	  5.23050	  5.79015	  8.27796	  3.27173	 -0.11811	 11.24406	703.93298	 22.60	
  7.997	124.550	 11.04142	  4.05081	  7.07295	  7.79406	  3.67953	 -0.10232	 11.26363	703.90601	 22.60	
  7.991	152.370	 11.01423	  3.23904	  7.99464	  6.73542	  4.56695	 -0.09959	 11.25397	703.90601	 22.60	
 12.009	161.059	 10.54578	  1.54374	  9.12692	  6.37351	  4.07742	 -0.29929	 11.25037	703.75201	 22.60	
 12.013	142.081	 10.57905	  2.10227	  8.44117	  7.65282	  3.00046	 -0.30245	 11.26724	703.94702	 22.60	
 12.006	123.113	 10.59113	  2.99923	  7.36874	  8.62634	  2.22955	 -0.33238	 11.24986	703.86401	 22.60	
 12.007	104.200	 10.60367	  4.16768	  6.06641	  9.21005	  1.78524	 -0.35784	 11.25074	704.02301	 22.60	
 11.989	 85.301	 10.61551	  5.50081	  4.71708	  9.31282	  1.70633	 -0.33112	 11.25227	703.94000	 22.60	
 12.013	 66.294	 10.59752	  6.84327	  3.45970	  8.93049	  1.96509	 -0.29492	 11.24368	703.91302	 22.60	
 12.012	 47.388	 10.59229	  8.03587	  2.44417	  8.12328	  2.57919	 -0.29362	 11.25797	703.83099	 22.60	
 11.990	 28.440	 10.57318	  8.89717	  1.74753	  6.98078	  3.50749	 -0.32626	 11.25445	703.87500	 22.60	
 11.991	  9.464	 10.53199	  9.33959	  1.37642	  5.65183	  4.66689	 -0.33869	 11.24635	703.98901	 22.60	
 11.991	 -9.464	 10.52309	  9.32740	  1.37070	  4.32186	  5.98647	 -0.33249	 11.26279	703.83301	 22.60	
 11.990	-28.440	 10.49209	  8.81980	  1.72833	  3.10419	  7.30108	 -0.34846	 11.26312	703.89801	 22.60	
 12.012	-47.388	 10.45148	  7.88680	  2.43028	  2.14914	  8.40501	 -0.37563	 11.24924	704.00800	 22.60	
 12.013	-66.294	 10.43884	  6.67740	  3.43990	  1.52330	  9.18615	 -0.41621	 11.25662	703.98798	 22.60	
 11.989	-85.301	 10.41557	  5.31517	  4.69709	  1.27210	  9.51178	 -0.41804	 11.24133	705.50500	 22.50	
 12.007	-104.200	 10.41845	  3.99154	  6.04815	  1.35508	  9.41331	 -0.37876	 11.25729	705.65997	 22.50	
 12.006	-123.113	 10.43800	  2.85634	  7.35586	  1.81169	  8.84453	 -0.32685	 11.27536	703.94702	 22.60	
 12.013	-142.081	 10.44355	  1.99513	  8.41704	  2.61225	  7.87405	 -0.31407	 11.25517	704.02802	 22.50	
 12.009	-161.059	 10.49678	  1.48885	  9.13642	  3.72357	  6.66182	 -0.33465	 11.27716	703.91602	 22.50	
 16.000	180.000	  9.81553	 -0.23059	 10.18397	  4.44958	  4.74217	 -0.51256	 11.25558	704.06702	 22.50	
 15.990	-165.604	  9.77794	 -0.12612	  9.98959	  3.15225	  6.06087	 -0.53211	 11.25220	704.16101	 22.50	
 16.002	-151.165	  9.73357	  0.22501	  9.43244	  1.98379	  7.34491	 -0.52051	 11.24438	704.04700	 22.50	
 16.002	-136.836	  9.71468	  0.82009	  8.58009	  1.03592	  8.51522	 -0.48937	 11.26270	703.89001	 22.50	
 15.995	-122.439	  9.70398	  1.69529	  7.44800	  0.34470	  9.42782	 -0.49534	 11.26485	703.86798	 22.50	
 15.993	-107.966	  9.68200	  2.78640	  6.13661	 -0.11529	 10.03715	 -0.51292	 11.25052	704.15399	 22.50	
 16.005	-93.629	  9.68635	  4.03381	  4.78981	 -0.30841	 10.31449	 -0.50180	 11.26153	703.97498	 22.50	
 15.992	-79.234	  9.71630	  5.39057	  3.48207	 -0.24809	 10.24812	 -0.45981	 11.27454	703.89502	 22.50	
 16.009	-64.774	  9.71704	  6.74635	  2.27797	  0.05825	  9.79942	 -0.44958	 11.25576	704.07001	 22.50	
 15.997	-50.364	  9.74010	  7.98203	  1.30524	  0.63718	  9.02202	 -0.45182	 11.25140	703.97101	 22.50	
 15.997	-36.045	  9.76262	  9.01160	  0.55479	  1.44795	  7.98548	 -0.44663	 11.25057	703.99701	 22.50	
 16.000	-21.597	  9.78500	  9.74679	  0.05538	  2.49236	  6.74011	 -0.45179	 11.24344	703.87500	 22.50	
 16.003	 -7.169	  9.81447	 10.13037	 -0.18736	  3.72433	  5.41002	 -0.42913	 11.23973	703.86102	 22.50	
 16.003	  7.169	  9.84363	 10.16051	 -0.18442	  5.05617	  4.10397	 -0.43893	 11.24392	704.04401	 22.50	
 16.000	 21.597	  9.86996	  9.84062	  0.05835	  6.40912	  2.89470	 -0.46324	 11.24765	705.50000	 22.50	
 15.997	 36.045	  9.89134	  9.15877	  0.55929	  7.68478	  1.86555	 -0.44961	 11.24414	704.32001	 22.50	
 15.997	 50.364	  9.91053	  8.17497	  1.30892	  8.76251	  1.06800	 -0.43999	 11.23664	704.77399	 22.50	
 16.009	 64.774	  9.94126	  6.97501	  2.29393	  9.58158	  0.50755	 -0.45116	 11.24874	703.67401	 22.50	
 15.992	 79.234	  9.94013	  5.62913	  3.47379	 10.03958	  0.20093	 -0.48729	 11.24010	703.92603	 22.50	
 16.005	 93.629	  9.95577	  4.28146	  4.79640	 10.16463	  0.14274	 -0.50312	 11.25638	703.81097	 22.50	
 15.993	107.966	  9.93871	  3.00955	  6.14599	  9.89414	  0.33401	 -0.51141	 11.24871	703.81097	 22.50	
 15.995	122.439	  9.92149	  1.88739	  7.45743	  9.25987	  0.77941	 -0.49581	 11.23745	703.80902	 22.50	
 16.002	136.836	  9.89914	  0.98244	  8.58288	  8.32713	  1.44772	 -0.48312	 11.24310	703.82300	 22.50	
 16.002	151.165	  9.88106	  0.31722	  9.47078	  7.15723	  2.35075	 -0.49613	 11.25393	703.83301	 22.50	
 15.990	165.604	  9.86204	 -0.06921	 10.00368	  5.82362	  3.48618	 -0.49500	 11.25264	705.43201	 22.50	
 20.003	168.362	  8.93792	 -1.58604	 10.62333	  5.09184	  2.78747	 -0.57017	 11.23624	703.82300	 22.50	
 20.008	156.764	  9.00739	 -1.30560	 10.24329	  6.45606	  1.67674	 -0.58582	 11.28352	703.70099	 22.50	
 20.000	145.147	  9.02016	 -0.82286	  9.51456	  7.69703	  0.72371	 -0.57850	 11.25953	705.51898	 22.50	
 19.995	133.545	  9.05177	 -0.12915	  8.54779	  8.81641	 -0.04616	 -0.54805	 11.26286	704.34497	 22.50	
 20.009	121.926	  9.04343	  0.72968	  7.36887	  9.70645	 -0.64209	 -0.48736	 11.23670	703.76300	 22.40	
 20.005	110.327	  9.08127	  1.77962	  6.10003	 10.34948	 -1.03429	 -0.43751	 11.25544	703.73999	 22.40	
 19.989	 98.733	  9.09551	  2.98199	  4.76615	 10.69028	 -1.25329	 -0.41638	 11.24780	703.77698	 22.40	
 19.999	 87.075	  9.10022	  4.27747	  3.44589	 10.74078	 -1.28488	 -0.44152	 11.24685	705.54999	 22.40	
 19.992	 75.457	  9.09919	  5.61709	  2.21475	 10.51445	 -1.15496	 -0.49015	 11.24542	703.77802	 22.40	
 20.009	 63.844	  9.07038	  6.92103	  1.11103	  9.98862	 -0.85554	 -0.50408	 11.23894	705.40601	 22.40	
 19.989	 52.269	  9.06580	  8.13284	  0.19405	  9.20326	 -0.35610	 -0.49824	 11.25135	703.87903	 22.40	
 19.999	 40.602	  9.04291	  9.17854	 -0.55007	  8.17765	  0.32931	 -0.46496	 11.25680	703.85602	 22.40	
 20.004	 29.051	  9.00700	  9.98006	 -1.11283	  6.97804	  1.18820	 -0.40248	 11.24793	704.75897	 22.40	
 20.005	 17.433	  8.98384	 10.52361	 -1.48197	  5.68153	  2.23424	 -0.36923	 11.25566	705.46503	 22.40	
 20.006	  5.780	  8.94930	 10.76871	 -1.66195	  4.34356	  3.40180	 -0.37150	 11.25342	703.76703	 22.40	
 20.006	 -5.780	  8.94394	 10.74611	 -1.65909	  3.04982	  4.70015	 -0.39700	 11.26492	703.65302	 22.40	
 20.005	-17.433	  8.90157	 10.42216	 -1.48251	  1.83150	  6.01227	 -0.41822	 11.24432	703.84998	 22.40	
 20.004	-29.051	  8.87237	  9.82790	 -1.12892	  0.77125	  7.28188	 -0.41465	 11.24687	703.69299	 22.40	
 19.999	-40.602	  8.85100	  8.97273	 -0.58089	 -0.11652	  8.44378	 -0.40484	 11.24943	703.86401	 22.40	
 19.989	-52.269	  8.82886	  7.89205	  0.15682	 -0.81957	  9.43604	 -0.39013	 11.25343	703.71899	 22.40	
 20.009	-63.844	  8.80371	  6.63534	  1.09592	 -1.32595	 10.18056	 -0.36187	 11.24693	704.01599	 22.40	
 19.992	-75.457	  8.78637	  5.31674	  2.19338	 -1.63469	 10.65764	 -0.36345	 11.24850	704.72601	 22.40	
 19.999	-87.075	  8.76227	  3.97895	  3.41775	 -1.77091	 10.85107	 -0.40185	 11.24707	703.60901	 22.40	
 19.989	-98.733	  8.75473	  2.70166	  4.73487	 -1.72470	 10.77712	 -0.44855	 11.25116	705.31598	 22.40	
 20.005	-110.327	  8.73587	  1.52150	  6.06327	 -1.50159	 10.42117	 -0.51246	 11.23729	705.29199	 22.40	
 20.009	-121.926	  8.75167	  0.51476	  7.34560	 -1.08649	  9.81429	 -0.55313	 11.25285	705.25403	 22.40	
 19.995	-133.545	  8.76830	 -0.30607	  8.48971	 -0.46294	  8.91691	 -0.56679	 11.23492	705.40601	 22.40	
 20.000	-145.147	  8.80141	 -0.94581	  9.46517	  0.33509	  7.83602	 -0.55277	 11.24419	705.36499	 22.40	
 20.008	-156.764	  8.83876	 -1.38879	 10.19682	  1.33530	  6.60533	 -0.53617	 11.25367	705.14502	 22.40	
 20.003	-168.362	  8.87014	 -1.62979	 10.61974	  2.48776	  5.31396	 -0.53365	 11.24492	703.91803	 22.40	
 20.000	180.000	  8.90701	 -1.69967	 10.76280	  3.74883	  4.02442	 -0.55510	 11.24059	705.37903	 22.40	
