FileType=PCF
NHL=14
Date=08/30/17	15:23:32
Facility=APL
Serial=16328-19
Customer=NASA
NP=6
Mach=0.100000
Calibration=1:1
CalPts=490
TstPts=95
PortNumbering=AP Standard
Units=Torr C m/s kg/m^3 deg mm 
Theta[deg]	Phi[deg]	P1[Torr]	P2[Torr]	P3[Torr]	P4[Torr]	P5[Torr]	P6[Torr]	Pt[Torr]	Ps[Abs,Torr]	Ts[C]	
  0.000	  0.000	  4.90624	  2.57260	  2.58225	  2.56111	  2.68604	  0.03694	  4.90982	705.17401	 22.50	
  1.691	128.401	  4.90425	  2.43811	  2.69462	  2.71757	  2.51706	  0.03450	  4.90887	705.15698	 22.50	
  1.692	 77.194	  4.91425	  2.62664	  2.51193	  2.76726	  2.48298	  0.03342	  4.91742	705.11499	 22.50	
  1.699	 26.182	  4.90353	  2.77904	  2.36241	  2.65303	  2.56064	  0.03024	  4.90548	705.07202	 22.50	
  1.699	-26.182	  4.90082	  2.76932	  2.35116	  2.43605	  2.76820	  0.02568	  4.90425	705.06702	 22.50	
  1.692	-77.194	  4.91351	  2.60773	  2.50524	  2.33308	  2.90274	  0.02521	  4.91583	704.90802	 22.50	
  1.691	-128.401	  4.91928	  2.41844	  2.70888	  2.38119	  2.86109	  0.02779	  4.92170	704.99597	 22.50	
  1.700	180.000	  4.91373	  2.35852	  2.78716	  2.53564	  2.69396	  0.03210	  4.91515	705.09998	 22.50	
  3.400	180.000	  4.90699	  2.08078	  3.03622	  2.51671	  2.65306	  0.02026	  4.91813	704.99402	 22.50	
  3.388	-152.325	  4.89936	  2.11903	  2.97184	  2.29305	  2.87472	  0.01402	  4.91282	705.05499	 22.50	
  3.397	-124.529	  4.89983	  2.25266	  2.81403	  2.13138	  3.05702	  0.01447	  4.91586	704.91101	 22.50	
  3.399	-96.763	  4.90088	  2.47148	  2.58343	  2.05289	  3.14842	  0.00777	  4.91665	705.03497	 22.50	
  3.394	-69.283	  4.90103	  2.70459	  2.35848	  2.08312	  3.11513	  0.00810	  4.91613	705.06702	 22.50	
  3.400	-41.398	  4.90094	  2.91002	  2.17720	  2.19620	  2.98145	  0.00931	  4.91304	705.01202	 22.50	
  3.401	-14.021	  4.90859	  3.03216	  2.08352	  2.39146	  2.77428	  0.01184	  4.92122	705.06000	 22.50	
  3.401	 14.021	  4.91773	  3.04233	  2.08770	  2.63217	  2.54380	  0.01568	  4.92413	704.89801	 22.50	
  3.400	 41.398	  4.90588	  2.92386	  2.18298	  2.83966	  2.34140	  0.01615	  4.91395	705.01001	 22.50	
  3.394	 69.283	  4.91644	  2.72417	  2.37079	  2.98558	  2.23477	  0.01924	  4.92011	706.23901	 22.50	
  3.399	 96.763	  4.89929	  2.48314	  2.58327	  3.00744	  2.21004	  0.02093	  4.90542	705.17401	 22.50	
  3.397	124.529	  4.90261	  2.28169	  2.80814	  2.92051	  2.28096	  0.02204	  4.90774	704.99402	 22.50	
  3.388	152.325	  4.90437	  2.14194	  2.96855	  2.74484	  2.43406	  0.02072	  4.91349	705.07800	 22.50	
  5.099	161.165	  4.89151	  1.85020	  3.23054	  2.73348	  2.38646	  0.00491	  4.92225	705.04401	 22.50	
  5.109	142.013	  4.88220	  1.95469	  3.09771	  2.95121	  2.18206	  0.00660	  4.91079	705.05798	 22.50	
  5.095	123.033	  4.89241	  2.12782	  2.91019	  3.12375	  2.04624	  0.00408	  4.91385	704.99597	 22.50	
  5.105	104.191	  4.88420	  2.33257	  2.67871	  3.22816	  1.95335	  0.00266	  4.90655	704.95398	 22.50	
  5.093	 85.207	  4.89899	  2.58714	  2.43874	  3.25486	  1.94252	  0.00287	  4.91957	705.16699	 22.50	
  5.104	 66.290	  4.89845	  2.82767	  2.20649	  3.18561	  1.98989	  0.00060	  4.92035	705.07501	 22.50	
  5.094	 47.331	  4.89192	  3.04035	  2.01500	  3.04029	  2.10515	  0.00210	  4.91818	706.65100	 22.50	
  5.089	 28.397	  4.88753	  3.19688	  1.87702	  2.83404	  2.27676	  0.00060	  4.91225	706.47302	 22.50	
  5.096	  9.576	  4.87766	  3.27178	  1.79840	  2.59029	  2.49631	 -0.00196	  4.90727	705.95203	 22.50	
  5.096	 -9.576	  4.88036	  3.27060	  1.80146	  2.34730	  2.74458	 -0.00742	  4.91339	705.02698	 22.50	
  5.089	-28.397	  4.87259	  3.17929	  1.86847	  2.12838	  2.97211	 -0.01198	  4.91175	704.94000	 22.50	
  5.094	-47.331	  4.86654	  3.01227	  2.00142	  1.94562	  3.16778	 -0.01532	  4.91041	705.69897	 22.50	
  5.104	-66.290	  4.86987	  2.79771	  2.19686	  1.82759	  3.31648	 -0.01715	  4.91884	706.69299	 22.50	
  5.093	-85.207	  4.86062	  2.54800	  2.42383	  1.76643	  3.37648	 -0.01532	  4.90713	705.73102	 22.50	
  5.105	-104.191	  4.86814	  2.30511	  2.67751	  1.78943	  3.36144	 -0.01099	  4.91664	706.53497	 22.50	
  5.095	-123.033	  4.87197	  2.09319	  2.91178	  1.88506	  3.25351	 -0.00636	  4.91703	705.06702	 22.50	
  5.109	-142.013	  4.87646	  1.93108	  3.10624	  2.04297	  3.07781	 -0.00010	  4.91897	706.64301	 22.50	
  5.099	-161.165	  4.87742	  1.82835	  3.23115	  2.24992	  2.85243	  0.00349	  4.91923	706.63098	 22.50	
  5.100	180.000	  4.88332	  1.80168	  3.27197	  2.48258	  2.62059	  0.00176	  4.92033	706.66498	 22.50	
  6.800	180.000	  4.84147	  1.51678	  3.49925	  2.43916	  2.57187	 -0.02128	  4.92065	706.59802	 22.50	
  6.796	-166.229	  4.82839	  1.53160	  3.46323	  2.20047	  2.80271	 -0.02695	  4.91178	705.06000	 22.50	
  6.808	-152.311	  4.82311	  1.60173	  3.36995	  1.97751	  3.03538	 -0.02633	  4.91263	705.22998	 22.50	
  6.795	-138.383	  4.82093	  1.72167	  3.21951	  1.79290	  3.24454	 -0.02570	  4.91427	704.92297	 22.50	
  6.792	-124.591	  4.82531	  1.88837	  3.03427	  1.64782	  3.41615	 -0.03408	  4.92197	704.96802	 22.50	
  6.787	-110.754	  4.80613	  2.08333	  2.79873	  1.53993	  3.52371	 -0.03491	  4.90493	705.79498	 22.50	
  6.800	-96.985	  4.81090	  2.31194	  2.56333	  1.48534	  3.58826	 -0.04294	  4.90955	706.57202	 22.50	
  6.800	-83.015	  4.81714	  2.56121	  2.31927	  1.48875	  3.59184	 -0.05237	  4.91422	704.83197	 22.50	
  6.787	-69.246	  4.81793	  2.79781	  2.09498	  1.54153	  3.52877	 -0.05367	  4.91325	704.88702	 22.50	
  6.792	-55.409	  4.81071	  3.01915	  1.88532	  1.62962	  3.41094	 -0.04874	  4.90470	704.86102	 22.50	
  6.795	-41.617	  4.81804	  3.21749	  1.72324	  1.77934	  3.24538	 -0.04601	  4.90610	704.73102	 22.50	
  6.808	-27.689	  4.81780	  3.36901	  1.59990	  1.96352	  3.03377	 -0.04471	  4.90226	704.73499	 22.50	
  6.796	-13.771	  4.83400	  3.47397	  1.52883	  2.18550	  2.81257	 -0.03841	  4.91601	704.87000	 22.50	
  6.800	  0.000	  4.82903	  3.50175	  1.50176	  2.41534	  2.56708	 -0.03431	  4.90377	704.82098	 22.50	
  6.796	 13.771	  4.84766	  3.48439	  1.53520	  2.66689	  2.34417	 -0.03346	  4.92084	704.90100	 22.50	
  6.808	 27.689	  4.83452	  3.38830	  1.60398	  2.89326	  2.12111	 -0.02805	  4.90182	704.88300	 22.50	
  6.795	 41.617	  4.85833	  3.25413	  1.74070	  3.11472	  1.94594	 -0.02191	  4.91672	705.80402	 22.50	
  6.792	 55.409	  4.86325	  3.06722	  1.90627	  3.29094	  1.80757	 -0.02228	  4.92429	704.72601	 22.50	
  6.787	 69.246	  4.86565	  2.84718	  2.10841	  3.41003	  1.71484	 -0.02147	  4.91850	704.76801	 22.40	
  6.800	 83.015	  4.86124	  2.60312	  2.33358	  3.47874	  1.65881	 -0.02103	  4.91835	704.75702	 22.40	
  6.800	 96.985	  4.86055	  2.35924	  2.57379	  3.47850	  1.66678	 -0.02396	  4.91842	704.83899	 22.40	
  6.787	110.754	  4.85412	  2.13200	  2.80586	  3.40877	  1.71513	 -0.02474	  4.90980	704.79602	 22.40	
  6.792	124.591	  4.86056	  1.92947	  3.03619	  3.29857	  1.81076	 -0.02128	  4.92073	704.83801	 22.40	
  6.795	138.383	  4.84995	  1.76318	  3.22057	  3.12285	  1.95063	 -0.02022	  4.91409	704.86401	 22.40	
  6.808	152.311	  4.85419	  1.63017	  3.37615	  2.92167	  2.12869	 -0.02156	  4.92292	704.82703	 22.40	
  6.796	166.229	  4.83664	  1.54568	  3.46062	  2.68009	  2.33378	 -0.01948	  4.91343	704.83801	 22.40	
  8.491	168.704	  4.77900	  1.25205	  3.67910	  2.63238	  2.26695	 -0.04902	  4.91335	704.87500	 22.40	
  8.502	157.493	  4.78439	  1.32068	  3.60576	  2.87181	  2.04984	 -0.05312	  4.91581	704.80402	 22.40	
  8.494	146.194	  4.79768	  1.43086	  3.48248	  3.10520	  1.85388	 -0.05452	  4.92286	706.36700	 22.40	
  8.495	135.039	  4.79655	  1.57096	  3.31222	  3.30312	  1.68702	 -0.05195	  4.91648	704.76202	 22.40	
  8.487	123.723	  4.80375	  1.74911	  3.11139	  3.47519	  1.55255	 -0.05749	  4.91755	704.71198	 22.40	
  8.492	112.575	  4.80512	  1.95463	  2.88397	  3.59697	  1.45079	 -0.06327	  4.91767	706.37500	 22.40	
  8.510	101.220	  4.79973	  2.17727	  2.63807	  3.67316	  1.38307	 -0.06547	  4.91278	704.71399	 22.40	
  8.500	 90.000	  4.80417	  2.42367	  2.39214	  3.69579	  1.36903	 -0.05896	  4.91534	704.60400	 22.40	
  8.510	 78.780	  4.80450	  2.67253	  2.14871	  3.67053	  1.38428	 -0.05662	  4.91306	704.55200	 22.40	
  8.492	 67.425	  4.80303	  2.91926	  1.92018	  3.59138	  1.44350	 -0.05659	  4.91602	706.34399	 22.40	
  8.487	 56.277	  4.81290	  3.15011	  1.72340	  3.46618	  1.55141	 -0.05455	  4.92554	704.70099	 22.40	
  8.495	 44.961	  4.79922	  3.34537	  1.54162	  3.29044	  1.67806	 -0.05643	  4.91881	704.68103	 22.40	
  8.494	 33.806	  4.79605	  3.50862	  1.40830	  3.08256	  1.85449	 -0.05759	  4.91817	704.58801	 22.40	
  8.502	 22.507	  4.79903	  3.63978	  1.29635	  2.86163	  2.05346	 -0.06777	  4.92588	706.11902	 22.40	
  8.491	 11.296	  4.77572	  3.69069	  1.23636	  2.60486	  2.26998	 -0.06900	  4.90549	706.36102	 22.40	
  8.500	  0.000	  4.77179	  3.71907	  1.20814	  2.35419	  2.51093	 -0.06525	  4.90875	706.25098	 22.40	
  8.491	-11.296	  4.77781	  3.69274	  1.23366	  2.11840	  2.76061	 -0.07196	  4.91944	706.26001	 22.40	
  8.502	-22.507	  4.77378	  3.61300	  1.29337	  1.89266	  2.99792	 -0.07865	  4.92298	706.35199	 22.40	
  8.494	-33.806	  4.76318	  3.47760	  1.39297	  1.68534	  3.22369	 -0.08162	  4.91599	706.21997	 22.40	
  8.495	-44.961	  4.75421	  3.30299	  1.53189	  1.50652	  3.41915	 -0.08270	  4.91099	706.31799	 22.40	
  8.487	-56.277	  4.75477	  3.09744	  1.70823	  1.37313	  3.58168	 -0.08899	  4.91553	706.31299	 22.40	
  8.492	-67.425	  4.75101	  2.86916	  1.90581	  1.27586	  3.69722	 -0.09672	  4.91359	706.37701	 22.40	
  8.510	-78.780	  4.74794	  2.61903	  2.13657	  1.20827	  3.77730	 -0.09711	  4.91443	705.79498	 22.40	
  8.500	-90.000	  4.75987	  2.37732	  2.38709	  1.19389	  3.81203	 -0.09148	  4.92847	706.29102	 22.40	
  8.510	-101.220	  4.74735	  2.12830	  2.62820	  1.21114	  3.78079	 -0.08027	  4.91486	704.90100	 22.40	
  8.492	-112.575	  4.74989	  1.90148	  2.87487	  1.27828	  3.69943	 -0.07242	  4.91613	706.26501	 22.40	
  8.487	-123.723	  4.74817	  1.69526	  3.10372	  1.38242	  3.57267	 -0.06831	  4.91115	706.28497	 22.40	
  8.495	-135.039	  4.74621	  1.52098	  3.30293	  1.52248	  3.40730	 -0.06422	  4.90976	705.96899	 22.40	
  8.494	-146.194	  4.76003	  1.39522	  3.47430	  1.70045	  3.21418	 -0.05506	  4.91511	706.30103	 22.40	
  8.502	-157.493	  4.76388	  1.29669	  3.60213	  1.90732	  2.98910	 -0.05714	  4.91737	706.24902	 22.40	
  8.491	-168.704	  4.77097	  1.24182	  3.68128	  2.13497	  2.75410	 -0.05870	  4.91591	706.25897	 22.40	
  8.500	180.000	  4.76618	  1.22496	  3.69813	  2.37689	  2.50603	 -0.05380	  4.90812	706.23102	 22.40	
 10.200	180.000	  4.68692	  0.93100	  3.89558	  2.30541	  2.42937	 -0.09463	  4.90667	706.25702	 22.40	
 10.191	-170.497	  4.68403	  0.93649	  3.87929	  2.05476	  2.67805	 -0.09817	  4.91426	706.29901	 22.40	
 10.210	-161.034	  4.67710	  0.98278	  3.81338	  1.82247	  2.92094	 -0.10016	  4.91183	706.25403	 22.40	
 10.194	-151.526	  4.66748	  1.06540	  3.69440	  1.60285	  3.15418	 -0.09251	  4.90862	705.35699	 22.40	
 10.190	-142.105	  4.65862	  1.17466	  3.54545	  1.40707	  3.36904	 -0.09143	  4.90408	706.27301	 22.40	
 10.215	-132.646	  4.66440	  1.31778	  3.37619	  1.24229	  3.56637	 -0.09691	  4.91773	706.31598	 22.30	
 10.203	-123.092	  4.66395	  1.50225	  3.16035	  1.10809	  3.73159	 -0.10485	  4.91537	705.50000	 22.30	
 10.192	-113.678	  4.65687	  1.70214	  2.92725	  1.00418	  3.85229	 -0.11164	  4.90951	704.77600	 22.30	
 10.208	-104.249	  4.65084	  1.92030	  2.68126	  0.93087	  3.93649	 -0.11901	  4.90589	706.35602	 22.30	
 10.210	-94.801	  4.65200	  2.16175	  2.42559	  0.89413	  3.98384	 -0.12860	  4.90854	706.23401	 22.30	
 10.210	-85.199	  4.65986	  2.41558	  2.18051	  0.89182	  3.99115	 -0.14086	  4.91614	706.14697	 22.30	
 10.208	-75.751	  4.66535	  2.67376	  1.93941	  0.92290	  3.95494	 -0.13902	  4.92273	706.27002	 22.30	
 10.192	-66.322	  4.67384	  2.91789	  1.72544	  1.00556	  3.86594	 -0.13819	  4.92276	706.23401	 22.30	
 10.203	-56.908	  4.66136	  3.14599	  1.51370	  1.09912	  3.73072	 -0.12714	  4.90796	706.33801	 22.30	
 10.215	-47.354	  4.66958	  3.36521	  1.33182	  1.23055	  3.57658	 -0.12395	  4.91149	706.15802	 22.30	
 10.190	-37.895	  4.67213	  3.54629	  1.19046	  1.39718	  3.37902	 -0.11771	  4.91224	706.21503	 22.30	
 10.194	-28.474	  4.67857	  3.69747	  1.07390	  1.58469	  3.16800	 -0.11475	  4.91001	706.38300	 22.30	
 10.210	-18.966	  4.67638	  3.81365	  0.97974	  1.80062	  2.92480	 -0.11274	  4.90319	706.27698	 22.30	
 10.191	 -9.503	  4.68802	  3.88617	  0.93427	  2.03541	  2.68573	 -0.10535	  4.91028	706.33002	 22.30	
 10.200	  0.000	  4.69737	  3.91658	  0.92150	  2.28124	  2.44173	 -0.10373	  4.91323	706.18701	 22.30	
 10.191	  9.503	  4.70858	  3.90193	  0.94064	  2.53966	  2.19830	 -0.10434	  4.91685	706.28003	 22.30	
 10.210	 18.966	  4.71455	  3.85002	  0.98714	  2.78995	  1.97024	 -0.10928	  4.92140	706.20001	 22.30	
 10.194	 28.474	  4.72295	  3.74253	  1.08149	  3.03629	  1.75838	 -0.10088	  4.92364	706.27399	 22.30	
 10.190	 37.895	  4.71665	  3.59444	  1.19584	  3.24963	  1.56856	 -0.08871	  4.91292	706.27301	 22.30	
 10.215	 47.354	  4.72264	  3.41861	  1.34098	  3.45383	  1.40191	 -0.08858	  4.91353	706.21997	 22.30	
 10.203	 56.908	  4.73099	  3.21050	  1.52749	  3.62363	  1.27997	 -0.09057	  4.91877	706.15198	 22.30	
 10.192	 66.322	  4.73839	  2.98238	  1.73272	  3.75628	  1.18480	 -0.09181	  4.92271	706.21802	 22.30	
 10.208	 75.751	  4.73757	  2.74008	  1.95538	  3.84705	  1.11347	 -0.09000	  4.92296	706.17798	 22.30	
 10.210	 85.199	  4.73500	  2.48770	  2.19125	  3.89564	  1.07539	 -0.09380	  4.91809	706.09698	 22.30	
 10.210	 94.801	  4.72996	  2.23429	  2.43817	  3.89059	  1.08145	 -0.10582	  4.91328	706.11798	 22.30	
 10.208	104.249	  4.73561	  1.99499	  2.69444	  3.85439	  1.11536	 -0.11058	  4.91926	706.20300	 22.30	
 10.192	113.678	  4.71296	  1.76534	  2.92472	  3.75062	  1.18110	 -0.10385	  4.89832	706.17798	 22.30	
 10.203	123.092	  4.72124	  1.55985	  3.16452	  3.63147	  1.27941	 -0.09750	  4.90901	706.30103	 22.30	
 10.215	132.646	  4.72162	  1.37634	  3.38130	  3.47104	  1.41056	 -0.09298	  4.91570	706.19501	 22.30	
 10.190	142.105	  4.72027	  1.22620	  3.56251	  3.27427	  1.57338	 -0.09256	  4.91929	706.02100	 22.30	
 10.194	151.526	  4.72258	  1.11143	  3.71287	  3.05703	  1.76161	 -0.09325	  4.92576	706.28198	 22.30	
 10.210	161.034	  4.71154	  1.01501	  3.81833	  2.81402	  1.96684	 -0.08809	  4.91898	705.69397	 22.30	
 10.191	170.497	  4.70748	  0.95487	  3.88599	  2.56624	  2.19575	 -0.08701	  4.92093	706.32397	 22.30	
 11.899	171.783	  4.60665	  0.66131	  4.06575	  2.48211	  2.10568	 -0.12611	  4.91747	706.32898	 22.30	
 11.890	163.610	  4.61093	  0.70674	  4.00915	  2.73030	  1.87864	 -0.12770	  4.91686	706.35999	 22.30	
 11.889	155.445	  4.62517	  0.78351	  3.92278	  2.98134	  1.66606	 -0.12980	  4.92615	706.23499	 22.30	
 11.909	147.299	  4.62905	  0.88753	  3.79525	  3.21933	  1.46417	 -0.12982	  4.92652	706.12402	 22.30	
 11.902	139.148	  4.63325	  1.02548	  3.62801	  3.43130	  1.29571	 -0.13100	  4.92291	706.15503	 22.30	
 11.894	130.867	  4.63413	  1.18489	  3.43032	  3.61945	  1.14437	 -0.13148	  4.91994	706.16400	 22.30	
 11.897	122.732	  4.64072	  1.36837	  3.21803	  3.78799	  1.01551	 -0.13940	  4.92294	706.20001	 22.30	
 11.903	114.597	  4.63047	  1.56869	  2.98032	  3.90700	  0.91485	 -0.14620	  4.90826	706.23901	 22.30	
 11.893	106.346	  4.63835	  1.79631	  2.73499	  4.00165	  0.84568	 -0.15340	  4.91350	706.37000	 22.30	
 11.892	 98.155	  4.65300	  2.04053	  2.48733	  4.07008	  0.80308	 -0.15280	  4.92605	706.15503	 22.30	
 11.900	 90.000	  4.64144	  2.28201	  2.23012	  4.07909	  0.78439	 -0.14276	  4.91815	706.24298	 22.20	
 11.892	 81.845	  4.63691	  2.53030	  1.98341	  4.05345	  0.79598	 -0.13512	  4.91166	706.27600	 22.30	
 11.893	 73.654	  4.64784	  2.78883	  1.75063	  4.00167	  0.84213	 -0.13049	  4.92407	706.25403	 22.20	
 11.903	 65.403	  4.64058	  3.02890	  1.52665	  3.90122	  0.91078	 -0.12696	  4.91650	706.45398	 22.30	
 11.897	 57.268	  4.63686	  3.25893	  1.32794	  3.76134	  1.01286	 -0.12236	  4.91489	706.32098	 22.20	
 11.894	 49.133	  4.63526	  3.47591	  1.14994	  3.59530	  1.14140	 -0.12378	  4.91682	706.34698	 22.20	
 11.902	 40.852	  4.62145	  3.65381	  0.98912	  3.39906	  1.28615	 -0.12364	  4.90963	706.29303	 22.20	
 11.909	 32.701	  4.62205	  3.81793	  0.86276	  3.18486	  1.46227	 -0.13380	  4.91314	706.28400	 22.20	
 11.889	 24.555	  4.61648	  3.94143	  0.76266	  2.94908	  1.66404	 -0.14107	  4.91305	706.31799	 22.20	
 11.890	 16.390	  4.61752	  4.03705	  0.68990	  2.70470	  1.88284	 -0.14804	  4.92328	706.33899	 22.20	
 11.899	  8.217	  4.60815	  4.08655	  0.64228	  2.45295	  2.11194	 -0.14516	  4.91593	706.23499	 22.20	
 11.900	  0.000	  4.61012	  4.10901	  0.62706	  2.20019	  2.36032	 -0.14292	  4.92713	706.31097	 22.20	
 11.899	 -8.217	  4.59944	  4.07898	  0.64117	  1.95217	  2.60652	 -0.13791	  4.92019	706.26001	 22.20	
 11.890	-16.390	  4.58559	  4.01157	  0.67958	  1.71556	  2.84503	 -0.14440	  4.91097	706.06500	 22.20	
 11.889	-24.555	  4.60085	  3.92112	  0.75925	  1.49935	  3.10381	 -0.14836	  4.93180	706.12701	 22.20	
 11.909	-32.701	  4.57370	  3.77328	  0.85199	  1.28921	  3.31398	 -0.15432	  4.90973	706.11102	 22.20	
 11.902	-40.852	  4.58103	  3.61324	  0.98279	  1.11707	  3.53252	 -0.15564	  4.91878	706.16302	 22.20	
 11.894	-49.133	  4.57284	  3.41246	  1.13726	  0.96092	  3.71810	 -0.15879	  4.91524	706.06500	 22.20	
 11.897	-57.268	  4.57177	  3.19732	  1.31585	  0.82878	  3.88191	 -0.16768	  4.92354	706.15002	 22.20	
 11.903	-65.403	  4.56472	  2.95660	  1.51835	  0.73034	  4.00137	 -0.17255	  4.91575	706.14203	 22.20	
 11.893	-73.654	  4.56176	  2.70759	  1.73905	  0.65924	  4.09381	 -0.17761	  4.91620	706.23102	 22.20	
 11.892	-81.845	  4.55840	  2.45204	  1.97525	  0.61732	  4.14907	 -0.17982	  4.91756	706.26599	 22.20	
 11.900	-90.000	  4.54881	  2.19634	  2.22003	  0.59839	  4.15985	 -0.17643	  4.90924	706.33801	 22.20	
 11.892	-98.155	  4.55684	  1.95568	  2.46941	  0.61746	  4.14787	 -0.16711	  4.91619	706.39203	 22.20	
 11.893	-106.346	  4.55859	  1.72103	  2.72390	  0.66152	  4.09034	 -0.15691	  4.91768	706.25897	 22.20	
 11.903	-114.597	  4.55296	  1.49829	  2.96670	  0.73100	  3.99585	 -0.15028	  4.91169	706.22302	 22.20	
 11.897	-122.732	  4.56671	  1.30151	  3.20906	  0.83762	  3.87618	 -0.14139	  4.92437	706.14899	 22.20	
 11.894	-130.867	  4.55966	  1.12338	  3.41478	  0.97010	  3.70466	 -0.13658	  4.91284	706.25299	 22.20	
 11.902	-139.148	  4.56807	  0.97217	  3.61358	  1.12646	  3.52207	 -0.13141	  4.91917	706.23102	 22.20	
 11.909	-147.299	  4.56687	  0.84710	  3.77356	  1.30761	  3.30451	 -0.13519	  4.91211	706.24298	 22.20	
 11.889	-155.445	  4.57811	  0.75016	  3.90813	  1.51434	  3.08347	 -0.13734	  4.91696	706.32397	 22.20	
 11.890	-163.610	  4.57883	  0.68659	  3.99980	  1.73612	  2.83651	 -0.14155	  4.90949	706.33600	 22.20	
 11.899	-171.783	  4.59183	  0.64192	  4.07008	  1.97414	  2.59824	 -0.14018	  4.92090	706.29602	 22.20	
 11.900	180.000	  4.59919	  0.64146	  4.08489	  2.22369	  2.35210	 -0.13434	  4.91653	706.30103	 22.20	
 13.600	180.000	  4.48024	  0.34425	  4.25068	  2.12328	  2.25313	 -0.17572	  4.91767	706.21802	 22.20	
 13.608	-172.853	  4.46877	  0.34635	  4.23318	  1.87998	  2.49184	 -0.18039	  4.91667	706.21997	 22.20	
 13.611	-165.583	  4.46467	  0.38082	  4.18104	  1.63900	  2.74002	 -0.18282	  4.91847	706.20801	 22.20	
 13.601	-158.353	  4.46179	  0.44158	  4.09648	  1.41160	  2.98701	 -0.18412	  4.91741	706.15900	 22.20	
 13.609	-151.210	  4.45406	  0.52260	  3.97652	  1.20212	  3.22239	 -0.17670	  4.91913	706.21100	 22.20	
 13.611	-143.999	  4.44906	  0.62513	  3.83009	  1.01074	  3.44174	 -0.16732	  4.91725	706.09003	 22.20	
 13.601	-136.825	  4.44188	  0.75727	  3.65379	  0.84019	  3.64474	 -0.16546	  4.91477	706.27002	 22.20	
 13.596	-129.640	  4.44378	  0.91435	  3.45353	  0.69042	  3.83488	 -0.16643	  4.92171	706.13202	 22.20	
 13.611	-122.431	  4.43085	  1.08500	  3.23193	  0.56452	  3.98579	 -0.17268	  4.91171	706.03198	 22.20	
 13.604	-115.211	  4.42463	  1.28132	  2.99726	  0.46762	  4.10507	 -0.18012	  4.90737	706.08801	 22.20	
 13.595	-108.042	  4.44270	  1.50730	  2.75681	  0.39661	  4.22252	 -0.19074	  4.92570	706.21399	 22.20	
 13.607	-100.793	  4.43297	  1.72999	  2.50144	  0.33895	  4.28529	 -0.19783	  4.91851	706.14099	 22.20	
 13.601	-93.617	  4.43981	  1.97419	  2.25425	  0.31594	  4.32131	 -0.20533	  4.92439	706.07098	 22.20	
 13.601	-86.383	  4.43744	  2.22816	  1.99726	  0.30787	  4.32456	 -0.20814	  4.91937	706.10498	 22.20	
 13.607	-79.207	  4.44530	  2.48547	  1.75651	  0.33505	  4.29721	 -0.20452	  4.92695	706.11902	 22.20	
 13.595	-71.958	  4.43784	  2.72851	  1.52352	  0.38469	  4.22072	 -0.20040	  4.91239	706.19501	 22.20	
 13.604	-64.789	  4.44883	  2.98111	  1.31323	  0.46177	  4.12835	 -0.19508	  4.92143	706.23901	 22.20	
 13.611	-57.569	  4.44875	  3.21860	  1.10820	  0.55461	  4.00292	 -0.19492	  4.92164	706.00702	 22.20	
 13.596	-50.360	  4.45111	  3.43961	  0.93544	  0.67986	  3.84516	 -0.18529	  4.91948	706.13501	 22.20	
 13.601	-43.175	  4.46172	  3.64354	  0.78037	  0.82814	  3.66659	 -0.18387	  4.92206	706.09399	 22.20	
 13.611	-36.001	  4.46144	  3.81977	  0.64320	  0.99559	  3.45560	 -0.18256	  4.91393	706.14697	 22.20	
 13.609	-28.790	  4.47053	  3.97683	  0.53247	  1.18346	  3.23896	 -0.18120	  4.92110	706.17297	 22.20	
 13.601	-21.647	  4.47858	  4.09956	  0.45013	  1.38923	  3.00959	 -0.17447	  4.92188	706.25702	 22.20	
 13.611	-14.417	  4.47093	  4.18273	  0.38338	  1.61385	  2.74979	 -0.17311	  4.91370	706.14398	 22.20	
 13.608	 -7.147	  4.49344	  4.25365	  0.34780	  1.85737	  2.50745	 -0.16864	  4.92820	706.15002	 22.20	
 13.600	  0.000	  4.49309	  4.26917	  0.33712	  2.10203	  2.25840	 -0.16953	  4.92359	706.05200	 22.20	
 13.608	  7.147	  4.49758	  4.25811	  0.35086	  2.35481	  2.01416	 -0.17783	  4.92282	706.06500	 22.20	
 13.611	 14.417	  4.49936	  4.21153	  0.38600	  2.60694	  1.77915	 -0.18319	  4.91895	706.00098	 22.20	
 13.601	 21.647	  4.50392	  4.13076	  0.44925	  2.85653	  1.55663	 -0.17715	  4.91610	706.03998	 22.20	
 13.609	 28.790	  4.50271	  4.01833	  0.53008	  3.09835	  1.34682	 -0.17160	  4.91317	706.00702	 22.20	
 13.611	 36.001	  4.50701	  3.87526	  0.64360	  3.32255	  1.16701	 -0.16136	  4.91104	706.01398	 22.20	
 13.601	 43.175	  4.51995	  3.70858	  0.78191	  3.53975	  1.00328	 -0.15847	  4.91483	706.00897	 22.20	
 13.596	 50.360	  4.52077	  3.51689	  0.93214	  3.72926	  0.85439	 -0.15486	  4.91864	706.17999	 22.20	
 13.611	 57.569	  4.52948	  3.30431	  1.11431	  3.90036	  0.73067	 -0.15651	  4.92482	706.05701	 22.20	
 13.604	 64.789	  4.52239	  3.06220	  1.31312	  4.02617	  0.63667	 -0.15747	  4.91108	706.10400	 22.20	
 13.595	 71.958	  4.52937	  2.82480	  1.52743	  4.12634	  0.56628	 -0.16607	  4.91360	705.95203	 22.20	
 13.607	 79.207	  4.53401	  2.57113	  1.75914	  4.20664	  0.51599	 -0.17137	  4.91927	706.11102	 22.20	
 13.601	 86.383	  4.53754	  2.31903	  2.00429	  4.24689	  0.49449	 -0.18229	  4.92271	706.09399	 22.20	
 13.601	 93.617	  4.52864	  2.06100	  2.25438	  4.23909	  0.49773	 -0.18833	  4.91103	705.91302	 22.20	
 13.607	100.793	  4.53737	  1.81966	  2.51440	  4.21616	  0.52358	 -0.19156	  4.92405	706.11102	 22.20	
 13.595	108.042	  4.53212	  1.58979	  2.76252	  4.14762	  0.57251	 -0.19124	  4.92009	705.96899	 22.20	
 13.604	115.211	  4.52643	  1.36250	  3.01327	  4.04981	  0.64517	 -0.18425	  4.92121	706.01801	 22.20	
 13.611	122.431	  4.52526	  1.16202	  3.24495	  3.91662	  0.74181	 -0.17890	  4.91931	706.24500	 22.20	
 13.596	129.640	  4.51772	  0.97888	  3.46192	  3.75278	  0.86298	 -0.17302	  4.91433	706.04498	 22.20	
 13.601	136.825	  4.50908	  0.81791	  3.65560	  3.55922	  1.00565	 -0.16679	  4.90804	706.09399	 22.20	
 13.611	143.999	  4.51968	  0.68607	  3.84016	  3.36064	  1.17207	 -0.16734	  4.92227	706.05603	 22.20	
 13.609	151.210	  4.51270	  0.56315	  3.99282	  3.13707	  1.35445	 -0.16364	  4.92392	706.05402	 22.20	
 13.601	158.353	  4.51217	  0.47215	  4.11408	  2.89585	  1.55923	 -0.16635	  4.92857	706.00000	 22.20	
 13.611	165.583	  4.49182	  0.40377	  4.18389	  2.63374	  1.77581	 -0.16759	  4.91625	705.89001	 22.20	
 13.608	172.853	  4.48553	  0.35950	  4.23397	  2.38047	  2.00643	 -0.16741	  4.91323	705.87402	 22.20	
 15.298	173.587	  4.36338	  0.07832	  4.38792	  2.27764	  1.90070	 -0.20511	  4.92391	705.96997	 22.20	
 15.291	167.167	  4.35514	  0.10772	  4.33353	  2.52122	  1.66605	 -0.20235	  4.91050	706.07898	 22.20	
 15.307	160.676	  4.35447	  0.16741	  4.25115	  2.77114	  1.43775	 -0.20486	  4.90073	705.95898	 22.20	
 15.300	154.261	  4.37286	  0.24995	  4.15720	  3.02783	  1.23752	 -0.20055	  4.91595	705.89899	 22.20	
 15.288	147.854	  4.37856	  0.34947	  4.02255	  3.25671	  1.05262	 -0.20179	  4.91184	705.96100	 22.20	
 15.293	141.428	  4.39025	  0.47273	  3.87096	  3.48306	  0.88085	 -0.19553	  4.91786	705.89099	 22.20	
 15.299	134.985	  4.38576	  0.61260	  3.68421	  3.68803	  0.71991	 -0.19816	  4.91619	705.89600	 22.20	
 15.305	128.583	  4.39500	  0.76978	  3.48666	  3.87470	  0.58812	 -0.20727	  4.92121	705.87201	 22.20	
 15.309	122.142	  4.39358	  0.95567	  3.25709	  4.02899	  0.47100	 -0.21209	  4.91360	705.95300	 22.20	
 15.304	115.711	  4.40343	  1.16142	  3.02503	  4.16308	  0.37854	 -0.21498	  4.92048	705.94501	 22.20	
 15.297	109.291	  4.40838	  1.37426	  2.78128	  4.26469	  0.31074	 -0.22071	  4.92133	705.91602	 22.20	
 15.293	102.897	  4.39530	  1.59993	  2.52017	  4.32484	  0.25570	 -0.21558	  4.90346	705.97998	 22.20	
 15.293	 96.458	  4.41167	  1.84188	  2.27542	  4.38508	  0.22278	 -0.21660	  4.92029	706.02399	 22.20	
 15.300	 90.000	  4.40494	  2.08290	  2.02454	  4.39039	  0.21120	 -0.21243	  4.91358	705.94397	 22.20	
 15.293	 83.542	  4.41298	  2.34287	  1.78032	  4.37670	  0.22652	 -0.20346	  4.91859	705.93597	 22.20	
 15.293	 77.103	  4.40886	  2.59208	  1.54138	  4.32313	  0.25557	 -0.20172	  4.91475	705.93103	 22.20	
 15.297	 70.709	  4.40410	  2.83883	  1.31898	  4.24034	  0.30913	 -0.19303	  4.90887	705.95898	 22.20	
 15.304	 64.289	  4.40854	  3.08506	  1.10763	  4.14217	  0.38123	 -0.18887	  4.91922	705.95300	 22.20	
 15.309	 57.858	  4.39934	  3.31595	  0.91053	  4.00743	  0.46715	 -0.18411	  4.91958	705.80298	 22.20	
 15.305	 51.417	  4.39784	  3.53715	  0.73465	  3.84647	  0.58475	 -0.18500	  4.92291	705.99200	 22.20	
 15.299	 45.015	  4.38936	  3.73452	  0.57786	  3.65249	  0.72383	 -0.18556	  4.91288	705.87402	 22.20	
 15.293	 38.572	  4.38643	  3.91206	  0.44220	  3.45219	  0.88118	 -0.18455	  4.91836	705.88202	 22.20	
 15.288	 32.146	  4.38716	  4.07031	  0.32248	  3.22906	  1.05638	 -0.19039	  4.92141	705.83801	 22.20	
 15.300	 25.739	  4.37266	  4.19039	  0.22102	  2.99051	  1.23996	 -0.19449	  4.91073	705.87598	 22.20	
 15.307	 19.324	  4.38087	  4.29912	  0.15229	  2.75185	  1.45497	 -0.19931	  4.92675	705.81799	 22.20	
 15.291	 12.833	  4.37037	  4.36157	  0.10004	  2.49170	  1.67980	 -0.19406	  4.91856	705.85901	 22.20	
 15.298	  6.413	  4.36293	  4.40209	  0.06259	  2.24631	  1.90178	 -0.19922	  4.91835	705.95898	 22.20	
 15.300	  0.000	  4.35938	  4.41040	  0.05396	  1.99114	  2.15260	 -0.18157	  4.91866	705.81201	 22.20	
 15.298	 -6.413	  4.35852	  4.39468	  0.06511	  1.75107	  2.39497	 -0.18379	  4.92346	705.88202	 22.20	
 15.291	-12.833	  4.34707	  4.33713	  0.09627	  1.51005	  2.64184	 -0.18826	  4.91593	705.85199	 22.20	
 15.307	-19.324	  4.33068	  4.25011	  0.14678	  1.27904	  2.88329	 -0.19305	  4.90824	705.95898	 22.20	
 15.300	-25.739	  4.33266	  4.14713	  0.22224	  1.07252	  3.12480	 -0.19265	  4.91436	705.95203	 22.20	
 15.288	-32.146	  4.32561	  4.00513	  0.31553	  0.87986	  3.34782	 -0.19364	  4.90826	705.99200	 22.20	
 15.293	-38.572	  4.31958	  3.83999	  0.43396	  0.70242	  3.56854	 -0.19833	  4.91111	705.94397	 22.20	
 15.299	-45.015	  4.31636	  3.65538	  0.56905	  0.54286	  3.77048	 -0.19983	  4.91199	705.84601	 22.20	
 15.305	-51.417	  4.31344	  3.44926	  0.72878	  0.40979	  3.94533	 -0.20113	  4.91241	705.84497	 22.20	
 15.309	-57.858	  4.30739	  3.22476	  0.90106	  0.29320	  4.09486	 -0.20066	  4.91090	705.77002	 22.20	
 15.304	-64.289	  4.30410	  2.98748	  1.09534	  0.19405	  4.22685	 -0.20924	  4.91343	705.73102	 22.20	
 15.297	-70.709	  4.30019	  2.74295	  1.30800	  0.12435	  4.32593	 -0.20335	  4.91139	705.70300	 22.20	
 15.293	-77.103	  4.29411	  2.48946	  1.52598	  0.07011	  4.39265	 -0.20702	  4.90785	705.75000	 22.20	
 15.293	-83.542	  4.29848	  2.23944	  1.76588	  0.03911	  4.44419	 -0.22134	  4.91709	705.86499	 22.20	
 15.300	-90.000	  4.29947	  1.98655	  2.01629	  0.02956	  4.46115	 -0.21797	  4.91703	705.86902	 22.20	
 15.293	-96.458	  4.28995	  1.73831	  2.25872	  0.03519	  4.44168	 -0.21941	  4.91380	705.78699	 22.20	
 15.293	-102.897	  4.29767	  1.50386	  2.51718	  0.07170	  4.40368	 -0.22087	  4.92371	705.88501	 22.20	
 15.297	-109.291	  4.29177	  1.28062	  2.76466	  0.12518	  4.32571	 -0.21492	  4.91660	705.77802	 22.20	
 15.304	-115.711	  4.30462	  1.07209	  3.01684	  0.19981	  4.23372	 -0.21090	  4.93094	705.76703	 22.20	
 15.309	-122.142	  4.29026	  0.87094	  3.23824	  0.29497	  4.09068	 -0.21069	  4.91215	705.77197	 22.20	
 15.305	-128.583	  4.29447	  0.70022	  3.46356	  0.41862	  3.93078	 -0.19971	  4.91021	705.77197	 22.30	
 15.299	-134.985	  4.28975	  0.54326	  3.65834	  0.54821	  3.74847	 -0.20502	  4.90040	705.77802	 22.30	
 15.293	-141.428	  4.30659	  0.41473	  3.85274	  0.71569	  3.56123	 -0.20389	  4.91493	705.66199	 22.30	
 15.288	-147.854	  4.30919	  0.30132	  4.01226	  0.89679	  3.33976	 -0.20697	  4.91108	705.63800	 22.30	
 15.300	-154.261	  4.30751	  0.20904	  4.13972	  1.08995	  3.10713	 -0.21549	  4.90303	705.60303	 22.30	
 15.307	-160.676	  4.32518	  0.13694	  4.25762	  1.30116	  2.87524	 -0.22348	  4.91307	705.51099	 22.30	
 15.291	-167.167	  4.32903	  0.09313	  4.32498	  1.53527	  2.62295	 -0.22377	  4.90931	705.66498	 22.30	
 15.298	-173.587	  4.33308	  0.06386	  4.37422	  1.77091	  2.37977	 -0.21650	  4.90814	705.65399	 22.30	
 15.300	180.000	  4.34048	  0.05357	  4.39258	  2.02022	  2.13437	 -0.20816	  4.91271	705.75500	 22.30	
 17.000	180.000	  4.19229	 -0.21907	  4.51980	  1.90231	  2.01682	 -0.23630	  4.91091	705.67700	 22.30	
 16.990	-174.179	  4.18137	 -0.21678	  4.50398	  1.65535	  2.25772	 -0.24234	  4.90594	705.76398	 22.30	
 17.009	-168.383	  4.17301	 -0.19550	  4.46058	  1.42061	  2.49704	 -0.24799	  4.90591	705.75800	 22.30	
 17.000	-162.596	  4.18152	 -0.14687	  4.40390	  1.20018	  2.75417	 -0.24460	  4.92000	705.74103	 22.30	
 16.990	-156.759	  4.16212	 -0.09166	  4.29730	  0.97873	  2.98706	 -0.24034	  4.90695	705.71600	 22.30	
 16.995	-150.919	  4.15724	 -0.00920	  4.17626	  0.78110	  3.22300	 -0.23882	  4.90740	705.76202	 22.30	
 16.988	-145.161	  4.15621	  0.08842	  4.03291	  0.59889	  3.44861	 -0.23958	  4.91387	705.63202	 22.30	
 17.014	-139.343	  4.15699	  0.20471	  3.87074	  0.42909	  3.66534	 -0.23385	  4.92257	705.78601	 22.30	
 17.007	-133.546	  4.14643	  0.34270	  3.67407	  0.28215	  3.85280	 -0.23067	  4.91523	705.62097	 22.30	
 17.001	-127.699	  4.13845	  0.49069	  3.46658	  0.15058	  4.02271	 -0.23481	  4.91389	705.74103	 22.30	
 17.006	-121.937	  4.14131	  0.66710	  3.24297	  0.03992	  4.17950	 -0.23272	  4.91310	705.71100	 22.30	
 17.002	-116.134	  4.13919	  0.86013	  3.01275	 -0.05367	  4.31248	 -0.23092	  4.91473	705.66498	 22.30	
 17.001	-110.310	  4.13681	  1.05947	  2.76771	 -0.13734	  4.42282	 -0.23701	  4.91882	705.72803	 22.30	
 16.988	-104.517	  4.14941	  1.27737	  2.53415	 -0.18414	  4.50435	 -0.23173	  4.92966	705.60101	 22.30	
 17.008	-98.662	  4.14090	  1.51056	  2.27134	 -0.22392	  4.55274	 -0.22159	  4.91756	705.65698	 22.30	
 16.996	-92.909	  4.14120	  1.74044	  2.02927	 -0.24215	  4.57320	 -0.22161	  4.91493	705.62299	 22.30	
 16.996	-87.091	  4.13722	  1.98565	  1.77654	 -0.24547	  4.57352	 -0.20824	  4.91146	705.61700	 22.30	
 17.012	-81.253	  4.14015	  2.23609	  1.53532	 -0.23020	  4.55270	 -0.20122	  4.91241	705.74103	 22.30	
 16.988	-75.483	  4.13929	  2.48075	  1.31072	 -0.19221	  4.49589	 -0.19778	  4.90946	705.62097	 22.30	
 17.001	-69.690	  4.14612	  2.73689	  1.09325	 -0.13619	  4.42522	 -0.18808	  4.91291	705.63202	 22.30	
 17.002	-63.866	  4.15132	  2.98171	  0.89007	 -0.06250	  4.32340	 -0.19076	  4.91318	705.57300	 22.30	
 17.006	-58.063	  4.15933	  3.22246	  0.70364	  0.03094	  4.19554	 -0.19831	  4.91644	705.67102	 22.30	
 17.001	-52.301	  4.16371	  3.44571	  0.53137	  0.14246	  4.04197	 -0.19988	  4.91314	705.62402	 22.30	
 17.007	-46.454	  4.16499	  3.65673	  0.36760	  0.26982	  3.86736	 -0.20075	  4.91353	705.51898	 22.30	
 17.014	-40.657	  4.17375	  3.85129	  0.23473	  0.41786	  3.68088	 -0.19971	  4.91994	705.64899	 22.30	
 16.988	-34.839	  4.17628	  4.01988	  0.11670	  0.58041	  3.47196	 -0.20225	  4.91373	705.57300	 22.40	
 16.995	-29.081	  4.18313	  4.16997	  0.01736	  0.76511	  3.24859	 -0.20160	  4.91413	705.52301	 22.40	
 16.990	-23.241	  4.19423	  4.30605	 -0.06923	  0.96605	  3.01373	 -0.20185	  4.92275	705.59497	 22.40	
 17.000	-17.404	  4.18876	  4.39848	 -0.13781	  1.17053	  2.76701	 -0.20022	  4.91514	705.70300	 22.40	
 17.009	-11.617	  4.19924	  4.46999	 -0.17922	  1.39750	  2.52339	 -0.18871	  4.91534	705.67499	 22.30	
 16.990	 -5.821	  4.20064	  4.51123	 -0.20355	  1.62938	  2.27966	 -0.19525	  4.91229	705.67902	 22.30	
 17.000	  0.000	  4.19887	  4.52332	 -0.21489	  1.86946	  2.03092	 -0.18833	  4.90384	705.60999	 22.40	
 16.990	  5.821	  4.20973	  4.52453	 -0.21089	  2.12086	  1.78563	 -0.18971	  4.91230	705.54401	 22.30	
 17.009	 11.617	  4.22451	  4.50169	 -0.18156	  2.37415	  1.56194	 -0.19211	  4.92235	705.54401	 22.30	
 17.000	 17.404	  4.22340	  4.43471	 -0.13343	  2.62323	  1.34308	 -0.19495	  4.91563	705.60303	 22.30	
 16.990	 23.241	  4.23205	  4.34758	 -0.07182	  2.87608	  1.12886	 -0.20517	  4.92046	705.77802	 22.30	
 16.995	 29.081	  4.23068	  4.22744	  0.01208	  3.11069	  0.93280	 -0.20384	  4.91517	705.65399	 22.30	
 16.988	 34.839	  4.24132	  4.09192	  0.11766	  3.34250	  0.76186	 -0.20197	  4.91733	705.65503	 22.30	
 17.014	 40.657	  4.24066	  3.92636	  0.23615	  3.56023	  0.58858	 -0.20137	  4.91418	705.78601	 22.40	
 17.007	 46.454	  4.23355	  3.73659	  0.36601	  3.75015	  0.44349	 -0.20201	  4.90214	705.75800	 22.40	
 17.001	 52.301	  4.25464	  3.54237	  0.53065	  3.94548	  0.31532	 -0.20472	  4.91871	705.60699	 22.30	
 17.006	 58.063	  4.25299	  3.32190	  0.70042	  4.09878	  0.20949	 -0.20825	  4.91508	705.67999	 22.40	
 17.002	 63.866	  4.26751	  3.09434	  0.89330	  4.24582	  0.11737	 -0.21020	  4.92420	705.56799	 22.40	
 17.001	 69.690	  4.26377	  2.85073	  1.09085	  4.35586	  0.03919	 -0.21553	  4.92229	705.54199	 22.40	
 16.988	 75.483	  4.26084	  2.59971	  1.30891	  4.43268	 -0.01409	 -0.21639	  4.91421	705.60303	 22.30	
 17.012	 81.253	  4.26635	  2.35267	  1.53202	  4.49799	 -0.05830	 -0.21980	  4.92330	705.50800	 22.30	
 16.996	 87.091	  4.26063	  2.09735	  1.77374	  4.51930	 -0.07084	 -0.21727	  4.91460	705.68298	 22.40	
 16.996	 92.909	  4.26585	  1.84956	  2.02283	  4.52999	 -0.07236	 -0.21811	  4.92125	705.77301	 22.40	
 17.008	 98.662	  4.26582	  1.61374	  2.26981	  4.50322	 -0.05228	 -0.22396	  4.92032	705.71698	 22.40	
 16.988	104.517	  4.25822	  1.37856	  2.52154	  4.44377	 -0.01281	 -0.22772	  4.91196	705.65399	 22.40	
 17.001	110.310	  4.25981	  1.15082	  2.77994	  4.37342	  0.03961	 -0.22549	  4.91979	705.54199	 22.40	
 17.002	116.134	  4.26147	  0.94123	  3.03084	  4.26859	  0.11950	 -0.22762	  4.92533	705.57501	 22.40	
 17.006	121.937	  4.25263	  0.75269	  3.25650	  4.12877	  0.21067	 -0.22510	  4.91335	705.63800	 22.40	
 17.001	127.699	  4.25242	  0.56960	  3.48396	  3.97487	  0.31879	 -0.22452	  4.91888	705.55798	 22.30	
 17.007	133.546	  4.24225	  0.40257	  3.69062	  3.79198	  0.44160	 -0.22294	  4.91379	705.48901	 22.40	
 17.014	139.343	  4.24608	  0.26716	  3.88177	  3.59915	  0.58844	 -0.22412	  4.91892	705.55298	 22.40	
 16.988	145.161	  4.23660	  0.14506	  4.04085	  3.37706	  0.75563	 -0.22549	  4.91381	705.66199	 22.30	
 16.995	150.919	  4.22900	  0.03387	  4.19096	  3.14988	  0.92984	 -0.22889	  4.91505	705.52002	 22.40	
 16.990	156.759	  4.23052	 -0.05147	  4.31592	  2.91422	  1.12536	 -0.23164	  4.91883	705.48798	 22.40	
 17.000	162.596	  4.22843	 -0.11903	  4.41491	  2.66705	  1.33468	 -0.22977	  4.92492	705.49701	 22.40	
 17.009	168.383	  4.20300	 -0.17506	  4.46684	  2.40335	  1.54812	 -0.23021	  4.90483	705.65198	 22.30	
 16.990	174.179	  4.20856	 -0.20744	  4.51592	  2.15674	  1.78654	 -0.23305	  4.91770	705.46503	 22.30	
 18.709	174.675	  4.04444	 -0.47095	  4.62947	  2.03298	  1.66030	 -0.25047	  4.91993	705.40100	 22.30	
 18.703	169.441	  4.05090	 -0.43937	  4.59141	  2.28036	  1.43740	 -0.25283	  4.91851	705.52802	 22.30	
 18.691	164.085	  4.06036	 -0.39192	  4.52809	  2.53742	  1.21753	 -0.25423	  4.91718	705.55103	 22.30	
 18.706	158.818	  4.06721	 -0.33826	  4.45272	  2.78014	  1.01166	 -0.25634	  4.92358	705.40399	 22.30	
 18.695	153.537	  4.07105	 -0.25578	  4.33845	  3.02066	  0.82019	 -0.25384	  4.91732	705.53900	 22.30	
 18.704	148.255	  4.08315	 -0.16477	  4.21133	  3.25876	  0.63978	 -0.24997	  4.92215	705.51898	 22.30	
 18.698	142.952	  4.08939	 -0.05465	  4.05857	  3.48826	  0.47154	 -0.24479	  4.92854	705.55298	 22.30	
 18.699	137.625	  4.08503	  0.06866	  3.86977	  3.69048	  0.31614	 -0.24432	  4.91615	705.45203	 22.30	
 18.705	132.343	  4.08973	  0.21585	  3.68012	  3.88178	  0.18608	 -0.23767	  4.91667	705.41302	 22.30	
 18.713	127.067	  4.08838	  0.36595	  3.46901	  4.05583	  0.05816	 -0.23552	  4.91468	705.42102	 22.30	
 18.700	121.794	  4.09817	  0.55019	  3.24882	  4.21435	 -0.04024	 -0.22887	  4.92059	705.40399	 22.30	
 18.698	116.504	  4.09859	  0.73781	  3.01268	  4.34398	 -0.12930	 -0.22528	  4.91842	705.51300	 22.30	
 18.707	111.165	  4.10936	  0.93740	  2.77253	  4.46427	 -0.20802	 -0.21939	  4.92719	705.53101	 22.30	
 18.690	105.863	  4.10133	  1.15180	  2.52090	  4.53285	 -0.26112	 -0.21514	  4.91675	705.60901	 22.30	
 18.696	100.583	  4.10925	  1.38230	  2.27317	  4.59750	 -0.29628	 -0.21159	  4.92058	705.57300	 22.30	
 18.700	 95.309	  4.10934	  1.61119	  2.03218	  4.62589	 -0.31950	 -0.20835	  4.91586	705.54700	 22.30	
 18.700	 90.000	  4.11000	  1.86369	  1.77784	  4.63693	 -0.32864	 -0.21177	  4.91810	705.59003	 22.30	
 18.700	 84.691	  4.11676	  2.11249	  1.54100	  4.62627	 -0.31915	 -0.22110	  4.92317	705.52002	 22.30	
 18.696	 79.417	  4.11376	  2.35284	  1.31004	  4.58603	 -0.29712	 -0.21794	  4.91988	705.47498	 22.30	
 18.690	 74.137	  4.11258	  2.60394	  1.08933	  4.51854	 -0.25475	 -0.22344	  4.91800	705.55298	 22.30	
 18.707	 68.835	  4.11102	  2.85040	  0.87711	  4.43629	 -0.20256	 -0.22768	  4.92397	705.53003	 22.30	
 18.698	 63.496	  4.11536	  3.09545	  0.68468	  4.32638	 -0.12457	 -0.22658	  4.92782	705.43701	 22.30	
 18.700	 58.206	  4.11592	  3.33167	  0.50354	  4.19117	 -0.03332	 -0.22214	  4.93061	705.49103	 22.30	
 18.713	 52.933	  4.10019	  3.54019	  0.33285	  4.02140	  0.07151	 -0.22071	  4.91762	705.51599	 22.30	
 18.705	 47.657	  4.09860	  3.74399	  0.17640	  3.84866	  0.19002	 -0.21839	  4.92183	705.62402	 22.40	
 18.699	 42.375	  4.09835	  3.93602	  0.03864	  3.65457	  0.32426	 -0.21705	  4.92661	705.60602	 22.30	
 18.698	 37.048	  4.09836	  4.11097	 -0.08578	  3.45059	  0.47832	 -0.21062	  4.93452	705.52301	 22.30	
 18.704	 31.745	  4.07872	  4.25050	 -0.19059	  3.21371	  0.64132	 -0.20071	  4.92015	705.48499	 22.40	
 18.695	 26.463	  4.08416	  4.38690	 -0.28044	  2.98707	  0.82838	 -0.19409	  4.93020	705.43298	 22.30	
 18.706	 21.182	  4.06474	  4.47633	 -0.35165	  2.73847	  1.01848	 -0.19217	  4.91670	705.48798	 22.30	
 18.691	 15.915	  4.06621	  4.56248	 -0.41138	  2.49446	  1.23085	 -0.18416	  4.92365	705.58698	 22.30	
 18.703	 10.559	  4.05492	  4.60951	 -0.45176	  2.23737	  1.44782	 -0.18391	  4.91496	705.38501	 22.30	
 18.709	  5.325	  4.05885	  4.65087	 -0.47700	  2.00185	  1.67344	 -0.18724	  4.92798	705.37299	 22.30	
 18.700	  0.000	  4.05182	  4.65099	 -0.48530	  1.75178	  1.90993	 -0.18782	  4.92432	705.46899	 22.30	
 18.709	 -5.325	  4.04954	  4.63943	 -0.48167	  1.51126	  2.15465	 -0.19230	  4.92754	705.39301	 22.30	
 18.703	-10.559	  4.04663	  4.59970	 -0.45428	  1.28551	  2.39765	 -0.19428	  4.93129	705.53101	 22.30	
 18.691	-15.915	  4.03644	  4.52879	 -0.41662	  1.05804	  2.63879	 -0.19696	  4.91999	705.50500	 22.30	
 18.706	-21.182	  4.02517	  4.43376	 -0.36349	  0.84120	  2.88069	 -0.19497	  4.91779	705.57300	 22.30	
 18.695	-26.463	  4.02182	  4.31514	 -0.28698	  0.65220	  3.10840	 -0.19420	  4.91333	705.46802	 22.30	
 18.704	-31.745	  4.01287	  4.17724	 -0.19843	  0.46162	  3.34110	 -0.19315	  4.91343	705.45801	 22.30	
 18.698	-37.048	  4.01399	  4.02664	 -0.09672	  0.29209	  3.55838	 -0.19591	  4.92111	705.59802	 22.30	
 18.699	-42.375	  4.00812	  3.84781	  0.02856	  0.13715	  3.76492	 -0.19443	  4.91805	705.39001	 22.30	
 18.705	-47.657	  4.00499	  3.64754	  0.16564	  0.00072	  3.95434	 -0.19572	  4.92133	705.41602	 22.30	
 18.713	-52.933	  3.99135	  3.43088	  0.31426	 -0.12544	  4.11709	 -0.19486	  4.91091	705.57300	 22.30	
 18.700	-58.206	  3.99213	  3.20732	  0.48716	 -0.23050	  4.27299	 -0.19076	  4.91826	705.37500	 22.30	
 18.698	-63.496	  3.99185	  2.97385	  0.67277	 -0.31243	  4.39572	 -0.18436	  4.91475	705.52002	 22.30	
 18.707	-68.835	  3.98729	  2.72859	  0.86849	 -0.39209	  4.50323	 -0.19023	  4.91934	705.38800	 22.30	
 18.690	-74.137	  3.99400	  2.48525	  1.09116	 -0.43914	  4.59031	 -0.18870	  4.92598	705.36700	 22.30	
 18.696	-79.417	  3.98831	  2.23354	  1.30404	 -0.48387	  4.64898	 -0.18724	  4.92837	705.54401	 22.30	
 18.700	-84.691	  3.98014	  1.98295	  1.53847	 -0.50382	  4.67346	 -0.19650	  4.91818	705.45099	 22.30	
 18.700	-90.000	  3.97826	  1.73843	  1.77868	 -0.51276	  4.68375	 -0.20162	  4.91996	705.47400	 22.30	
 18.700	-95.309	  3.97977	  1.50286	  2.02212	 -0.50591	  4.67705	 -0.20838	  4.92490	705.51898	 22.30	
 18.696	-100.583	  3.97814	  1.27413	  2.26772	 -0.47811	  4.64008	 -0.21985	  4.92357	705.50000	 22.30	
 18.690	-105.863	  3.97981	  1.05392	  2.51835	 -0.43413	  4.58038	 -0.23046	  4.92848	705.46503	 22.30	
 18.707	-111.165	  3.97626	  0.83993	  2.76198	 -0.38345	  4.50148	 -0.23896	  4.92407	705.53101	 22.30	
 18.698	-116.504	  3.97576	  0.64157	  3.00229	 -0.30756	  4.38776	 -0.24254	  4.91965	705.48499	 22.30	
 18.700	-121.794	  3.97276	  0.45685	  3.22963	 -0.22235	  4.26013	 -0.24255	  4.92054	705.44702	 22.30	
 18.713	-127.067	  3.97426	  0.28422	  3.45727	 -0.11584	  4.10741	 -0.24854	  4.91799	705.52698	 22.30	
 18.705	-132.343	  3.98160	  0.13660	  3.66578	  0.00960	  3.93916	 -0.25070	  4.91901	705.45801	 22.30	
 18.699	-137.625	  3.98470	  0.00839	  3.85883	  0.15574	  3.74211	 -0.25249	  4.91543	705.48499	 22.30	
 18.698	-142.952	  3.98724	 -0.11250	  4.02986	  0.30783	  3.54483	 -0.25384	  4.91284	705.46899	 22.30	
 18.704	-148.255	  3.99987	 -0.21601	  4.19749	  0.48282	  3.32893	 -0.24988	  4.92197	705.45502	 22.30	
 18.695	-153.537	  4.01692	 -0.29499	  4.33834	  0.67661	  3.10760	 -0.24992	  4.93253	705.41302	 22.30	
 18.706	-158.818	  4.01727	 -0.37087	  4.44885	  0.87711	  2.86680	 -0.25167	  4.92932	705.35901	 22.30	
 18.691	-164.085	  4.01779	 -0.42473	  4.52821	  1.08357	  2.62604	 -0.25560	  4.92024	705.43701	 22.30	
 18.703	-169.441	  4.02025	 -0.45841	  4.58878	  1.31173	  2.37703	 -0.25136	  4.91663	705.39801	 22.30	
 18.709	-174.675	  4.03171	 -0.47873	  4.62785	  1.54421	  2.13604	 -0.24913	  4.91974	705.39502	 22.30	
 18.700	180.000	  4.03470	 -0.48458	  4.63994	  1.78690	  1.89286	 -0.25070	  4.91942	705.52301	 22.30	
 20.400	180.000	  3.85596	 -0.76191	  4.73104	  1.64567	  1.74860	 -0.25075	  4.91939	705.47699	 22.30	
 20.401	-175.153	  3.85071	 -0.76419	  4.72838	  1.40496	  1.98695	 -0.24435	  4.92745	705.46503	 22.30	
 20.407	-170.264	  3.83193	 -0.74752	  4.68130	  1.17214	  2.22036	 -0.24402	  4.91288	705.36499	 22.30	
 20.410	-165.423	  3.83037	 -0.71875	  4.63414	  0.94852	  2.46652	 -0.24137	  4.92256	705.41302	 22.30	
 20.392	-160.496	  3.82910	 -0.66698	  4.55385	  0.73479	  2.71151	 -0.23853	  4.92064	705.34399	 22.30	
 20.401	-155.705	  3.82198	 -0.61247	  4.45586	  0.53643	  2.94598	 -0.24241	  4.92446	705.38202	 22.30	
 20.405	-150.835	  3.80448	 -0.54299	  4.32523	  0.33975	  3.16983	 -0.24817	  4.91270	705.38202	 22.30	
 20.397	-145.903	  3.81320	 -0.44868	  4.19112	  0.16532	  3.40749	 -0.25426	  4.92695	705.49597	 22.30	
 20.392	-141.062	  3.80396	 -0.34211	  4.02210	  0.00764	  3.61394	 -0.25954	  4.92393	705.38501	 22.30	
 20.396	-136.227	  3.79780	 -0.22545	  3.83783	 -0.14148	  3.80950	 -0.26290	  4.92007	705.31702	 22.30	
 20.408	-131.372	  3.78747	 -0.09656	  3.63833	 -0.28174	  3.99450	 -0.25811	  4.92000	705.34399	 22.30	
 20.410	-126.511	  3.78703	  0.05299	  3.42983	 -0.39537	  4.16388	 -0.25187	  4.91743	705.28802	 22.30	
 20.400	-121.604	  3.78421	  0.21163	  3.20707	 -0.50490	  4.31453	 -0.24662	  4.92320	705.39301	 22.30	
 20.403	-116.741	  3.78479	  0.39478	  2.97419	 -0.58868	  4.44471	 -0.24948	  4.92528	705.27100	 22.30	
 20.413	-111.900	  3.78103	  0.58262	  2.73322	 -0.66410	  4.55549	 -0.23523	  4.92230	705.46899	 22.30	
 20.398	-107.004	  3.76857	  0.78311	  2.47864	 -0.72394	  4.62532	 -0.22650	  4.90711	705.44299	 22.30	
 20.394	-102.132	  3.77715	  1.00456	  2.23568	 -0.77172	  4.70203	 -0.20728	  4.91844	705.32202	 22.30	
 20.403	-97.332	  3.78068	  1.22623	  1.99248	 -0.80152	  4.74950	 -0.19361	  4.92131	705.40900	 22.30	
 20.392	-92.440	  3.78366	  1.46206	  1.74517	 -0.81309	  4.76942	 -0.18849	  4.92308	705.34998	 22.30	
 20.392	-87.560	  3.78453	  1.70395	  1.50276	 -0.81713	  4.77286	 -0.17850	  4.92119	705.46802	 22.30	
 20.403	-82.668	  3.77583	  1.94031	  1.26967	 -0.80258	  4.74236	 -0.17369	  4.90848	705.40399	 22.30	
 20.394	-77.868	  3.78436	  2.18794	  1.04860	 -0.77688	  4.70934	 -0.16873	  4.91521	705.35699	 22.30	
 20.398	-72.996	  3.78770	  2.43955	  0.83040	 -0.73039	  4.64342	 -0.16958	  4.91240	705.42102	 22.30	
 20.413	-68.100	  3.79894	  2.68993	  0.62412	 -0.67674	  4.56806	 -0.17477	  4.92570	705.34198	 22.30	
 20.403	-63.259	  3.80472	  2.93362	  0.43402	 -0.60176	  4.46453	 -0.17289	  4.92448	705.29498	 22.30	
 20.400	-58.396	  3.80611	  3.16983	  0.25237	 -0.51510	  4.33296	 -0.17849	  4.92189	705.46100	 22.30	
 20.410	-53.489	  3.81246	  3.39873	  0.08288	 -0.41963	  4.19263	 -0.18414	  4.92573	705.40198	 22.30	
 20.408	-48.628	  3.80891	  3.60699	 -0.06607	 -0.29684	  4.01081	 -0.18211	  4.91171	705.27197	 22.30	
 20.396	-43.773	  3.81369	  3.80751	 -0.20102	 -0.16414	  3.82652	 -0.18305	  4.90834	705.27502	 22.30	
 20.392	-38.938	  3.83322	  4.00043	 -0.31974	 -0.02008	  3.63965	 -0.18870	  4.92554	705.37000	 22.40	
 20.397	-34.097	  3.83569	  4.16978	 -0.43098	  0.13890	  3.42586	 -0.18209	  4.92659	705.27502	 22.40	
 20.405	-29.165	  3.82695	  4.30796	 -0.52776	  0.31110	  3.19275	 -0.18775	  4.91334	705.15100	 22.40	
 20.401	-24.295	  3.84162	  4.44533	 -0.60591	  0.50325	  2.96825	 -0.18653	  4.92369	705.23297	 22.40	
 20.392	-19.504	  3.84313	  4.54440	 -0.66475	  0.70176	  2.72949	 -0.19051	  4.91795	705.23199	 22.40	
 20.410	-14.577	  3.84410	  4.62473	 -0.71783	  0.91441	  2.47998	 -0.18685	  4.91206	705.27197	 22.40	
 20.407	 -9.736	  3.85191	  4.68618	 -0.75186	  1.13140	  2.24148	 -0.18328	  4.91551	705.26300	 22.40	
 20.401	 -4.847	  3.85559	  4.71919	 -0.76900	  1.36146	  2.00209	 -0.17745	  4.91232	705.20697	 22.40	
 20.400	  0.000	  3.85789	  4.73896	 -0.78282	  1.59576	  1.76131	 -0.17167	  4.91549	705.35901	 22.40	
 20.401	  4.847	  3.85549	  4.72429	 -0.77072	  1.83630	  1.52597	 -0.16750	  4.90433	705.35602	 22.40	
 20.407	  9.736	  3.86703	  4.70239	 -0.74565	  2.08572	  1.29937	 -0.16781	  4.91049	705.39001	 22.40	
 20.410	 14.577	  3.87930	  4.66275	 -0.70925	  2.33619	  1.08935	 -0.16963	  4.91620	705.26801	 22.40	
 20.392	 19.504	  3.87734	  4.58460	 -0.65550	  2.58384	  0.87221	 -0.16723	  4.91278	705.33002	 22.40	
 20.401	 24.295	  3.88784	  4.49572	 -0.59248	  2.82425	  0.68531	 -0.17468	  4.91639	705.37799	 22.40	
 20.405	 29.165	  3.88880	  4.37937	 -0.51404	  3.05842	  0.50048	 -0.18245	  4.90955	705.32599	 22.40	
 20.397	 34.097	  3.89877	  4.24415	 -0.41753	  3.29628	  0.32725	 -0.18933	  4.91840	705.30200	 22.40	
 20.392	 38.938	  3.90733	  4.08665	 -0.30525	  3.51520	  0.17456	 -0.20321	  4.91859	705.22302	 22.40	
 20.396	 43.773	  3.91857	  3.91930	 -0.18523	  3.72977	  0.03103	 -0.21133	  4.92694	705.33398	 22.40	
 20.408	 48.628	  3.91625	  3.72188	 -0.04673	  3.91434	 -0.09703	 -0.22428	  4.91946	705.31897	 22.40	
 20.410	 53.489	  3.92032	  3.52187	  0.09588	  4.09547	 -0.22065	 -0.22030	  4.92750	705.22601	 22.40	
 20.400	 58.396	  3.92297	  3.29583	  0.26212	  4.24717	 -0.31348	 -0.21739	  4.92058	705.24103	 22.40	
 20.403	 63.259	  3.93018	  3.06862	  0.44613	  4.38792	 -0.39633	 -0.22086	  4.92467	705.32599	 22.40	
 20.413	 68.100	  3.93040	  2.83044	  0.64050	  4.49771	 -0.46663	 -0.22446	  4.92121	705.37903	 22.40	
 20.398	 72.996	  3.93206	  2.58687	  0.84400	  4.59212	 -0.52309	 -0.22282	  4.92003	705.25702	 22.40	
 20.394	 77.868	  3.93769	  2.34117	  1.05785	  4.66597	 -0.56409	 -0.21628	  4.92672	705.27802	 22.40	
 20.403	 82.668	  3.92951	  2.09106	  1.27816	  4.70200	 -0.59085	 -0.20638	  4.91356	705.34998	 22.40	
 20.392	 87.560	  3.93483	  1.84455	  1.51336	  4.72632	 -0.60551	 -0.19577	  4.91650	705.32300	 22.40	
 20.392	 92.440	  3.94586	  1.60905	  1.76494	  4.74729	 -0.60770	 -0.19529	  4.93249	705.18402	 22.40	
 20.403	 97.332	  3.93377	  1.36717	  2.00270	  4.71177	 -0.59085	 -0.18637	  4.91775	705.25702	 22.40	
 20.394	102.132	  3.93914	  1.14372	  2.25335	  4.67662	 -0.56034	 -0.19553	  4.92247	705.23602	 22.40	
 20.398	107.004	  3.93298	  0.92210	  2.49928	  4.61220	 -0.51934	 -0.19664	  4.92211	705.31403	 22.40	
 20.413	111.900	  3.92516	  0.70949	  2.74145	  4.52016	 -0.46584	 -0.20127	  4.91393	705.37903	 22.40	
 20.403	116.741	  3.92922	  0.51874	  2.98416	  4.41571	 -0.39050	 -0.21405	  4.91999	705.23602	 22.40	
 20.400	121.604	  3.92096	  0.33175	  3.21525	  4.28284	 -0.30759	 -0.22053	  4.91936	705.33002	 22.40	
 20.410	126.511	  3.90955	  0.15279	  3.43575	  4.12237	 -0.21359	 -0.23783	  4.90951	705.30603	 22.40	
 20.408	131.372	  3.92405	  0.00115	  3.66287	  3.96735	 -0.09311	 -0.23972	  4.92971	705.28802	 22.40	
 20.396	136.227	  3.91128	 -0.13353	  3.85047	  3.76448	  0.03505	 -0.24498	  4.91475	705.50000	 22.40	
 20.392	141.062	  3.90625	 -0.26641	  4.03028	  3.56193	  0.17219	 -0.25063	  4.91730	705.36499	 22.40	
 20.397	145.903	  3.90200	 -0.37667	  4.19294	  3.34966	  0.32606	 -0.25404	  4.91899	705.42603	 22.40	
 20.405	150.835	  3.89860	 -0.48538	  4.34761	  3.11533	  0.49508	 -0.25649	  4.92418	705.23297	 22.40	
 20.401	155.705	  3.89268	 -0.56362	  4.46425	  2.87368	  0.68289	 -0.26134	  4.91972	705.35699	 22.40	
 20.392	160.496	  3.88699	 -0.62762	  4.56470	  2.63783	  0.87336	 -0.25752	  4.92173	705.28497	 22.40	
 20.410	165.423	  3.88170	 -0.68335	  4.64252	  2.38453	  1.08633	 -0.26209	  4.92313	705.32300	 22.40	
 20.407	170.264	  3.86765	 -0.72687	  4.68921	  2.13389	  1.29566	 -0.25500	  4.91724	705.16498	 22.40	
 20.401	175.153	  3.87004	 -0.74893	  4.72698	  1.89410	  1.52469	 -0.25081	  4.92397	705.30298	 22.40	
  0.141	 45.000	  4.91886	  2.59899	  2.57271	  2.58642	  2.68121	  0.03767	  4.91785	705.26001	 22.40	
  4.001	128.691	  4.91952	  2.19578	  2.89445	  2.97761	  2.22981	  0.01619	  4.92986	705.21503	 22.40	
  4.002	 76.995	  4.91819	  2.67451	  2.39865	  3.08864	  2.13410	  0.01489	  4.92364	705.34003	 22.40	
  4.002	 25.892	  4.90784	  3.07938	  2.02926	  2.75750	  2.39731	  0.00942	  4.91564	705.28601	 22.40	
  4.002	-25.892	  4.88925	  3.06053	  2.01983	  2.24689	  2.89144	  0.00557	  4.90453	705.27197	 22.40	
  4.002	-76.995	  4.89514	  2.64936	  2.38733	  1.96585	  3.22369	  0.00218	  4.91913	705.33698	 22.40	
  4.001	-128.691	  4.89591	  2.16541	  2.88896	  2.07406	  3.09954	  0.00895	  4.91732	705.17401	 22.40	
  4.000	180.000	  4.90723	  1.98037	  3.12534	  2.51291	  2.64396	  0.01270	  4.92554	705.23199	 22.40	
  8.000	180.000	  4.79704	  1.30874	  3.64840	  2.39617	  2.52659	 -0.04618	  4.91693	705.27197	 22.40	
  7.991	-152.370	  4.77976	  1.40961	  3.49791	  1.85799	  3.07919	 -0.04811	  4.91283	705.21198	 22.40	
  7.997	-124.550	  4.77460	  1.74277	  3.09541	  1.46326	  3.52589	 -0.05989	  4.91590	705.29102	 22.40	
  8.006	-96.837	  4.77910	  2.25393	  2.54479	  1.28512	  3.74529	 -0.07114	  4.92775	705.33002	 22.40	
  7.988	-69.228	  4.78219	  2.82626	  1.99591	  1.34489	  3.66889	 -0.08501	  4.92145	705.26300	 22.40	
  7.997	-41.563	  4.79905	  3.33580	  1.56348	  1.63043	  3.34635	 -0.06881	  4.93415	705.27100	 22.40	
  8.008	-13.821	  4.80585	  3.62768	  1.33072	  2.10628	  2.82300	 -0.06389	  4.92548	705.39301	 22.40	
  8.008	 13.821	  4.80287	  3.63411	  1.32876	  2.66884	  2.25293	 -0.05874	  4.91339	705.24701	 22.40	
  7.997	 41.563	  4.82784	  3.36687	  1.57047	  3.20382	  1.79985	 -0.04540	  4.92434	705.28003	 22.40	
  7.988	 69.228	  4.82319	  2.87204	  2.00132	  3.55041	  1.51333	 -0.04448	  4.91562	705.37097	 22.40	
  8.006	 96.837	  4.82501	  2.29909	  2.55514	  3.63218	  1.46168	 -0.05291	  4.91565	705.22400	 22.40	
  7.997	124.550	  4.81789	  1.79541	  3.09533	  3.41731	  1.63284	 -0.04431	  4.91431	705.27502	 22.40	
  7.991	152.370	  4.81130	  1.44708	  3.50216	  2.96285	  2.01309	 -0.04238	  4.91910	705.27802	 22.40	
 12.009	161.059	  4.61265	  0.71338	  3.99948	  2.81332	  1.80269	 -0.12838	  4.92409	705.24902	 22.40	
 12.013	142.081	  4.61937	  0.95257	  3.69464	  3.36002	  1.33384	 -0.13106	  4.91824	705.30200	 22.40	
 12.006	123.113	  4.62455	  1.34356	  3.22600	  3.77856	  1.00531	 -0.13833	  4.91002	705.30902	 22.40	
 12.007	104.200	  4.63784	  1.84491	  2.67199	  4.03974	  0.80963	 -0.15879	  4.92038	705.40997	 22.40	
 11.989	 85.301	  4.63827	  2.42598	  2.07912	  4.08149	  0.77347	 -0.13960	  4.91680	705.38800	 22.40	
 12.013	 66.294	  4.63390	  3.00512	  1.53712	  3.92295	  0.88424	 -0.12807	  4.91776	705.25702	 22.40	
 12.012	 47.388	  4.63365	  3.52283	  1.10079	  3.57170	  1.15408	 -0.12885	  4.92576	705.39001	 22.40	
 11.990	 28.440	  4.61613	  3.90123	  0.78988	  3.06427	  1.55299	 -0.13971	  4.91653	705.31702	 22.40	
 11.991	  9.464	  4.60688	  4.09565	  0.62942	  2.48691	  2.06683	 -0.14971	  4.92037	705.34802	 22.40	
 11.991	 -9.464	  4.59215	  4.07902	  0.62918	  1.90542	  2.64405	 -0.14014	  4.91744	705.26801	 22.40	
 11.990	-28.440	  4.58842	  3.86328	  0.78574	  1.38565	  3.21100	 -0.15202	  4.92777	705.30298	 22.40	
 12.012	-47.388	  4.56347	  3.45495	  1.08780	  0.97338	  3.68441	 -0.15681	  4.91263	705.27698	 22.40	
 12.013	-66.294	  4.55763	  2.93296	  1.52483	  0.70251	  4.02430	 -0.17740	  4.91694	705.24902	 22.40	
 11.989	-85.301	  4.54887	  2.34028	  2.07095	  0.59050	  4.16482	 -0.18420	  4.91097	705.26099	 22.40	
 12.007	-104.200	  4.55172	  1.76779	  2.66228	  0.62735	  4.12075	 -0.16533	  4.91820	705.15002	 22.40	
 12.006	-123.113	  4.54587	  1.27253	  3.21670	  0.82234	  3.86621	 -0.14287	  4.91280	705.18799	 22.40	
 12.013	-142.081	  4.56331	  0.89915	  3.68858	  1.17047	  3.45337	 -0.14323	  4.92190	705.25403	 22.40	
 12.009	-161.059	  4.58381	  0.68176	  4.00029	  1.65593	  2.92095	 -0.14403	  4.92790	705.20697	 22.40	
 16.000	180.000	  4.28555	 -0.06240	  4.45161	  1.97029	  2.08895	 -0.22217	  4.91616	705.22900	 22.40	
 15.990	-165.604	  4.27443	 -0.01404	  4.37404	  1.41390	  2.66248	 -0.23560	  4.92296	705.18201	 22.40	
 16.002	-151.165	  4.26575	  0.14358	  4.14156	  0.91439	  3.22790	 -0.22466	  4.92696	705.30603	 22.40	
 16.002	-136.836	  4.23635	  0.39929	  3.75009	  0.49445	  3.72203	 -0.21492	  4.91311	705.30200	 22.40	
 15.995	-122.439	  4.23831	  0.77596	  3.26340	  0.19172	  4.12872	 -0.21887	  4.92171	705.30298	 22.40	
 15.993	-107.966	  4.23604	  1.25199	  2.70119	 -0.00308	  4.39651	 -0.22718	  4.92467	705.31598	 22.40	
 16.005	-93.629	  4.24196	  1.79372	  2.11565	 -0.09234	  4.52478	 -0.22634	  4.93304	705.29999	 22.40	
 15.992	-79.234	  4.24641	  2.37506	  1.55101	 -0.06113	  4.48306	 -0.21399	  4.92425	705.38800	 22.30	
 16.009	-64.774	  4.24721	  2.95881	  1.03183	  0.07024	  4.28921	 -0.20776	  4.91890	705.28601	 22.30	
 15.997	-50.364	  4.27309	  3.50959	  0.61392	  0.33118	  3.96685	 -0.20489	  4.93363	705.30902	 22.30	
 15.997	-36.045	  4.27329	  3.95066	  0.27837	  0.67039	  3.50964	 -0.20645	  4.92376	705.34998	 22.30	
 16.000	-21.597	  4.28005	  4.26458	  0.06274	  1.12482	  2.96706	 -0.19988	  4.91695	705.27802	 22.30	
 16.003	 -7.169	  4.29799	  4.44632	 -0.04576	  1.66192	  2.39089	 -0.19477	  4.92378	705.31097	 22.30	
 16.003	  7.169	  4.30196	  4.44765	 -0.04829	  2.23802	  1.81804	 -0.20017	  4.91559	705.34399	 22.30	
 16.000	 21.597	  4.33261	  4.32160	  0.06897	  2.83199	  1.30635	 -0.20329	  4.93199	705.22302	 22.30	
 15.997	 36.045	  4.34508	  4.02429	  0.29082	  3.38412	  0.85858	 -0.19606	  4.93274	705.22101	 22.30	
 15.997	 50.364	  4.34853	  3.59314	  0.61146	  3.85697	  0.49986	 -0.19516	  4.92872	705.22302	 22.30	
 16.009	 64.774	  4.34795	  3.06394	  1.03573	  4.20221	  0.25426	 -0.20433	  4.92073	705.26801	 22.30	
 15.992	 79.234	  4.35160	  2.48321	  1.55132	  4.40071	  0.12087	 -0.20843	  4.91608	705.18103	 22.30	
 16.005	 93.629	  4.35944	  1.89366	  2.12834	  4.45978	  0.09190	 -0.21994	  4.92712	705.25201	 22.40	
 15.993	107.966	  4.35566	  1.34870	  2.71092	  4.34135	  0.17935	 -0.22593	  4.92716	705.14301	 22.40	
 15.995	122.439	  4.35370	  0.86412	  3.28074	  4.07763	  0.37064	 -0.21821	  4.93279	705.22900	 22.40	
 16.002	136.836	  4.33735	  0.46733	  3.76941	  3.66489	  0.66301	 -0.21083	  4.92547	705.19098	 22.40	
 16.002	151.165	  4.33158	  0.18606	  4.14896	  3.15569	  1.06099	 -0.21503	  4.92990	705.26001	 22.40	
 15.990	165.604	  4.31390	  0.00893	  4.38207	  2.56990	  1.54777	 -0.21521	  4.92872	705.30200	 22.40	
 20.003	168.362	  3.91985	 -0.64375	  4.65590	  2.26031	  1.25797	 -0.25793	  4.92040	705.22900	 22.40	
 20.008	156.764	  3.93199	 -0.51273	  4.46941	  2.83653	  0.77810	 -0.25855	  4.91669	705.39600	 22.40	
 20.000	145.147	  3.95097	 -0.30193	  4.16678	  3.39023	  0.36033	 -0.25400	  4.92212	705.45697	 22.40	
 19.995	133.545	  3.95846	 -0.00147	  3.74623	  3.86325	  0.02579	 -0.24034	  4.91562	705.32501	 22.40	
 20.009	121.926	  3.96819	  0.37380	  3.24232	  4.26544	 -0.24091	 -0.22635	  4.92567	705.32501	 22.40	
 20.005	110.327	  3.97892	  0.82509	  2.68738	  4.54305	 -0.41543	 -0.20475	  4.92901	705.34998	 22.40	
 19.989	 98.733	  3.97560	  1.34019	  2.10404	  4.67989	 -0.51379	 -0.19482	  4.91549	705.40100	 22.40	
 19.999	 87.075	  3.98810	  1.90406	  1.53796	  4.71432	 -0.53490	 -0.20212	  4.93041	705.31097	 22.40	
 19.992	 75.457	  3.97738	  2.47839	  1.00372	  4.60116	 -0.47024	 -0.22263	  4.91495	705.27802	 22.40	
 20.009	 63.844	  3.97460	  3.05001	  0.52543	  4.38471	 -0.33746	 -0.22434	  4.92437	705.31097	 22.40	
 19.989	 52.269	  3.96933	  3.57197	  0.12996	  4.04288	 -0.11518	 -0.22302	  4.92515	705.28302	 22.40	
 19.999	 40.602	  3.96245	  4.03206	 -0.20096	  3.59801	  0.18368	 -0.20703	  4.93132	705.34802	 22.40	
 20.004	 29.051	  3.94376	  4.37731	 -0.45437	  3.07470	  0.55538	 -0.18712	  4.92550	705.26001	 22.40	
 20.005	 17.433	  3.92856	  4.60806	 -0.61355	  2.50626	  1.00885	 -0.17556	  4.91993	705.30298	 22.40	
 20.006	  5.780	  3.90881	  4.70957	 -0.69761	  1.92390	  1.52079	 -0.17171	  4.91473	705.35400	 22.40	
 20.006	 -5.780	  3.90337	  4.69979	 -0.69623	  1.36347	  2.07483	 -0.18056	  4.92040	705.16803	 22.40	
 20.005	-17.433	  3.89067	  4.56496	 -0.62071	  0.83582	  2.65249	 -0.19204	  4.91933	705.22101	 22.40	
 20.004	-29.051	  3.87840	  4.30463	 -0.46429	  0.37220	  3.20352	 -0.19014	  4.91749	705.22101	 22.40	
 19.999	-40.602	  3.87113	  3.93320	 -0.22162	 -0.00655	  3.70316	 -0.18942	  4.91942	705.14697	 22.40	
 19.989	-52.269	  3.86210	  3.45943	  0.10957	 -0.31866	  4.13915	 -0.18415	  4.92608	705.26300	 22.40	
 20.009	-63.844	  3.84866	  2.92089	  0.50932	 -0.54057	  4.45929	 -0.17613	  4.91964	705.14301	 22.40	
 19.992	-75.457	  3.84146	  2.34440	  0.98780	 -0.68047	  4.66334	 -0.17360	  4.91707	705.12903	 22.40	
 19.999	-87.075	  3.83010	  1.76607	  1.51539	 -0.74315	  4.74864	 -0.18300	  4.91785	705.07501	 22.40	
 19.989	-98.733	  3.82838	  1.21309	  2.08754	 -0.71332	  4.71261	 -0.20620	  4.91671	705.14697	 22.40	
 20.005	-110.327	  3.83746	  0.70584	  2.67591	 -0.61720	  4.57791	 -0.23204	  4.93134	705.15100	 22.40	
 20.009	-121.926	  3.83560	  0.26639	  3.22844	 -0.42861	  4.29895	 -0.25406	  4.92501	705.23602	 22.30	
 19.995	-133.545	  3.84346	 -0.08991	  3.73086	 -0.15718	  3.91634	 -0.26541	  4.92493	705.11401	 22.40	
 20.000	-145.147	  3.85574	 -0.36460	  4.14865	  0.19879	  3.44440	 -0.25820	  4.92254	705.14697	 22.30	
 20.008	-156.764	  3.86700	 -0.56059	  4.46264	  0.63020	  2.90631	 -0.24379	  4.92244	705.14502	 22.40	
 20.003	-168.362	  3.88725	 -0.67296	  4.65843	  1.12856	  2.34934	 -0.24985	  4.92870	705.19098	 22.40	
 20.000	180.000	  3.90057	 -0.69409	  4.71121	  1.67901	  1.78529	 -0.24933	  4.91797	705.20398	 22.40	
