FileType=PCF
NHL=14
Date=08/30/17	14:09:24
Facility=APL
Serial=16328-19
Customer=NASA
NP=6
Mach=0.200000
Calibration=1:1
CalPts=490
TstPts=95
PortNumbering=AP Standard
Units=Torr C m/s kg/m^3 deg mm 
Theta[deg]	Phi[deg]	P1[Torr]	P2[Torr]	P3[Torr]	P4[Torr]	P5[Torr]	P6[Torr]	Pt[Torr]	Ps[Abs,Torr]	Ts[C]	
  0.000	  0.000	 19.61759	 10.21619	 10.13775	 10.08607	 10.61140	  0.17680	 19.60846	705.53900	 22.90	
  1.691	128.401	 19.63209	  9.59755	 10.75368	 10.86884	  9.80505	  0.17375	 19.62048	707.34497	 22.90	
  1.692	 77.194	 19.64390	 10.44645	  9.92380	 11.07396	  9.61666	  0.17523	 19.63349	705.60602	 22.90	
  1.699	 26.182	 19.64939	 11.11736	  9.24169	 10.51558	 10.15802	  0.17286	 19.64018	707.33099	 22.80	
  1.699	-26.182	 19.63583	 11.07222	  9.25414	  9.63014	 11.01820	  0.16110	 19.63292	707.20502	 22.80	
  1.692	-77.194	 19.65887	 10.40314	  9.93117	  9.11219	 11.56740	  0.15663	 19.64939	705.57599	 22.80	
  1.691	-128.401	 19.63927	  9.54978	 10.77730	  9.28232	 11.36219	  0.15442	 19.63889	705.60901	 22.80	
  1.700	180.000	 19.64900	  9.18054	 11.17010	 10.07660	 10.59698	  0.16657	 19.63795	705.50299	 22.80	
  3.400	180.000	 19.58761	  8.11050	 12.08284	  9.94389	 10.52271	  0.12717	 19.61399	705.48798	 22.80	
  3.388	-152.325	 19.58008	  8.29266	 11.87325	  9.05121	 11.42192	  0.13391	 19.62159	705.57501	 22.80	
  3.397	-124.529	 19.59637	  8.90502	 11.21548	  8.38774	 12.13589	  0.11083	 19.64804	705.49200	 22.90	
  3.399	-96.763	 19.56540	  9.81507	 10.27662	  8.03919	 12.48077	  0.08057	 19.62390	707.23602	 22.90	
  3.394	-69.283	 19.57206	 10.74835	  9.34920	  8.16042	 12.35207	  0.06286	 19.62325	707.34601	 22.80	
  3.400	-41.398	 19.59675	 11.57385	  8.57691	  8.67497	 11.81531	  0.08962	 19.63468	707.17401	 22.80	
  3.401	-14.021	 19.60564	 12.06497	  8.16113	  9.49155	 10.97827	  0.09456	 19.62731	705.62299	 22.90	
  3.401	 14.021	 19.63657	 12.11932	  8.15418	 10.47464	 10.03625	  0.12347	 19.64610	705.52698	 22.90	
  3.400	 41.398	 19.59299	 11.62252	  8.56722	 11.32846	  9.19328	  0.13186	 19.60157	705.62299	 22.90	
  3.394	 69.283	 19.62582	 10.87100	  9.33134	 11.90775	  8.70753	  0.14243	 19.62322	705.56500	 22.80	
  3.399	 96.763	 19.62912	  9.92928	 10.28394	 12.04808	  8.58817	  0.13777	 19.63175	706.70898	 22.90	
  3.397	124.529	 19.65514	  9.02133	 11.20599	 11.70000	  8.93537	  0.13975	 19.66545	705.54401	 22.80	
  3.388	152.325	 19.61735	  8.35568	 11.84562	 10.94339	  9.59478	  0.14242	 19.63700	705.51898	 22.90	
  5.099	161.165	 19.51884	  7.24998	 12.85593	 10.81959	  9.38265	  0.03263	 19.63283	706.76398	 22.90	
  5.109	142.013	 19.52656	  7.64242	 12.36803	 11.74568	  8.54097	  0.05719	 19.62146	705.64099	 22.90	
  5.095	123.033	 19.54342	  8.33611	 11.57051	 12.46878	  7.97435	  0.04346	 19.62916	705.56201	 22.90	
  5.105	104.191	 19.54889	  9.23710	 10.63523	 12.89618	  7.61388	  0.05000	 19.62352	705.48199	 22.90	
  5.093	 85.207	 19.58899	 10.28157	  9.64844	 12.98944	  7.57585	  0.03944	 19.65845	705.52301	 22.90	
  5.104	 66.290	 19.55893	 11.23188	  8.68523	 12.70769	  7.76407	  0.04964	 19.63660	705.61298	 22.90	
  5.094	 47.331	 19.54786	 12.07260	  7.90929	 12.11038	  8.25118	  0.04878	 19.62620	705.55798	 22.90	
  5.089	 28.397	 19.53027	 12.68785	  7.34327	 11.28235	  8.94191	  0.01822	 19.61679	705.63202	 22.80	
  5.096	  9.576	 19.54516	 13.06833	  7.03699	 10.33617	  9.83025	  0.01857	 19.64953	705.55402	 22.90	
  5.096	 -9.576	 19.49599	 12.99830	  7.03318	  9.27474	 10.83707	 -0.00143	 19.61480	705.49701	 22.90	
  5.089	-28.397	 19.52270	 12.64857	  7.34313	  8.38884	 11.79398	 -0.01856	 19.66010	705.52197	 22.90	
  5.094	-47.331	 19.48896	 11.99358	  7.88580	  7.65329	 12.58177	 -0.04234	 19.63874	705.60901	 22.80	
  5.104	-66.290	 19.47709	 11.10072	  8.68517	  7.13053	 13.16520	 -0.03702	 19.63461	705.60101	 22.80	
  5.093	-85.207	 19.47266	 10.13751	  9.62170	  6.90395	 13.42260	 -0.03545	 19.64972	705.51898	 22.80	
  5.105	-104.191	 19.46369	  9.09507	 10.63151	  6.98208	 13.33861	 -0.01823	 19.64861	705.47498	 22.80	
  5.095	-123.033	 19.44663	  8.21985	 11.57046	  7.35461	 12.89143	  0.00489	 19.61493	705.53003	 22.80	
  5.109	-142.013	 19.48874	  7.56386	 12.37844	  7.99740	 12.21838	  0.02667	 19.64704	705.52802	 22.80	
  5.099	-161.165	 19.49903	  7.21777	 12.86974	  8.84573	 11.32474	  0.03110	 19.64187	705.56702	 22.80	
  5.100	180.000	 19.48342	  7.05997	 13.02455	  9.80194	 10.34738	  0.04839	 19.61642	706.15900	 22.80	
  6.800	180.000	 19.31403	  5.92235	 13.95264	  9.59712	 10.12253	 -0.06589	 19.62551	705.57501	 22.80	
  6.796	-166.229	 19.29762	  6.01582	 13.82158	  8.63678	 11.07670	 -0.08146	 19.63185	705.52802	 22.90	
  6.808	-152.311	 19.27368	  6.29651	 13.44490	  7.73051	 12.02430	 -0.08151	 19.62290	705.57001	 22.90	
  6.795	-138.383	 19.28154	  6.76374	 12.84284	  6.97266	 12.88550	 -0.08810	 19.64198	705.71100	 22.90	
  6.792	-124.591	 19.25692	  7.44945	 12.04612	  6.36106	 13.55502	 -0.11616	 19.63320	705.58099	 22.90	
  6.787	-110.754	 19.22955	  8.18599	 11.15305	  5.94957	 14.01885	 -0.14481	 19.61132	705.68597	 22.90	
  6.800	-96.985	 19.22251	  9.10959	 10.17009	  5.75805	 14.24542	 -0.16823	 19.60625	705.53601	 22.90	
  6.800	-83.015	 19.26575	 10.16560	  9.19178	  5.75061	 14.27935	 -0.18478	 19.63589	705.51398	 22.90	
  6.787	-69.246	 19.26403	 11.10549	  8.27479	  5.95981	 14.02370	 -0.19208	 19.62625	705.52197	 22.90	
  6.792	-55.409	 19.28000	 12.02995	  7.44786	  6.37560	 13.55690	 -0.17629	 19.62874	705.58099	 22.80	
  6.795	-41.617	 19.27283	 12.79125	  6.76456	  6.96204	 12.86658	 -0.15959	 19.60887	705.44897	 22.90	
  6.808	-27.689	 19.32420	 13.45060	  6.26201	  7.74217	 12.04751	 -0.14215	 19.64909	705.52197	 22.80	
  6.796	-13.771	 19.31485	 13.81597	  5.94402	  8.63824	 11.09310	 -0.12926	 19.61484	705.48297	 22.90	
  6.800	  0.000	 19.33315	 13.97238	  5.83577	  9.59541	 10.11985	 -0.11334	 19.61968	705.47699	 22.80	
  6.796	 13.771	 19.35934	 13.86454	  5.95007	 10.59937	  9.16756	 -0.10804	 19.62906	705.48297	 22.80	
  6.808	 27.689	 19.40077	 13.53177	  6.24333	 11.56513	  8.32487	 -0.09739	 19.65248	705.58600	 22.90	
  6.795	 41.617	 19.37794	 12.91784	  6.73866	 12.39647	  7.59058	 -0.07347	 19.61492	705.46503	 22.90	
  6.792	 55.409	 19.39571	 12.16250	  7.42087	 13.10182	  7.02364	 -0.06831	 19.62412	707.25201	 22.90	
  6.787	 69.246	 19.40681	 11.26529	  8.22822	 13.61407	  6.61152	 -0.07127	 19.62360	707.30701	 22.90	
  6.800	 83.015	 19.40624	 10.32003	  9.15963	 13.86715	  6.41125	 -0.07940	 19.62902	705.69897	 22.90	
  6.800	 96.985	 19.40095	  9.28513	 10.15270	 13.87479	  6.42619	 -0.09013	 19.62165	705.39600	 22.90	
  6.787	110.754	 19.38865	  8.33823	 11.12930	 13.62578	  6.64258	 -0.07919	 19.61474	705.92700	 22.90	
  6.792	124.591	 19.41651	  7.55164	 12.08258	 13.14344	  7.07072	 -0.07290	 19.66639	705.55402	 22.80	
  6.795	138.383	 19.37634	  6.86409	 12.83287	 12.42951	  7.63510	 -0.05991	 19.62531	705.62097	 22.90	
  6.808	152.311	 19.36888	  6.40358	 13.44818	 11.57666	  8.33209	 -0.06675	 19.64187	705.51898	 22.90	
  6.796	166.229	 19.33244	  6.06966	 13.81388	 10.60117	  9.16935	 -0.05380	 19.61823	705.59003	 22.90	
  8.491	168.704	 19.11298	  4.88496	 14.67878	 10.41627	  8.90058	 -0.18865	 19.64468	705.46503	 22.90	
  8.502	157.493	 19.12597	  5.10072	 14.39378	 11.38163	  8.03551	 -0.19839	 19.64284	705.44098	 22.90	
  8.494	146.194	 19.12425	  5.55797	 13.85658	 12.30400	  7.24096	 -0.19440	 19.61874	705.55902	 22.90	
  8.495	135.039	 19.15512	  6.12041	 13.20166	 13.14806	  6.54857	 -0.21014	 19.63873	705.52301	 22.90	
  8.487	123.723	 19.14178	  6.86671	 12.34271	 13.82325	  5.98671	 -0.20809	 19.61329	705.44098	 22.90	
  8.492	112.575	 19.17156	  7.64930	 11.42506	 14.33798	  5.58657	 -0.23608	 19.62475	705.40900	 22.90	
  8.510	101.220	 19.15915	  8.52672	 10.42216	 14.62876	  5.32394	 -0.24353	 19.60051	707.21002	 22.90	
  8.500	 90.000	 19.18782	  9.54224	  9.43388	 14.74547	  5.24966	 -0.23724	 19.62897	706.84198	 22.90	
  8.510	 78.780	 19.18726	 10.58072	  8.44366	 14.64215	  5.30759	 -0.20854	 19.62506	705.49701	 22.90	
  8.492	 67.425	 19.19304	 11.57126	  7.50683	 14.31278	  5.56463	 -0.20489	 19.62740	707.17999	 22.90	
  8.487	 56.277	 19.19222	 12.49698	  6.68905	 13.82611	  5.95898	 -0.20818	 19.65210	705.91101	 22.90	
  8.495	 44.961	 19.18549	 13.32027	  5.97187	 13.11215	  6.55680	 -0.19379	 19.65127	707.18500	 22.90	
  8.494	 33.806	 19.17636	 13.98153	  5.40125	 12.28850	  7.25620	 -0.22047	 19.65221	707.17102	 22.90	
  8.502	 22.507	 19.15884	 14.46229	  4.99996	 11.38007	  8.01719	 -0.25673	 19.65089	705.46503	 22.90	
  8.491	 11.296	 19.13377	 14.75054	  4.77176	 10.39591	  8.88921	 -0.26259	 19.64095	705.48901	 22.90	
  8.500	  0.000	 19.11149	 14.83032	  4.68145	  9.35300	  9.89362	 -0.25851	 19.63997	706.80298	 22.90	
  8.491	-11.296	 19.11284	 14.72093	  4.77705	  8.38182	 10.88383	 -0.26045	 19.66491	706.26599	 22.90	
  8.502	-22.507	 19.06557	 14.36586	  5.00708	  7.45415	 11.82458	 -0.28139	 19.63342	707.21301	 22.90	
  8.494	-33.806	 19.07765	 13.87226	  5.42252	  6.61474	 12.76474	 -0.30048	 19.66421	706.58899	 22.90	
  8.495	-44.961	 19.02178	 13.15563	  5.97825	  5.88569	 13.53193	 -0.30719	 19.62443	706.04797	 22.90	
  8.487	-56.277	 19.01720	 12.32222	  6.69872	  5.32196	 14.22088	 -0.33714	 19.63587	705.58398	 22.90	
  8.492	-67.425	 19.01360	 11.39787	  7.52192	  4.92416	 14.69936	 -0.35211	 19.64283	705.59900	 22.90	
  8.510	-78.780	 18.99713	 10.39427	  8.44903	  4.66281	 15.01733	 -0.37342	 19.63985	705.61798	 22.90	
  8.500	-90.000	 18.97183	  9.38002	  9.42039	  4.59024	 15.09084	 -0.35478	 19.61645	705.51898	 22.90	
  8.510	-101.220	 18.94804	  8.38418	 10.41048	  4.64389	 14.99454	 -0.31382	 19.61482	705.47498	 22.90	
  8.492	-112.575	 18.99594	  7.52360	 11.42888	  4.90897	 14.71122	 -0.27474	 19.64578	705.53699	 22.90	
  8.487	-123.723	 18.99179	  6.72541	 12.34817	  5.31447	 14.20420	 -0.25495	 19.63181	707.27899	 22.90	
  8.495	-135.039	 19.00071	  6.00308	 13.18511	  5.86613	 13.55579	 -0.23340	 19.64556	705.67902	 22.90	
  8.494	-146.194	 19.03352	  5.43739	 13.87809	  6.60047	 12.76318	 -0.21213	 19.66501	705.52301	 22.90	
  8.502	-157.493	 19.02509	  5.03878	 14.37277	  7.44507	 11.82870	 -0.22059	 19.63760	705.60101	 22.90	
  8.491	-168.704	 19.05550	  4.84253	 14.67374	  8.39054	 10.86183	 -0.22423	 19.64401	706.90997	 22.90	
  8.500	180.000	 19.08047	  4.77792	 14.79021	  9.37312	  9.87982	 -0.19969	 19.64804	705.55103	 22.90	
 10.200	180.000	 18.77634	  3.63032	 15.59093	  9.08187	  9.57751	 -0.36155	 19.67083	706.52399	 22.90	
 10.191	-170.497	 18.71591	  3.67488	 15.48168	  8.06265	 10.55190	 -0.37422	 19.64473	705.78900	 22.90	
 10.210	-161.034	 18.70794	  3.86598	 15.23773	  7.12334	 11.54262	 -0.39109	 19.65365	705.56500	 22.90	
 10.194	-151.526	 18.68938	  4.19468	 14.78703	  6.21921	 12.52212	 -0.37750	 19.66363	705.96698	 22.90	
 10.190	-142.105	 18.66804	  4.61960	 14.18140	  5.44595	 13.39505	 -0.36842	 19.65031	706.00702	 22.90	
 10.215	-132.646	 18.64606	  5.14905	 13.44732	  4.75774	 14.16875	 -0.38666	 19.65214	705.47699	 22.90	
 10.203	-123.092	 18.65877	  5.91195	 12.60587	  4.21299	 14.84484	 -0.41037	 19.66906	705.45502	 22.90	
 10.192	-113.678	 18.63233	  6.72522	 11.64540	  3.80588	 15.34358	 -0.43808	 19.65050	705.53101	 22.90	
 10.208	-104.249	 18.63891	  7.59546	 10.66022	  3.53188	 15.70798	 -0.47386	 19.65879	707.15198	 22.90	
 10.210	-94.801	 18.64382	  8.52667	  9.66187	  3.42353	 15.89653	 -0.52563	 19.66113	705.50800	 22.90	
 10.210	-85.199	 18.61407	  9.54032	  8.60378	  3.40390	 15.86359	 -0.55071	 19.62175	705.50299	 22.90	
 10.208	-75.751	 18.65637	 10.59838	  7.63973	  3.54186	 15.70459	 -0.55570	 19.64774	705.41602	 22.90	
 10.192	-66.322	 18.65885	 11.57192	  6.75440	  3.81242	 15.34368	 -0.54285	 19.63853	706.29602	 22.90	
 10.203	-56.908	 18.68142	 12.52923	  5.91987	  4.22229	 14.84624	 -0.50851	 19.64470	706.43903	 22.90	
 10.215	-47.354	 18.67938	 13.40910	  5.17127	  4.74557	 14.19070	 -0.48161	 19.63554	705.45502	 22.90	
 10.190	-37.895	 18.70434	 14.12045	  4.62684	  5.42025	 13.42097	 -0.45153	 19.62118	705.37299	 22.90	
 10.194	-28.474	 18.73344	 14.76419	  4.14873	  6.21571	 12.53453	 -0.43463	 19.63878	705.50800	 22.90	
 10.210	-18.966	 18.75023	 15.22345	  3.82262	  7.09769	 11.57706	 -0.42479	 19.63743	707.11700	 22.90	
 10.191	 -9.503	 18.79840	 15.53506	  3.63408	  8.06745	 10.59232	 -0.41713	 19.66800	705.58398	 22.90	
 10.200	  0.000	 18.80135	 15.63940	  3.54054	  9.04750	  9.59553	 -0.39997	 19.65390	705.53900	 22.90	
 10.191	  9.503	 18.80430	 15.54405	  3.59587	 10.07432	  8.59926	 -0.42374	 19.62601	705.57501	 22.90	
 10.210	 18.966	 18.81909	 15.32426	  3.74958	 11.08688	  7.69545	 -0.42468	 19.64534	705.38202	 22.90	
 10.194	 28.474	 18.85292	 14.91114	  4.08922	 12.09855	  6.82635	 -0.41379	 19.66287	706.42200	 22.90	
 10.190	 37.895	 18.86463	 14.32318	  4.54763	 12.99221	  6.06169	 -0.36672	 19.64837	705.52002	 22.90	
 10.215	 47.354	 18.88311	 13.61878	  5.15168	 13.79859	  5.39470	 -0.33993	 19.66066	707.08398	 22.90	
 10.203	 56.908	 18.89743	 12.76242	  5.89651	 14.48630	  4.82024	 -0.34306	 19.66061	707.09900	 22.80	
 10.192	 66.322	 18.86934	 11.80900	  6.72662	 14.94700	  4.45657	 -0.33073	 19.61298	706.49597	 22.90	
 10.208	 75.751	 18.93105	 10.86524	  7.65306	 15.36316	  4.21476	 -0.36702	 19.67635	705.36499	 22.90	
 10.210	 85.199	 18.92227	  9.83655	  8.62006	 15.55235	  4.06907	 -0.38761	 19.65736	707.18903	 22.90	
 10.210	 94.801	 18.88838	  8.76546	  9.63006	 15.54041	  4.07327	 -0.42085	 19.63350	705.44897	 22.90	
 10.208	104.249	 18.90668	  7.86107	 10.64407	 15.37855	  4.22976	 -0.42698	 19.65215	705.50000	 22.90	
 10.192	113.678	 18.88953	  6.98421	 11.63845	 15.00711	  4.49096	 -0.39293	 19.64804	707.25201	 22.90	
 10.203	123.092	 18.88875	  6.14714	 12.60641	 14.50240	  4.88831	 -0.37021	 19.66320	705.55902	 22.90	
 10.215	132.646	 18.85789	  5.31096	 13.45957	 13.83847	  5.40675	 -0.36308	 19.65211	705.46600	 22.90	
 10.190	142.105	 18.88488	  4.76341	 14.21609	 13.05078	  6.09837	 -0.35001	 19.68865	705.50800	 22.90	
 10.194	151.526	 18.84365	  4.27909	 14.80693	 12.12102	  6.85502	 -0.34892	 19.66972	705.74402	 22.90	
 10.210	161.034	 18.79439	  3.89173	 15.24956	 11.11446	  7.67729	 -0.35016	 19.64596	705.47699	 22.90	
 10.191	170.497	 18.79822	  3.71696	 15.51208	 10.11765	  8.60009	 -0.33061	 19.66852	707.15503	 22.90	
 11.899	171.783	 18.39666	  2.49737	 16.24718	  9.79538	  8.22410	 -0.50190	 19.66236	707.26202	 22.90	
 11.890	163.610	 18.40224	  2.65050	 16.01671	 10.81535	  7.28109	 -0.49593	 19.65415	706.60602	 22.80	
 11.889	155.445	 18.43482	  2.96430	 15.64186	 11.80910	  6.43750	 -0.49659	 19.65866	707.08197	 22.80	
 11.909	147.299	 18.47772	  3.42374	 15.12929	 12.79170	  5.62592	 -0.49741	 19.68601	707.09497	 22.80	
 11.902	139.148	 18.48916	  3.95076	 14.46219	 13.64336	  4.91700	 -0.48954	 19.67145	706.55798	 22.80	
 11.894	130.867	 18.49264	  4.57952	 13.67191	 14.41861	  4.30445	 -0.51991	 19.66006	707.14899	 22.80	
 11.897	122.732	 18.50357	  5.29379	 12.78243	 15.08212	  3.79150	 -0.55415	 19.65465	705.49902	 22.80	
 11.903	114.597	 18.49859	  6.14254	 11.82504	 15.59994	  3.37432	 -0.58701	 19.63401	705.49103	 22.80	
 11.893	106.346	 18.53272	  7.08582	 10.82298	 15.97627	  3.14013	 -0.59887	 19.64643	707.21100	 22.80	
 11.892	 98.155	 18.54525	  8.00955	  9.81327	 16.20491	  2.98911	 -0.60994	 19.65254	705.38800	 22.80	
 11.900	 90.000	 18.56476	  8.99325	  8.79801	 16.28830	  2.91774	 -0.58510	 19.66473	706.13501	 22.80	
 11.892	 81.845	 18.55290	 10.00148	  7.79875	 16.19911	  2.97559	 -0.53225	 19.64871	705.48798	 22.80	
 11.893	 73.654	 18.55330	 11.04621	  6.84279	 15.95438	  3.14562	 -0.48996	 19.65830	705.44000	 22.80	
 11.903	 65.403	 18.53291	 12.03346	  5.93889	 15.54195	  3.41008	 -0.47161	 19.64098	705.51398	 22.80	
 11.897	 57.268	 18.54604	 12.97517	  5.12938	 15.03306	  3.79022	 -0.46520	 19.66842	705.51398	 22.80	
 11.894	 49.133	 18.53615	 13.83247	  4.39413	 14.36730	  4.29830	 -0.47367	 19.67335	705.44897	 22.80	
 11.902	 40.852	 18.49576	 14.58955	  3.74899	 13.57740	  4.89753	 -0.48728	 19.65133	705.61798	 22.80	
 11.909	 32.701	 18.47919	 15.22833	  3.24221	 12.69096	  5.64896	 -0.54660	 19.64974	707.03101	 22.80	
 11.889	 24.555	 18.44833	 15.73505	  2.82509	 11.74406	  6.45492	 -0.57778	 19.64947	706.86401	 22.80	
 11.890	 16.390	 18.45323	 16.11493	  2.55818	 10.75811	  7.34557	 -0.56827	 19.66437	705.54498	 22.80	
 11.899	  8.217	 18.44301	 16.31369	  2.42605	  9.75545	  8.25656	 -0.57362	 19.66652	707.20203	 22.80	
 11.900	  0.000	 18.39773	 16.35256	  2.38012	  8.70731	  9.22442	 -0.55587	 19.64085	705.40601	 22.80	
 11.899	 -8.217	 18.37539	 16.24822	  2.45842	  7.69396	 10.23886	 -0.54823	 19.64310	705.35602	 22.80	
 11.890	-16.390	 18.37776	 16.01851	  2.62127	  6.74693	 11.23665	 -0.56261	 19.66298	705.48199	 22.80	
 11.889	-24.555	 18.35024	 15.60137	  2.92529	  5.84012	 12.22780	 -0.57728	 19.64863	705.44397	 22.80	
 11.909	-32.701	 18.31656	 15.04651	  3.31196	  5.00412	 13.13295	 -0.58017	 19.63883	705.45099	 22.80	
 11.902	-40.852	 18.31374	 14.39047	  3.80337	  4.29005	 13.98360	 -0.59695	 19.65184	705.40997	 22.80	
 11.894	-49.133	 18.28127	 13.57828	  4.39845	  3.67467	 14.74662	 -0.61330	 19.63816	705.47198	 22.80	
 11.897	-57.268	 18.27333	 12.70145	  5.10313	  3.15833	 15.39647	 -0.65737	 19.64542	705.40399	 22.80	
 11.903	-65.403	 18.26796	 11.74874	  5.92365	  2.74272	 15.93225	 -0.69162	 19.66375	705.35699	 22.80	
 11.893	-73.654	 18.26702	 10.76690	  6.82234	  2.48893	 16.28637	 -0.70888	 19.67061	705.94501	 22.80	
 11.892	-81.845	 18.25211	  9.73762	  7.77931	  2.33109	 16.50683	 -0.72478	 19.67035	706.54401	 22.80	
 11.900	-90.000	 18.22928	  8.71508	  8.76401	  2.30207	 16.56930	 -0.69583	 19.65080	705.44098	 22.80	
 11.892	-98.155	 18.23514	  7.74724	  9.79134	  2.34504	 16.50558	 -0.65687	 19.66461	705.41199	 22.80	
 11.893	-106.346	 18.21456	  6.79434	 10.81363	  2.45320	 16.28525	 -0.61751	 19.65688	705.28497	 22.80	
 11.903	-114.597	 18.19634	  5.88776	 11.79967	  2.71960	 15.88228	 -0.58618	 19.64776	706.91803	 22.80	
 11.897	-122.732	 18.22729	  5.06848	 12.75399	  3.15031	 15.37593	 -0.54128	 19.65651	705.45203	 22.80	
 11.894	-130.867	 18.23920	  4.39527	 13.63242	  3.66686	 14.72883	 -0.52363	 19.66366	705.39801	 22.80	
 11.902	-139.148	 18.23681	  3.77901	 14.40725	  4.29183	 13.95320	 -0.52132	 19.64986	705.51300	 22.80	
 11.909	-147.299	 18.24944	  3.27535	 15.06879	  5.00050	 13.12509	 -0.52873	 19.65060	705.31097	 22.80	
 11.889	-155.445	 18.28948	  2.93365	 15.60105	  5.84384	 12.20143	 -0.53191	 19.65058	705.31598	 22.80	
 11.890	-163.610	 18.32257	  2.64453	 15.99771	  6.76297	 11.22493	 -0.54162	 19.66017	705.31702	 22.80	
 11.899	-171.783	 18.32936	  2.43301	 16.24217	  7.70993	 10.20392	 -0.54549	 19.65241	705.28302	 22.80	
 11.900	180.000	 18.36415	  2.39734	 16.32553	  8.73501	  9.21680	 -0.52938	 19.66098	705.59497	 22.80	
 13.600	180.000	 17.87948	  1.16286	 16.97009	  8.33978	  8.81322	 -0.68627	 19.64322	705.21198	 22.80	
 13.608	-172.853	 17.86701	  1.20483	 16.92007	  7.34956	  9.80734	 -0.70453	 19.66240	705.80103	 22.80	
 13.611	-165.583	 17.82431	  1.34600	 16.69962	  6.36055	 10.81970	 -0.71401	 19.65133	705.30603	 22.80	
 13.601	-158.353	 17.81078	  1.60630	 16.34374	  5.43632	 11.81370	 -0.71482	 19.65567	705.35400	 22.80	
 13.609	-151.210	 17.78271	  1.92993	 15.87576	  4.58950	 12.74672	 -0.70414	 19.64662	705.34802	 22.80	
 13.611	-143.999	 17.75136	  2.33975	 15.27793	  3.80755	 13.64185	 -0.67641	 19.64254	705.37799	 22.80	
 13.601	-136.825	 17.73758	  2.88883	 14.56136	  3.12686	 14.48413	 -0.66209	 19.64651	705.23297	 22.80	
 13.596	-129.640	 17.73258	  3.54163	 13.74866	  2.54012	 15.23804	 -0.65601	 19.66142	705.26099	 22.80	
 13.611	-122.431	 17.71129	  4.22221	 12.86351	  2.05600	 15.84865	 -0.68202	 19.63489	705.34198	 22.80	
 13.604	-115.211	 17.72455	  4.99743	 11.93389	  1.66540	 16.38824	 -0.70282	 19.66958	705.57501	 22.80	
 13.595	-108.042	 17.70379	  5.83569	 10.92941	  1.34541	 16.76522	 -0.73664	 19.63863	705.41998	 22.80	
 13.607	-100.793	 17.69199	  6.78649	  9.89173	  1.16375	 17.03012	 -0.76968	 19.63117	705.21802	 22.80	
 13.601	-93.617	 17.73565	  7.77846	  8.89336	  1.10608	 17.19548	 -0.80962	 19.66335	705.33698	 22.80	
 13.601	-86.383	 17.71142	  8.76574	  7.86240	  1.09328	 17.17893	 -0.80721	 19.62900	705.28601	 22.80	
 13.607	-79.207	 17.72769	  9.79725	  6.88697	  1.16752	 17.05225	 -0.81894	 19.63545	705.52698	 22.80	
 13.595	-71.958	 17.75754	 10.83037	  5.95399	  1.36868	 16.79481	 -0.80667	 19.64369	705.45801	 22.80	
 13.604	-64.789	 17.75364	 11.81937	  5.07045	  1.65122	 16.39775	 -0.78922	 19.62918	705.31702	 22.80	
 13.611	-57.569	 17.77820	 12.78735	  4.29271	  2.02652	 15.92420	 -0.76223	 19.65674	705.47498	 22.80	
 13.596	-50.360	 17.79235	 13.68376	  3.59062	  2.53931	 15.26076	 -0.73067	 19.63622	706.92700	 22.80	
 13.601	-43.175	 17.81437	 14.51745	  2.96633	  3.12825	 14.52228	 -0.69661	 19.63906	706.72601	 22.80	
 13.611	-36.001	 17.83612	 15.24164	  2.44226	  3.80236	 13.69151	 -0.68337	 19.64534	706.81097	 22.80	
 13.609	-28.790	 17.85989	 15.84761	  2.02375	  4.58299	 12.79411	 -0.67245	 19.63845	706.14398	 22.80	
 13.601	-21.647	 17.86423	 16.31007	  1.70754	  5.40378	 11.83956	 -0.69008	 19.62286	705.19000	 22.80	
 13.611	-14.417	 17.89322	 16.69896	  1.45005	  6.33663	 10.82911	 -0.67786	 19.63603	706.99103	 22.80	
 13.608	 -7.147	 17.92542	 16.92345	  1.33066	  7.31183	  9.83250	 -0.66100	 19.64097	705.88800	 22.80	
 13.600	  0.000	 17.95424	 17.01951	  1.25379	  8.32590	  8.83485	 -0.67138	 19.65539	706.91302	 22.80	
 13.608	  7.147	 17.96233	 16.97738	  1.24533	  9.32944	  7.86054	 -0.69677	 19.64844	706.68103	 22.80	
 13.611	 14.417	 17.97608	 16.79573	  1.36898	 10.35125	  6.94912	 -0.70002	 19.66137	707.02802	 22.80	
 13.601	 21.647	 17.96592	 16.45992	  1.59461	 11.36374	  5.98140	 -0.71324	 19.62791	706.83099	 22.80	
 13.609	 28.790	 17.99645	 16.00658	  1.94226	 12.33138	  5.16422	 -0.69201	 19.63586	706.96002	 22.80	
 13.611	 36.001	 18.02819	 15.46398	  2.36978	 13.25689	  4.39537	 -0.66043	 19.65726	705.92102	 22.80	
 13.601	 43.175	 18.05784	 14.77202	  2.93909	 14.10628	  3.73911	 -0.61350	 19.65263	705.28497	 22.80	
 13.596	 50.360	 18.05067	 13.97124	  3.57202	 14.87603	  3.13030	 -0.59911	 19.63435	707.04700	 22.80	
 13.611	 57.569	 18.04667	 13.08362	  4.27430	 15.52532	  2.63828	 -0.58451	 19.62251	705.96698	 22.80	
 13.604	 64.789	 18.06918	 12.14556	  5.08708	 16.07368	  2.27160	 -0.60241	 19.62918	705.26398	 22.80	
 13.595	 71.958	 18.10065	 11.17008	  5.98454	 16.48769	  2.01883	 -0.64225	 19.64502	705.29999	 22.80	
 13.607	 79.207	 18.12016	 10.17603	  6.91656	 16.79886	  1.83777	 -0.67922	 19.66238	705.38098	 22.80	
 13.601	 86.383	 18.09390	  9.14479	  7.88449	 16.91618	  1.74264	 -0.72617	 19.63042	706.96802	 22.80	
 13.601	 93.617	 18.08518	  8.12746	  8.90018	 16.90356	  1.75172	 -0.75344	 19.61981	705.80103	 22.80	
 13.607	100.793	 18.09283	  7.15949	  9.92995	 16.80385	  1.81327	 -0.75746	 19.63831	705.26001	 22.80	
 13.595	108.042	 18.09006	  6.20720	 10.94470	 16.54300	  2.00422	 -0.74944	 19.64536	707.05603	 22.80	
 13.604	115.211	 18.07358	  5.32425	 11.93362	 16.14863	  2.29862	 -0.73066	 19.64804	706.97400	 22.80	
 13.611	122.431	 18.06406	  4.54523	 12.88871	 15.62822	  2.68385	 -0.69264	 19.66282	705.48798	 22.80	
 13.596	129.640	 18.05604	  3.82384	 13.78826	 14.95198	  3.18601	 -0.65656	 19.65455	707.00598	 22.80	
 13.601	136.825	 18.03526	  3.15464	 14.59902	 14.17950	  3.77091	 -0.63546	 19.65666	706.36902	 22.80	
 13.611	143.999	 18.00673	  2.54968	 15.31170	 13.37069	  4.40256	 -0.63538	 19.65914	706.88202	 22.80	
 13.609	151.210	 17.95746	  2.06057	 15.87265	 12.41709	  5.13424	 -0.63521	 19.62944	705.27100	 22.80	
 13.601	158.353	 17.94176	  1.67628	 16.34918	 11.43536	  5.95260	 -0.63756	 19.62878	705.74799	 22.80	
 13.611	165.583	 17.92841	  1.37648	 16.71010	 10.41869	  6.86514	 -0.64855	 19.64667	706.63702	 22.80	
 13.608	172.853	 17.89321	  1.22338	 16.89016	  9.36843	  7.83119	 -0.65779	 19.63630	705.13098	 22.80	
 15.298	173.587	 17.38387	 -0.00719	 17.50041	  8.98424	  7.37554	 -0.80836	 19.65281	706.90198	 22.80	
 15.291	167.167	 17.39923	  0.15940	 17.30132	  9.98475	  6.43583	 -0.78695	 19.63533	706.83398	 22.80	
 15.307	160.676	 17.43562	  0.44169	 17.00941	 11.01688	  5.56508	 -0.77812	 19.63084	706.79999	 22.80	
 15.300	154.261	 17.44703	  0.76294	 16.57565	 12.01807	  4.70927	 -0.77193	 19.62389	706.87903	 22.80	
 15.288	147.854	 17.48045	  1.19301	 16.05304	 12.96406	  3.95127	 -0.76273	 19.64475	706.81702	 22.80	
 15.293	141.428	 17.49700	  1.71299	 15.41615	 13.86194	  3.24620	 -0.75513	 19.64404	705.56201	 22.80	
 15.299	134.985	 17.51892	  2.28481	 14.68758	 14.70064	  2.59401	 -0.75827	 19.65000	705.68298	 22.80	
 15.305	128.583	 17.52313	  2.97518	 13.83769	 15.41217	  2.08903	 -0.78496	 19.63107	705.97498	 22.80	
 15.309	122.142	 17.55053	  3.70263	 12.96624	 16.06215	  1.63068	 -0.80858	 19.64600	705.34998	 22.80	
 15.304	115.711	 17.58750	  4.50436	 12.02630	 16.59750	  1.29198	 -0.82476	 19.66383	705.19598	 22.80	
 15.297	109.291	 17.58056	  5.34304	 11.01487	 16.99751	  0.98632	 -0.83900	 19.63511	705.17798	 22.80	
 15.293	102.897	 17.58600	  6.25339	 10.00505	 17.29800	  0.77095	 -0.83749	 19.63819	705.26099	 22.80	
 15.293	 96.458	 17.59156	  7.24093	  8.97689	 17.46408	  0.64580	 -0.83989	 19.63063	705.69098	 22.80	
 15.300	 90.000	 17.61627	  8.23215	  7.98393	 17.53239	  0.63227	 -0.83805	 19.64903	706.06000	 22.80	
 15.293	 83.542	 17.59615	  9.24203	  6.96151	 17.42744	  0.68612	 -0.80694	 19.61337	705.45203	 22.80	
 15.293	 77.103	 17.62314	 10.27411	  6.02261	 17.26115	  0.81154	 -0.77178	 19.64828	705.15900	 22.80	
 15.297	 70.709	 17.62869	 11.29986	  5.10934	 16.95856	  1.02234	 -0.73485	 19.65921	706.81897	 22.80	
 15.304	 64.289	 17.63573	 12.29368	  4.25828	 16.53419	  1.30736	 -0.69817	 19.67453	705.77899	 22.80	
 15.309	 57.858	 17.55736	 13.19418	  3.46694	 15.96532	  1.59503	 -0.68919	 19.62719	705.53601	 22.80	
 15.305	 51.417	 17.55541	 14.05841	  2.79458	 15.32818	  2.07202	 -0.69391	 19.64469	706.84698	 22.80	
 15.299	 45.015	 17.55577	 14.87135	  2.15330	 14.57288	  2.62136	 -0.70129	 19.64226	706.90900	 22.80	
 15.293	 38.572	 17.54285	 15.58992	  1.60855	 13.72271	  3.28477	 -0.72105	 19.64412	706.72302	 22.80	
 15.288	 32.146	 17.49734	 16.20507	  1.09081	 12.83950	  3.93513	 -0.75053	 19.63773	706.81598	 22.80	
 15.300	 25.739	 17.48052	 16.71849	  0.68804	 11.89682	  4.71522	 -0.76821	 19.63737	706.26599	 22.70	
 15.307	 19.324	 17.43050	 17.11272	  0.35072	 10.88557	  5.54300	 -0.76420	 19.61832	705.37903	 22.70	
 15.291	 12.833	 17.42008	 17.38515	  0.14704	  9.88614	  6.46518	 -0.75177	 19.62251	706.96899	 22.70	
 15.298	  6.413	 17.43404	 17.58515	  0.04055	  8.87294	  7.43340	 -0.73139	 19.65965	707.01300	 22.80	
 15.300	  0.000	 17.40255	 17.59762	  0.06540	  7.84422	  8.41026	 -0.71201	 19.63357	706.89502	 22.70	
 15.298	 -6.413	 17.38810	 17.52370	  0.12932	  6.86533	  9.38066	 -0.70861	 19.64453	706.89801	 22.70	
 15.291	-12.833	 17.34251	 17.29016	  0.24812	  5.89201	 10.37374	 -0.72325	 19.60629	705.32202	 22.70	
 15.307	-19.324	 17.34610	 17.00486	  0.44158	  4.97011	 11.39623	 -0.73047	 19.64875	706.88898	 22.70	
 15.300	-25.739	 17.32190	 16.56006	  0.73354	  4.11978	 12.35867	 -0.73224	 19.64249	705.28802	 22.80	
 15.288	-32.146	 17.28528	 15.98141	  1.10806	  3.32852	 13.27205	 -0.72919	 19.61555	705.13599	 22.80	
 15.293	-38.572	 17.29955	 15.33387	  1.57198	  2.62441	 14.18240	 -0.72144	 19.65724	706.68500	 22.70	
 15.299	-45.015	 17.26749	 14.58580	  2.11599	  1.97154	 14.97882	 -0.72477	 19.65106	706.41699	 22.70	
 15.305	-51.417	 17.24986	 13.74962	  2.75268	  1.43114	 15.69359	 -0.73908	 19.64371	706.72601	 22.70	
 15.309	-57.858	 17.24947	 12.86186	  3.45535	  0.96008	 16.32302	 -0.76334	 19.65507	706.83600	 22.80	
 15.304	-64.289	 17.21285	 11.88168	  4.21512	  0.56452	 16.81704	 -0.77188	 19.62678	706.79901	 22.80	
 15.297	-70.709	 17.20441	 10.88437	  5.06189	  0.27414	 17.21936	 -0.76668	 19.62755	705.53400	 22.70	
 15.293	-77.103	 17.20757	  9.87032	  5.96303	  0.05340	 17.54118	 -0.76883	 19.65252	706.91302	 22.80	
 15.293	-83.542	 17.19464	  8.84926	  6.92545	 -0.05764	 17.70680	 -0.78505	 19.66064	706.99200	 22.70	
 15.300	-90.000	 17.17972	  7.84111	  7.90791	 -0.10444	 17.76589	 -0.82375	 19.65718	706.84802	 22.80	
 15.293	-96.458	 17.15911	  6.82274	  8.94115	 -0.08010	 17.68366	 -0.82299	 19.64226	706.96802	 22.70	
 15.293	-102.897	 17.17754	  5.88315	  9.96339	  0.02771	 17.51864	 -0.82847	 19.66397	706.86401	 22.80	
 15.297	-109.291	 17.14354	  4.97655	 10.96351	  0.22886	 17.20799	 -0.80737	 19.63106	706.76099	 22.80	
 15.304	-115.711	 17.14987	  4.14040	 11.95340	  0.54887	 16.80308	 -0.79441	 19.64532	706.76898	 22.80	
 15.309	-122.142	 17.14904	  3.38783	 12.89874	  0.94843	 16.27201	 -0.76785	 19.63237	706.84198	 22.80	
 15.305	-128.583	 17.15771	  2.66441	 13.80727	  1.41165	 15.64642	 -0.75923	 19.64203	706.81702	 22.80	
 15.299	-134.985	 17.17145	  2.00560	 14.61681	  1.96619	 14.94075	 -0.76084	 19.64590	706.85901	 22.80	
 15.293	-141.428	 17.17900	  1.44552	 15.34028	  2.61396	 14.10859	 -0.77705	 19.60721	706.88898	 22.80	
 15.288	-147.854	 17.22733	  0.96726	 16.01015	  3.37130	 13.24879	 -0.80405	 19.63972	706.41400	 22.80	
 15.300	-154.261	 17.22382	  0.57012	 16.53899	  4.14392	 12.32353	 -0.83165	 19.62551	706.85901	 22.80	
 15.307	-160.676	 17.26889	  0.28171	 16.99252	  5.01459	 11.38127	 -0.85045	 19.65244	706.09003	 22.80	
 15.291	-167.167	 17.30851	  0.14132	 17.27948	  5.98225	 10.36130	 -0.84433	 19.63498	705.16699	 22.70	
 15.298	-173.587	 17.32691	  0.03314	 17.46907	  6.94165	  9.37164	 -0.82678	 19.63280	706.82599	 22.80	
 15.300	180.000	 17.38445	  0.01560	 17.55797	  7.95217	  8.40589	 -0.81402	 19.65999	705.21503	 22.80	
 17.000	180.000	 16.76584	 -1.13402	 18.05869	  7.45868	  7.91389	 -0.90231	 19.64268	705.15100	 22.80	
 16.990	-174.179	 16.73729	 -1.11270	 17.98695	  6.47394	  8.88319	 -0.91083	 19.63123	706.99597	 22.80	
 17.009	-168.383	 16.68799	 -1.06279	 17.84445	  5.49793	  9.85683	 -0.91436	 19.64056	706.92603	 22.80	
 17.000	-162.596	 16.68378	 -0.89575	 17.58840	  4.56944	 10.86228	 -0.92809	 19.65694	705.14301	 22.80	
 16.990	-156.759	 16.64180	 -0.63792	 17.17137	  3.70067	 11.83193	 -0.91905	 19.64055	706.84399	 22.80	
 16.995	-150.919	 16.63139	 -0.31128	 16.67650	  2.88225	 12.79646	 -0.91343	 19.64907	706.45599	 22.80	
 16.988	-145.161	 16.60877	  0.10250	 16.07802	  2.13453	 13.67515	 -0.89049	 19.63098	706.89301	 22.80	
 17.014	-139.343	 16.56250	  0.53992	 15.39826	  1.43312	 14.53476	 -0.87990	 19.63142	706.73700	 22.80	
 17.007	-133.546	 16.55279	  1.09071	 14.65366	  0.83528	 15.30756	 -0.85812	 19.64738	706.77502	 22.80	
 17.001	-127.699	 16.52201	  1.76603	 13.80009	  0.31172	 15.99515	 -0.85005	 19.62203	705.25201	 22.80	
 17.006	-121.937	 16.52176	  2.47038	 12.92011	 -0.13686	 16.62086	 -0.85503	 19.63324	706.81097	 22.80	
 17.002	-116.134	 16.53152	  3.23929	 11.97082	 -0.54059	 17.18694	 -0.85084	 19.66111	706.84198	 22.80	
 17.001	-110.310	 16.51823	  4.04684	 10.97916	 -0.84576	 17.60872	 -0.85877	 19.65678	706.69202	 22.80	
 16.988	-104.517	 16.50443	  4.90247	  9.97698	 -1.06415	 17.89920	 -0.84785	 19.63079	706.71503	 22.80	
 17.008	-98.662	 16.52213	  5.83894	  8.95031	 -1.21957	 18.13109	 -0.81742	 19.65306	706.44299	 22.80	
 16.996	-92.909	 16.52113	  6.82245	  7.93836	 -1.27554	 18.21474	 -0.77491	 19.62825	706.82800	 22.80	
 16.996	-87.091	 16.53701	  7.79336	  6.95061	 -1.27031	 18.24132	 -0.75480	 19.64721	706.72998	 22.80	
 17.012	-81.253	 16.53251	  8.82284	  5.95164	 -1.20023	 18.12206	 -0.73109	 19.62525	705.22302	 22.80	
 16.988	-75.483	 16.56635	  9.84060	  5.04932	 -1.05050	 17.93155	 -0.72374	 19.63282	706.32898	 22.80	
 17.001	-69.690	 16.56372	 10.85027	  4.16561	 -0.87198	 17.63292	 -0.70122	 19.63348	706.88898	 22.80	
 17.002	-63.866	 16.57355	 11.84972	  3.35674	 -0.54807	 17.19038	 -0.68939	 19.61772	706.75500	 22.80	
 17.006	-58.063	 16.58822	 12.79567	  2.58884	 -0.18808	 16.69049	 -0.70015	 19.62097	705.91101	 22.80	
 17.001	-52.301	 16.62476	 13.71940	  1.89576	  0.27507	 16.07217	 -0.70611	 19.63193	705.92700	 22.80	
 17.007	-46.454	 16.65522	 14.59399	  1.23821	  0.82123	 15.36956	 -0.71297	 19.64052	706.82001	 22.80	
 17.014	-40.657	 16.66743	 15.35930	  0.67121	  1.39963	 14.60705	 -0.71717	 19.63936	705.72699	 22.80	
 16.988	-34.839	 16.67593	 16.03188	  0.20402	  2.08288	 13.73355	 -0.73721	 19.61716	706.12500	 22.80	
 16.995	-29.081	 16.71240	 16.64230	 -0.19125	  2.83970	 12.82477	 -0.74152	 19.62733	705.20697	 22.80	
 16.990	-23.241	 16.73834	 17.15246	 -0.51050	  3.63861	 11.89624	 -0.74355	 19.63594	705.12903	 22.80	
 17.000	-17.404	 16.75895	 17.55913	 -0.77198	  4.51085	 10.91360	 -0.73023	 19.63790	705.30798	 22.80	
 17.009	-11.617	 16.77718	 17.84725	 -0.96537	  5.42099	  9.90939	 -0.71752	 19.63023	705.22900	 22.80	
 16.990	 -5.821	 16.78837	 18.02182	 -1.07719	  6.36524	  8.90711	 -0.70367	 19.62478	705.02698	 22.80	
 17.000	  0.000	 16.81339	 18.11995	 -1.16189	  7.36228	  7.93062	 -0.69321	 19.64080	706.24500	 22.80	
 16.990	  5.821	 16.81806	 18.08350	 -1.14594	  8.37995	  6.93091	 -0.70576	 19.62983	706.85602	 22.80	
 17.009	 11.617	 16.83808	 17.95450	 -1.04628	  9.39685	  5.98702	 -0.70757	 19.64713	705.17297	 22.80	
 17.000	 17.404	 16.87447	 17.70878	 -0.84253	 10.40563	  5.08900	 -0.71738	 19.64758	705.28601	 22.80	
 16.990	 23.241	 16.90273	 17.34961	 -0.54301	 11.43008	  4.23702	 -0.73722	 19.65643	707.05499	 22.80	
 16.995	 29.081	 16.90005	 16.87109	 -0.18511	 12.36780	  3.47411	 -0.74931	 19.62337	706.46997	 22.80	
 16.988	 34.839	 16.92239	 16.30436	  0.23889	 13.27622	  2.78181	 -0.76418	 19.61933	705.21802	 22.80	
 17.014	 40.657	 16.93497	 15.66094	  0.70898	 14.17047	  2.10094	 -0.76406	 19.62955	706.92700	 22.80	
 17.007	 46.454	 16.94886	 14.91823	  1.27109	 14.98229	  1.51246	 -0.76227	 19.62451	705.17798	 22.90	
 17.001	 52.301	 16.95899	 14.09701	  1.91737	 15.70911	  1.00144	 -0.76575	 19.61573	706.87097	 22.80	
 17.006	 58.063	 16.98809	 13.21944	  2.62009	 16.34553	  0.56986	 -0.77304	 19.63065	706.78802	 22.80	
 17.002	 63.866	 17.00694	 12.28817	  3.36687	 16.89266	  0.23752	 -0.78647	 19.63158	705.73297	 22.90	
 17.001	 69.690	 17.00738	 11.31373	  4.15884	 17.34915	 -0.05697	 -0.80297	 19.63189	706.59802	 22.90	
 16.988	 75.483	 17.01939	 10.30047	  5.05235	 17.68315	 -0.25999	 -0.82055	 19.63415	706.81598	 22.90	
 17.012	 81.253	 17.00452	  9.28067	  5.97429	 17.91176	 -0.43502	 -0.83398	 19.62071	706.88202	 22.80	
 16.996	 87.091	 17.02155	  8.28679	  6.94556	 18.04867	 -0.50234	 -0.82666	 19.62717	706.74597	 22.90	
 16.996	 92.909	 17.00404	  7.27520	  7.94454	 18.05417	 -0.53487	 -0.81847	 19.62367	706.74103	 22.90	
 17.008	 98.662	 17.01807	  6.29939	  8.97047	 17.96909	 -0.46748	 -0.82219	 19.64427	706.82599	 22.90	
 16.988	104.517	 17.00936	  5.35393	  9.98872	 17.74503	 -0.27643	 -0.82769	 19.63280	706.81299	 22.90	
 17.001	110.310	 17.01464	  4.47359	 11.03266	 17.42812	 -0.04631	 -0.83417	 19.65400	706.83899	 22.90	
 17.002	116.134	 16.98814	  3.64454	 12.00743	 16.97487	  0.23852	 -0.84139	 19.62926	706.63898	 22.90	
 17.006	121.937	 16.98423	  2.85309	 12.96474	 16.46995	  0.59671	 -0.85285	 19.65003	706.83099	 22.90	
 17.001	127.699	 16.97166	  2.11391	 13.87138	 15.83191	  1.04591	 -0.85092	 19.64592	706.94897	 22.90	
 17.007	133.546	 16.92655	  1.40009	 14.67855	 15.09352	  1.53293	 -0.86074	 19.62337	706.99902	 22.90	
 17.014	139.343	 16.91858	  0.79759	 15.44039	 14.31433	  2.09723	 -0.86599	 19.63478	706.99902	 22.90	
 16.988	145.161	 16.92108	  0.31064	 16.12165	 13.44495	  2.77740	 -0.87507	 19.64469	707.03003	 22.90	
 16.995	150.919	 16.88351	 -0.12605	 16.69577	 12.51544	  3.47661	 -0.89262	 19.62889	706.92902	 22.90	
 16.990	156.759	 16.87389	 -0.47555	 17.20098	 11.55146	  4.26188	 -0.90159	 19.64592	706.75403	 22.90	
 17.000	162.596	 16.81249	 -0.77041	 17.56385	 10.50078	  5.11009	 -0.89152	 19.62123	705.19000	 22.90	
 17.009	168.383	 16.79289	 -0.96208	 17.82841	  9.49788	  5.99965	 -0.88506	 19.61803	706.76398	 22.90	
 16.990	174.179	 16.80856	 -1.07408	 18.00292	  8.49978	  6.93555	 -0.89283	 19.64986	706.81299	 22.90	
 18.709	174.675	 16.10555	 -2.19237	 18.44947	  7.94738	  6.39065	 -0.91816	 19.61280	705.95502	 22.90	
 18.703	169.441	 16.17366	 -2.06697	 18.33572	  8.96323	  5.51074	 -0.93729	 19.64716	705.61298	 22.90	
 18.691	164.085	 16.19629	 -1.89107	 18.08673	 10.00056	  4.60577	 -0.94076	 19.64037	705.66901	 22.90	
 18.706	158.818	 16.19505	 -1.67247	 17.72741	 10.99150	  3.75605	 -0.95362	 19.63282	705.17798	 22.90	
 18.695	153.537	 16.21850	 -1.35645	 17.28897	 11.94653	  2.99963	 -0.95476	 19.61829	706.43201	 22.90	
 18.704	148.255	 16.23778	 -1.00312	 16.75706	 12.90569	  2.25919	 -0.94837	 19.62836	705.14203	 22.90	
 18.698	142.952	 16.27432	 -0.55155	 16.13991	 13.83491	  1.59219	 -0.93105	 19.64792	706.88501	 22.90	
 18.699	137.625	 16.30883	 -0.03443	 15.44032	 14.70143	  0.98241	 -0.90738	 19.64286	706.91803	 22.90	
 18.705	132.343	 16.33520	  0.55450	 14.67342	 15.47778	  0.46949	 -0.89244	 19.65907	705.21600	 22.90	
 18.713	127.067	 16.33589	  1.20209	 13.83120	 16.18547	 -0.00605	 -0.86391	 19.66321	705.31097	 22.90	
 18.700	121.794	 16.32223	  1.96818	 12.90497	 16.76960	 -0.40668	 -0.82109	 19.61606	705.18103	 22.90	
 18.698	116.504	 16.33665	  2.75320	 11.94961	 17.30172	 -0.77004	 -0.79313	 19.62049	706.58099	 22.90	
 18.707	111.165	 16.35278	  3.55755	 10.98882	 17.76215	 -1.07133	 -0.76588	 19.63540	706.75403	 22.90	
 18.690	105.863	 16.40105	  4.45790	  9.98528	 18.10614	 -1.28445	 -0.74277	 19.65252	706.75201	 22.90	
 18.696	100.583	 16.38858	  5.34154	  8.96670	 18.33884	 -1.45060	 -0.74032	 19.63832	705.19098	 22.90	
 18.700	 95.309	 16.40704	  6.29233	  7.96082	 18.46761	 -1.53342	 -0.72398	 19.63949	705.20099	 22.90	
 18.700	 90.000	 16.40621	  7.28432	  6.96282	 18.50736	 -1.55628	 -0.75796	 19.63502	706.77100	 22.90	
 18.700	 84.691	 16.42240	  8.28928	  5.98295	 18.44466	 -1.49937	 -0.78600	 19.64186	705.54498	 22.90	
 18.696	 79.417	 16.42024	  9.27945	  5.04566	 18.29609	 -1.40982	 -0.83180	 19.65648	706.79401	 22.90	
 18.690	 74.137	 16.39576	 10.29412	  4.12768	 18.02114	 -1.25372	 -0.84361	 19.62652	705.76202	 22.90	
 18.707	 68.835	 16.41216	 11.29226	  3.30500	 17.69065	 -1.04978	 -0.85535	 19.65618	706.81897	 22.90	
 18.698	 63.496	 16.36953	 12.25839	  2.49603	 17.21211	 -0.76544	 -0.84615	 19.62200	706.63098	 22.90	
 18.700	 58.206	 16.37395	 13.20091	  1.76274	 16.68219	 -0.43003	 -0.82475	 19.64844	705.24103	 22.90	
 18.713	 52.933	 16.38083	 14.10215	  1.06928	 16.05851	 -0.00935	 -0.82875	 19.66850	705.75897	 22.90	
 18.705	 47.657	 16.36549	 14.92567	  0.44341	 15.31974	  0.48601	 -0.80401	 19.65103	706.80798	 22.90	
 18.699	 42.375	 16.34923	 15.67211	 -0.11379	 14.54900	  1.02048	 -0.78989	 19.64925	705.13397	 22.90	
 18.698	 37.048	 16.32429	 16.35330	 -0.60160	 13.69475	  1.61889	 -0.76693	 19.65400	706.39203	 22.90	
 18.704	 31.745	 16.29041	 16.94636	 -1.02923	 12.77813	  2.28157	 -0.72609	 19.63466	705.11401	 22.90	
 18.695	 26.463	 16.26434	 17.45725	 -1.39222	 11.82628	  3.01782	 -0.70396	 19.63894	706.80798	 22.90	
 18.706	 21.182	 16.23469	 17.86311	 -1.68537	 10.86237	  3.78380	 -0.66336	 19.63937	706.67401	 22.90	
 18.691	 15.915	 16.21360	 18.17550	 -1.90215	  9.86633	  4.62368	 -0.66413	 19.63013	706.76898	 22.90	
 18.703	 10.559	 16.18881	 18.42888	 -2.14451	  8.82879	  5.49172	 -0.64504	 19.65103	705.29901	 22.90	
 18.709	  5.325	 16.15974	 18.52774	 -2.23366	  7.83735	  6.43281	 -0.65275	 19.63789	705.10498	 22.90	
 18.700	  0.000	 16.13912	 18.54490	 -2.24363	  6.83428	  7.40780	 -0.64624	 19.61784	706.56299	 22.90	
 18.709	 -5.325	 16.13415	 18.50200	 -2.21741	  5.84529	  8.39372	 -0.67067	 19.64099	705.11200	 22.90	
 18.703	-10.559	 16.10762	 18.31708	 -2.08507	  4.93011	  9.34165	 -0.68010	 19.61855	706.40802	 22.90	
 18.691	-15.915	 16.10936	 18.05360	 -1.90234	  4.01818	 10.37721	 -0.70567	 19.63549	706.32202	 22.90	
 18.706	-21.182	 16.07059	 17.69250	 -1.68773	  3.15015	 11.34471	 -0.70196	 19.62830	705.19098	 22.90	
 18.695	-26.463	 16.07486	 17.24710	 -1.40596	  2.35386	 12.30855	 -0.70449	 19.64597	705.12598	 22.90	
 18.704	-31.745	 16.05610	 16.70598	 -1.05940	  1.59484	 13.24164	 -0.69681	 19.66122	705.06702	 22.90	
 18.698	-37.048	 16.03543	 16.05772	 -0.63963	  0.90871	 14.12304	 -0.69017	 19.65045	706.08502	 22.90	
 18.699	-42.375	 16.04762	 15.36110	 -0.15368	  0.29148	 14.95880	 -0.69596	 19.67312	705.19897	 22.90	
 18.705	-47.657	 15.98786	 14.52486	  0.37684	 -0.28263	 15.70669	 -0.68057	 19.64234	705.17401	 23.00	
 18.713	-52.933	 15.97237	 13.68648	  0.99384	 -0.79420	 16.40603	 -0.68042	 19.65538	705.15100	 23.00	
 18.700	-58.206	 15.97154	 12.77362	  1.69582	 -1.22190	 17.02238	 -0.65394	 19.67490	705.18103	 23.00	
 18.698	-63.496	 15.94806	 11.82315	  2.45618	 -1.55802	 17.51869	 -0.62947	 19.65836	705.19299	 23.00	
 18.707	-68.835	 15.92662	 10.83286	  3.28140	 -1.85280	 17.93218	 -0.61603	 19.65258	705.14502	 23.00	
 18.690	-74.137	 15.92097	  9.81290	  4.13349	 -2.06223	 18.27171	 -0.62416	 19.65510	705.17297	 23.00	
 18.696	-79.417	 15.89161	  8.78995	  5.01498	 -2.22033	 18.48147	 -0.63344	 19.64248	705.11401	 23.00	
 18.700	-84.691	 15.89407	  7.81211	  5.94600	 -2.30269	 18.62392	 -0.66408	 19.65556	706.15900	 23.00	
 18.700	-90.000	 15.87114	  6.78255	  6.91079	 -2.32294	 18.63966	 -0.70574	 19.62980	705.23602	 23.00	
 18.700	-95.309	 15.87521	  5.81993	  7.92509	 -2.29807	 18.61873	 -0.73478	 19.65603	706.85400	 23.00	
 18.696	-100.583	 15.84148	  4.86831	  8.91912	 -2.20321	 18.43533	 -0.78486	 19.61386	706.91602	 23.00	
 18.690	-105.863	 15.84904	  4.00312	  9.92698	 -2.04509	 18.20838	 -0.82960	 19.63045	706.85602	 23.00	
 18.707	-111.165	 15.86503	  3.13571	 10.94215	 -1.85453	 17.92788	 -0.86923	 19.67378	705.18201	 23.00	
 18.698	-116.504	 15.82404	  2.28781	 11.90116	 -1.54283	 17.44727	 -0.90035	 19.62860	705.42102	 23.00	
 18.700	-121.794	 15.82760	  1.55291	 12.81757	 -1.19626	 16.92668	 -0.91652	 19.61589	705.12000	 23.00	
 18.713	-127.067	 15.83843	  0.86139	 13.74054	 -0.76571	 16.31922	 -0.93105	 19.62766	705.17401	 23.00	
 18.705	-132.343	 15.86464	  0.24550	 14.58933	 -0.26195	 15.63437	 -0.94263	 19.63445	705.13702	 23.00	
 18.699	-137.625	 15.90138	 -0.29795	 15.37958	  0.31228	 14.86738	 -0.94966	 19.64300	705.12903	 23.00	
 18.698	-142.952	 15.93205	 -0.78161	 16.09626	  0.93267	 14.06487	 -0.95909	 19.65903	705.13702	 23.00	
 18.704	-148.255	 15.92222	 -1.19701	 16.70444	  1.61302	 13.16299	 -0.94057	 19.63712	706.64301	 23.00	
 18.695	-153.537	 15.95620	 -1.52975	 17.24650	  2.40125	 12.23216	 -0.91673	 19.63877	705.53400	 23.00	
 18.706	-158.818	 15.98420	 -1.81631	 17.71025	  3.21448	 11.28135	 -0.92129	 19.64947	705.06702	 23.00	
 18.691	-164.085	 16.03431	 -2.00191	 18.06435	  4.08799	 10.32430	 -0.92213	 19.66461	706.48499	 23.00	
 18.703	-169.441	 16.05822	 -2.14411	 18.31087	  5.02661	  9.33323	 -0.92402	 19.64835	705.15302	 23.00	
 18.709	-174.675	 16.06718	 -2.23141	 18.46121	  5.94657	  8.35674	 -0.92180	 19.64912	706.08801	 23.00	
 18.700	180.000	 16.10395	 -2.23691	 18.51391	  6.93518	  7.38151	 -0.93225	 19.65159	705.55902	 23.00	
 20.400	180.000	 15.35363	 -3.27160	 18.85641	  6.37392	  6.79847	 -0.87941	 19.62411	705.03601	 23.00	
 20.401	-175.153	 15.36198	 -3.24510	 18.83191	  5.42428	  7.76232	 -0.84808	 19.64542	706.54700	 23.00	
 20.407	-170.264	 15.28529	 -3.18919	 18.66495	  4.47016	  8.70784	 -0.83541	 19.60767	705.08002	 23.00	
 20.410	-165.423	 15.26764	 -3.08708	 18.46179	  3.56607	  9.68976	 -0.84000	 19.63159	705.09399	 23.00	
 20.392	-160.496	 15.26451	 -2.90992	 18.15516	  2.72065	 10.68519	 -0.83184	 19.63983	705.02698	 23.00	
 20.401	-155.705	 15.23159	 -2.69294	 17.75477	  1.91045	 11.62025	 -0.85782	 19.64517	705.48297	 23.00	
 20.405	-150.835	 15.21858	 -2.40983	 17.26975	  1.13307	 12.57018	 -0.86584	 19.65443	706.78802	 23.00	
 20.397	-145.903	 15.17513	 -2.03557	 16.64457	  0.40990	 13.47294	 -0.91043	 19.61937	706.17297	 23.00	
 20.392	-141.062	 15.16895	 -1.63227	 16.02893	 -0.22785	 14.33068	 -0.94127	 19.65273	705.18402	 23.00	
 20.396	-136.227	 15.14995	 -1.12742	 15.27809	 -0.80430	 15.12645	 -0.94406	 19.62491	705.17603	 23.00	
 20.408	-131.372	 15.13227	 -0.60632	 14.49614	 -1.36033	 15.89800	 -0.94447	 19.65856	705.03900	 23.00	
 20.410	-126.511	 15.09914	  0.00514	 13.61954	 -1.81040	 16.55805	 -0.93804	 19.62714	705.07202	 23.00	
 20.400	-121.604	 15.10355	  0.66900	 12.73659	 -2.21541	 17.16895	 -0.90103	 19.64375	705.16699	 23.00	
 20.403	-116.741	 15.11605	  1.39015	 11.80542	 -2.56833	 17.71321	 -0.88227	 19.66672	705.07800	 23.00	
 20.413	-111.900	 15.07784	  2.15041	 10.81655	 -2.86020	 18.12199	 -0.83973	 19.63385	705.78101	 23.00	
 20.398	-107.004	 15.09285	  2.98032	  9.83292	 -3.08411	 18.46606	 -0.81013	 19.63996	705.15302	 23.00	
 20.394	-102.132	 15.08699	  3.84842	  8.83869	 -3.24376	 18.72172	 -0.74708	 19.63339	705.11200	 23.00	
 20.403	-97.332	 15.09807	  4.75117	  7.86669	 -3.36855	 18.90691	 -0.66719	 19.65365	705.16998	 23.00	
 20.392	-92.440	 15.08938	  5.69114	  6.85022	 -3.42747	 18.99455	 -0.61883	 19.63567	705.12799	 23.00	
 20.392	-87.560	 15.11298	  6.67376	  5.88479	 -3.43007	 19.00472	 -0.60846	 19.64590	705.23999	 23.00	
 20.403	-82.668	 15.12948	  7.66798	  4.93762	 -3.37923	 18.93212	 -0.58909	 19.64213	705.08099	 23.00	
 20.394	-77.868	 15.13410	  8.64819	  4.05135	 -3.27508	 18.77201	 -0.57556	 19.64002	704.98499	 23.00	
 20.398	-72.996	 15.18240	  9.68550	  3.18705	 -3.11159	 18.55013	 -0.58542	 19.66471	705.11401	 23.00	
 20.413	-68.100	 15.15876	 10.65633	  2.34072	 -2.88715	 18.18342	 -0.56207	 19.62916	705.17297	 23.00	
 20.403	-63.259	 15.21763	 11.65709	  1.56453	 -2.60783	 17.78626	 -0.55088	 19.67039	705.19299	 23.00	
 20.400	-58.396	 15.21520	 12.59854	  0.82178	 -2.24890	 17.25749	 -0.58934	 19.65117	705.02399	 23.00	
 20.410	-53.489	 15.21757	 13.51810	  0.13370	 -1.86368	 16.64686	 -0.60225	 19.63761	705.10498	 23.00	
 20.408	-48.628	 15.25161	 14.39196	 -0.45433	 -1.40291	 15.99311	 -0.61177	 19.65290	705.16199	 23.00	
 20.396	-43.773	 15.27907	 15.19728	 -0.98426	 -0.86002	 15.25477	 -0.63554	 19.64301	705.22101	 23.00	
 20.392	-38.938	 15.31037	 15.95948	 -1.47150	 -0.26525	 14.44009	 -0.65741	 19.65273	705.25201	 23.10	
 20.397	-34.097	 15.28894	 16.57601	 -1.88752	  0.36380	 13.57069	 -0.65750	 19.61098	705.17401	 23.10	
 20.405	-29.165	 15.32403	 17.21588	 -2.27594	  1.05944	 12.67950	 -0.65510	 19.64079	705.15997	 23.10	
 20.401	-24.295	 15.34251	 17.71445	 -2.55674	  1.83050	 11.72831	 -0.65274	 19.63464	705.09698	 23.10	
 20.392	-19.504	 15.36569	 18.13566	 -2.80925	  2.63638	 10.77462	 -0.65715	 19.63939	704.97900	 23.10	
 20.410	-14.577	 15.38196	 18.46853	 -3.01006	  3.48380	  9.79306	 -0.63451	 19.62946	705.11401	 23.10	
 20.407	 -9.736	 15.40372	 18.72711	 -3.20176	  4.36665	  8.79793	 -0.63130	 19.64871	706.82501	 23.10	
 20.401	 -4.847	 15.40273	 18.86634	 -3.29917	  5.31016	  7.80321	 -0.59706	 19.63766	706.66498	 23.10	
 20.400	  0.000	 15.44821	 18.95601	 -3.32268	  6.28611	  6.84934	 -0.58737	 19.66973	705.28601	 23.10	
 20.401	  4.847	 15.45493	 18.91460	 -3.27577	  7.27166	  5.87550	 -0.58946	 19.65546	705.08600	 23.10	
 20.407	  9.736	 15.48129	 18.81279	 -3.15701	  8.25903	  4.99576	 -0.58910	 19.65935	705.11102	 23.10	
 20.410	 14.577	 15.47857	 18.59522	 -3.01463	  9.23708	  4.12036	 -0.57236	 19.62547	705.14203	 23.10	
 20.392	 19.504	 15.53248	 18.32318	 -2.80327	 10.26220	  3.29724	 -0.57973	 19.65301	705.02100	 23.10	
 20.401	 24.295	 15.55025	 17.94430	 -2.54170	 11.22675	  2.52728	 -0.60248	 19.63845	704.99799	 23.10	
 20.405	 29.165	 15.56904	 17.47396	 -2.22131	 12.19219	  1.77313	 -0.63899	 19.63753	705.16803	 23.10	
 20.397	 34.097	 15.59201	 16.91588	 -1.85947	 13.13021	  1.07545	 -0.68696	 19.64414	705.04303	 23.00	
 20.392	 38.938	 15.63099	 16.31243	 -1.44757	 14.02920	  0.46201	 -0.74517	 19.66609	705.15302	 23.10	
 20.396	 43.773	 15.66414	 15.62219	 -0.95403	 14.85195	 -0.09235	 -0.78160	 19.67863	705.15997	 23.10	
 20.408	 48.628	 15.64086	 14.83314	 -0.45076	 15.62586	 -0.63494	 -0.81853	 19.65830	705.15302	 23.10	
 20.410	 53.489	 15.65645	 13.99468	  0.15959	 16.32578	 -1.06966	 -0.82640	 19.65289	705.18402	 23.10	
 20.400	 58.396	 15.66774	 13.10426	  0.82077	 16.94503	 -1.46383	 -0.84930	 19.65548	705.31598	 23.10	
 20.403	 63.259	 15.67000	 12.17824	  1.55106	 17.48572	 -1.78933	 -0.86259	 19.65101	705.27802	 23.10	
 20.413	 68.100	 15.69057	 11.21827	  2.33733	 17.95649	 -2.06055	 -0.85124	 19.65460	705.31702	 23.10	
 20.398	 72.996	 15.69938	 10.22665	  3.16741	 18.30482	 -2.26550	 -0.83604	 19.63726	705.30298	 23.10	
 20.394	 77.868	 15.71098	  9.22915	  4.03303	 18.60521	 -2.43702	 -0.80219	 19.65749	705.22101	 23.10	
 20.403	 82.668	 15.71272	  8.23303	  4.93207	 18.79537	 -2.55684	 -0.75451	 19.66362	705.21198	 23.10	
 20.392	 87.560	 15.69616	  7.24319	  5.88080	 18.86524	 -2.60326	 -0.69817	 19.63761	705.09399	 23.10	
 20.392	 92.440	 15.70969	  6.23344	  6.87401	 18.88603	 -2.60485	 -0.65674	 19.64864	705.21198	 23.10	
 20.403	 97.332	 15.70916	  5.30148	  7.87019	 18.81884	 -2.55684	 -0.63781	 19.64909	705.24701	 23.10	
 20.394	102.132	 15.71392	  4.41636	  8.89474	 18.65196	 -2.43450	 -0.64321	 19.65535	705.19000	 23.10	
 20.398	107.004	 15.69416	  3.53117	  9.88382	 18.39493	 -2.27407	 -0.65717	 19.65971	705.07001	 23.10	
 20.413	111.900	 15.68184	  2.64722	 10.87483	 18.04103	 -2.05267	 -0.69032	 19.65338	705.15900	 23.10	
 20.403	116.741	 15.65522	  1.80711	 11.83583	 17.59873	 -1.77933	 -0.72909	 19.64377	705.19897	 23.10	
 20.400	121.604	 15.66164	  1.06818	 12.79014	 17.08328	 -1.44866	 -0.77659	 19.65151	705.25500	 23.10	
 20.410	126.511	 15.62387	  0.35395	 13.69286	 16.45727	 -1.06697	 -0.83633	 19.65022	705.62299	 23.10	
 20.408	131.372	 15.60372	 -0.27324	 14.53621	 15.73994	 -0.60683	 -0.87085	 19.62721	705.15302	 23.10	
 20.396	136.227	 15.62337	 -0.83326	 15.36095	 14.99080	 -0.09498	 -0.91100	 19.65828	705.06299	 23.10	
 20.392	141.062	 15.60510	 -1.34478	 16.08223	 14.17575	  0.45528	 -0.92695	 19.66669	705.03198	 23.10	
 20.397	145.903	 15.58232	 -1.78403	 16.71916	 13.30862	  1.06048	 -0.95375	 19.65371	705.02399	 23.10	
 20.405	150.835	 15.55847	 -2.18870	 17.31410	 12.35576	  1.76212	 -0.97781	 19.67304	705.15900	 23.10	
 20.401	155.705	 15.52510	 -2.51540	 17.80484	 11.35545	  2.50088	 -0.96529	 19.65311	705.09698	 23.10	
 20.392	160.496	 15.51235	 -2.75980	 18.19754	 10.41431	  3.26883	 -0.96535	 19.65884	704.99402	 23.10	
 20.410	165.423	 15.45227	 -2.96636	 18.48745	  9.37707	  4.09798	 -0.95459	 19.63514	705.24902	 23.10	
 20.407	170.264	 15.43466	 -3.11760	 18.70802	  8.37087	  4.97382	 -0.92254	 19.62768	705.21503	 23.10	
 20.401	175.153	 15.40514	 -3.22162	 18.83786	  7.37149	  5.87329	 -0.90380	 19.64244	705.16803	 23.10	
  0.141	 45.000	 19.67258	 10.28446	 10.14264	 10.15785	 10.60433	  0.17961	 19.65715	705.12799	 23.10	
  4.001	128.691	 19.62296	  8.61088	 11.52786	 11.81697	  8.74022	  0.10078	 19.65501	705.06299	 23.10	
  4.002	 76.995	 19.62366	 10.65918	  9.47233	 12.30142	  8.31950	  0.09298	 19.64083	705.12201	 23.10	
  4.002	 25.892	 19.59413	 12.24540	  7.95180	 10.96360	  9.45314	  0.07122	 19.62936	705.19000	 23.10	
  4.002	-25.892	 19.61949	 12.20391	  7.96711	  8.91371	 11.50882	  0.04439	 19.67704	705.07397	 23.10	
  4.002	-76.995	 19.55174	 10.52481	  9.46324	  7.68205	 12.79230	  0.02746	 19.64422	705.11401	 23.10	
  4.001	-128.691	 19.55196	  8.50924	 11.51398	  8.12149	 12.31952	  0.06177	 19.63905	705.12201	 23.10	
  4.000	180.000	 19.58123	  7.75549	 12.44611	  9.90243	 10.48894	  0.07980	 19.63062	705.15002	 23.10	
  8.000	180.000	 19.16749	  5.09221	 14.55270	  9.44908	  9.97514	 -0.17168	 19.65060	705.15100	 23.10	
  7.991	-152.370	 19.11618	  5.54812	 13.95751	  7.25983	 12.21287	 -0.18455	 19.64563	705.07001	 23.20	
  7.997	-124.550	 19.07227	  6.89858	 12.32101	  5.62909	 14.02043	 -0.23250	 19.65017	705.18103	 23.20	
  8.006	-96.837	 19.06554	  8.87332	 10.08778	  4.92678	 14.87714	 -0.29617	 19.64633	705.04901	 23.20	
  7.988	-69.228	 19.09774	 11.20387	  7.84931	  5.17055	 14.58167	 -0.31614	 19.64859	705.28302	 23.20	
  7.997	-41.563	 19.11311	 13.20911	  6.09079	  6.31493	 13.24144	 -0.27166	 19.63725	705.08099	 23.20	
  8.008	-13.821	 19.15927	 14.42090	  5.12492	  8.28930	 11.12661	 -0.23297	 19.64382	705.18799	 23.20	
  8.008	 13.821	 19.21140	 14.48082	  5.12979	 10.61793	  8.84346	 -0.22030	 19.63820	705.19299	 23.20	
  7.997	 41.563	 19.27707	 13.37682	  6.07655	 12.77145	  7.01606	 -0.16821	 19.67653	705.18799	 23.20	
  7.988	 69.228	 19.26492	 11.37949	  7.81614	 14.17251	  5.84094	 -0.17836	 19.63883	705.25201	 23.20	
  8.006	 96.837	 19.26245	  9.05795	 10.05062	 14.49411	  5.62494	 -0.21424	 19.64358	705.36401	 23.20	
  7.997	124.550	 19.24567	  7.07513	 12.29589	 13.62862	  6.33699	 -0.18741	 19.64777	705.13702	 23.20	
  7.991	152.370	 19.20665	  5.63382	 13.96313	 11.73304	  7.90137	 -0.16972	 19.64541	705.35400	 23.20	
 12.009	161.059	 18.34078	  2.63808	 15.92730	 11.09107	  6.96045	 -0.52772	 19.61642	705.16199	 23.20	
 12.013	142.081	 18.41413	  3.66797	 14.71663	 13.33722	  5.09284	 -0.52767	 19.64662	705.24902	 23.20	
 12.006	123.113	 18.46902	  5.20839	 12.81997	 15.06324	  3.76644	 -0.57566	 19.63782	705.19598	 23.20	
 12.007	104.200	 18.51826	  7.27054	 10.55306	 16.12431	  3.01015	 -0.64285	 19.66872	705.24103	 23.20	
 11.989	 85.301	 18.52516	  9.54849	  8.18646	 16.28999	  2.87472	 -0.57896	 19.65273	705.23297	 23.20	
 12.013	 66.294	 18.49939	 11.91022	  5.99182	 15.63177	  3.31715	 -0.49877	 19.63674	705.17297	 23.20	
 12.012	 47.388	 18.48606	 14.01366	  4.17553	 14.21202	  4.36937	 -0.50017	 19.65046	705.26898	 23.20	
 11.990	 28.440	 18.42327	 15.52277	  2.95181	 12.19497	  6.02193	 -0.57917	 19.63251	705.15100	 23.20	
 11.991	  9.464	 18.39860	 16.31869	  2.36399	  9.89097	  8.10051	 -0.58965	 19.65320	705.19000	 23.20	
 11.991	 -9.464	 18.34909	 16.25208	  2.40938	  7.53191	 10.37790	 -0.57521	 19.63651	705.29199	 23.20	
 11.990	-28.440	 18.28233	 15.36658	  3.02427	  5.36557	 12.68902	 -0.58652	 19.61931	705.17603	 23.20	
 12.012	-47.388	 18.25154	 13.77603	  4.19494	  3.72510	 14.63078	 -0.62891	 19.64045	705.19800	 23.20	
 12.013	-66.294	 18.21741	 11.64944	  5.95487	  2.64514	 16.00890	 -0.71523	 19.65247	705.34198	 23.20	
 11.989	-85.301	 18.19014	  9.25113	  8.17386	  2.22595	 16.58688	 -0.72345	 19.64467	705.18201	 23.20	
 12.007	-104.200	 18.16815	  6.97853	 10.51951	  2.32902	 16.38910	 -0.65493	 19.63379	705.29401	 23.20	
 12.006	-123.113	 18.15206	  4.96383	 12.77830	  3.08439	 15.37389	 -0.57141	 19.62309	705.31403	 23.20	
 12.013	-142.081	 18.21222	  3.52455	 14.68944	  4.47804	 13.69465	 -0.53880	 19.64818	705.22900	 23.20	
 12.009	-161.059	 18.26097	  2.63096	 15.92478	  6.41374	 11.52737	 -0.58031	 19.64994	705.29199	 23.20	
 16.000	180.000	 17.11765	 -0.47615	 17.75030	  7.73800	  8.22311	 -0.87964	 19.64681	705.33698	 23.20	
 15.990	-165.604	 17.02459	 -0.30615	 17.39936	  5.44753	 10.51309	 -0.91159	 19.61032	705.24701	 23.20	
 16.002	-151.165	 16.99496	  0.29558	 16.48620	  3.41592	 12.78752	 -0.89145	 19.65818	705.25201	 23.20	
 16.002	-136.836	 16.92007	  1.38036	 14.93939	  1.74980	 14.79108	 -0.83694	 19.63521	705.25702	 23.20	
 15.995	-122.439	 16.85553	  2.92732	 12.95901	  0.50716	 16.37515	 -0.82942	 19.59234	705.22101	 23.20	
 15.993	-107.966	 16.89748	  4.82924	 10.70248	 -0.28379	 17.49284	 -0.85989	 19.64907	705.18500	 23.20	
 16.005	-93.629	 16.88836	  7.02129	  8.29966	 -0.63449	 17.96282	 -0.84071	 19.64022	705.26398	 23.20	
 15.992	-79.234	 16.91546	  9.36099	  6.01195	 -0.50748	 17.81165	 -0.79344	 19.62864	705.34802	 23.20	
 16.009	-64.774	 16.96194	 11.76519	  3.94492	  0.03619	 17.06770	 -0.76216	 19.64985	705.34998	 23.20	
 15.997	-50.364	 17.01850	 13.95553	  2.24738	  1.06613	 15.73448	 -0.75468	 19.65084	705.30200	 23.20	
 15.997	-36.045	 17.03408	 15.71342	  0.94103	  2.49346	 13.88424	 -0.75646	 19.62751	705.22400	 23.20	
 16.000	-21.597	 17.08941	 17.01450	  0.08204	  4.32962	 11.71983	 -0.76844	 19.63128	705.26300	 23.20	
 16.003	 -7.169	 17.12547	 17.69395	 -0.36605	  6.48328	  9.36022	 -0.73612	 19.61900	705.23199	 23.20	
 16.003	  7.169	 17.19330	 17.77292	 -0.43378	  8.82961	  7.11071	 -0.75203	 19.66075	705.11499	 23.20	
 16.000	 21.597	 17.21314	 17.19101	 -0.00805	 11.20097	  4.92017	 -0.78778	 19.63658	705.23999	 23.20	
 15.997	 36.045	 17.28952	 16.00343	  0.94604	 13.43012	  3.16249	 -0.78071	 19.64902	705.33099	 23.20	
 15.997	 50.364	 17.31963	 14.28806	  2.26743	 15.31884	  1.78224	 -0.75265	 19.63952	705.14301	 23.20	
 16.009	 64.774	 17.35976	 12.19275	  3.94233	 16.73847	  0.82307	 -0.77283	 19.65252	705.19000	 23.20	
 15.992	 79.234	 17.36654	  9.80739	  6.04241	 17.55178	  0.30512	 -0.83727	 19.64469	705.17798	 23.20	
 16.005	 93.629	 17.34946	  7.44816	  8.33903	 17.74369	  0.15412	 -0.86457	 19.64101	705.24902	 23.20	
 15.993	107.966	 17.33219	  5.23870	 10.70942	 17.25247	  0.50553	 -0.86830	 19.61546	705.20502	 23.20	
 15.995	122.439	 17.31263	  3.32215	 13.00616	 16.17038	  1.27380	 -0.86363	 19.63885	705.26001	 23.20	
 16.002	136.836	 17.25880	  1.68229	 14.97822	 14.53476	  2.42343	 -0.83774	 19.61856	705.29102	 23.20	
 16.002	151.165	 17.20700	  0.48918	 16.46693	 12.47465	  3.99753	 -0.84851	 19.61250	705.22101	 23.20	
 15.990	165.604	 17.19034	 -0.21279	 17.44959	 10.13410	  6.02478	 -0.85785	 19.65293	705.24402	 23.20	
 20.003	168.362	 15.61072	 -2.82465	 18.54208	  8.84885	  4.79895	 -0.96199	 19.62103	705.35602	 23.20	
 20.008	156.764	 15.66895	 -2.34631	 17.81065	 11.19723	  2.85420	 -0.98306	 19.63875	705.37097	 23.20	
 20.000	145.147	 15.73525	 -1.50838	 16.58268	 13.42704	  1.17794	 -0.96957	 19.64653	705.40399	 23.20	
 19.995	133.545	 15.78614	 -0.31272	 14.92025	 15.38698	 -0.14527	 -0.90597	 19.65484	705.39001	 23.20	
 20.009	121.926	 15.78391	  1.19981	 12.86130	 16.95590	 -1.19182	 -0.81761	 19.62824	705.28802	 23.20	
 20.005	110.327	 15.84399	  3.10987	 10.63122	 18.06812	 -1.86992	 -0.71317	 19.64211	705.26300	 23.20	
 19.989	 98.733	 15.87456	  5.19612	  8.27915	 18.67254	 -2.25372	 -0.68558	 19.63836	705.29901	 23.30	
 19.999	 87.075	 15.88290	  7.45223	  5.96970	 18.77098	 -2.33819	 -0.72684	 19.63847	705.28497	 23.30	
 19.992	 75.457	 15.87787	  9.79543	  3.78908	 18.37190	 -2.09244	 -0.85014	 19.64389	705.36700	 23.30	
 20.009	 63.844	 15.84737	 12.08584	  1.87325	 17.46563	 -1.56062	 -0.87032	 19.63675	705.28003	 23.30	
 19.989	 52.269	 15.83710	 14.19636	  0.25350	 16.09458	 -0.69690	 -0.84463	 19.64448	705.21802	 23.30	
 19.999	 40.602	 15.78983	 16.01057	 -1.02948	 14.28113	  0.50920	 -0.78148	 19.63241	705.28302	 23.30	
 20.004	 29.051	 15.71761	 17.41119	 -2.01263	 12.16812	  2.00995	 -0.68816	 19.61409	705.27502	 23.30	
 20.005	 17.433	 15.68456	 18.36694	 -2.65130	  9.90883	  3.82496	 -0.61633	 19.63701	705.24597	 23.30	
 20.006	  5.780	 15.60703	 18.79373	 -3.03224	  7.54635	  5.85225	 -0.60959	 19.62435	705.13898	 23.30	
 20.006	 -5.780	 15.58866	 18.77035	 -3.04057	  5.28509	  8.11523	 -0.65311	 19.65130	705.34998	 23.30	
 20.005	-17.433	 15.53310	 18.21539	 -2.68183	  3.15454	 10.43625	 -0.68596	 19.63851	705.13702	 23.30	
 20.004	-29.051	 15.49340	 17.16689	 -2.03199	  1.30248	 12.66239	 -0.69354	 19.62897	705.30902	 23.30	
 19.999	-40.602	 15.45282	 15.64639	 -1.06976	 -0.23625	 14.68879	 -0.68046	 19.60311	705.23602	 23.30	
 19.989	-52.269	 15.42529	 13.76149	  0.20431	 -1.48591	 16.44302	 -0.64822	 19.64252	705.36200	 23.30	
 20.009	-63.844	 15.36686	 11.58465	  1.85169	 -2.37810	 17.74200	 -0.60163	 19.62227	705.39600	 23.30	
 19.992	-75.457	 15.33905	  9.26350	  3.78921	 -2.93009	 18.56662	 -0.61336	 19.63058	705.33899	 23.30	
 19.999	-87.075	 15.29228	  6.91370	  5.91390	 -3.16231	 18.90594	 -0.65442	 19.63135	705.30298	 23.30	
 19.989	-98.733	 15.27950	  4.66823	  8.24529	 -3.07174	 18.78551	 -0.72590	 19.63343	705.36200	 23.30	
 20.005	-110.327	 15.27231	  2.61031	 10.56618	 -2.68228	 18.18330	 -0.87802	 19.63447	705.30200	 23.30	
 20.009	-121.926	 15.27943	  0.83830	 12.80644	 -1.95371	 17.09691	 -0.94822	 19.64326	705.42902	 23.30	
 19.995	-133.545	 15.32095	 -0.60094	 14.82547	 -0.88043	 15.55037	 -0.96444	 19.63279	705.25702	 23.30	
 20.000	-145.147	 15.37550	 -1.72036	 16.52793	  0.52870	 13.65567	 -0.93389	 19.65064	705.31702	 23.30	
 20.008	-156.764	 15.40526	 -2.51602	 17.76845	  2.25868	 11.47969	 -0.88410	 19.63198	705.26801	 23.30	
 20.003	-168.362	 15.47466	 -2.91675	 18.53631	  4.29231	  9.21783	 -0.86787	 19.63971	705.34003	 23.30	
 20.000	180.000	 15.54056	 -3.01810	 18.77227	  6.51230	  6.95825	 -0.90564	 19.62506	705.16699	 23.30	
