FileType=PCF
NHL=14
Date=08/25/17	17:56:02
Facility=APL
Serial=16328-7
Customer=NASA
NP=6
Mach=0.150000
Calibration=1:1
CalPts=490
TstPts=95
PortNumbering=AP Standard
Units=Torr C m/s kg/m^3 deg mm 
Theta[deg]	Phi[deg]	P1[Torr]	P2[Torr]	P3[Torr]	P4[Torr]	P5[Torr]	P6[Torr]	Pt[Torr]	Ps[Abs,Torr]	Ts[C]	
  0.000	  0.000	 11.07651	  5.94898	  6.01062	  5.81666	  6.14875	  0.07968	 11.06391	707.58502	 24.50	
  1.691	128.401	 11.06581	  5.60504	  6.32077	  6.22685	  5.70160	  0.07764	 11.05522	707.50098	 24.50	
  1.692	 77.194	 11.07611	  6.07135	  5.86616	  6.35517	  5.60089	  0.07446	 11.06436	707.53802	 24.50	
  1.699	 26.182	 11.09201	  6.44692	  5.51270	  6.07513	  5.89602	  0.06963	 11.07647	707.52301	 24.50	
  1.699	-26.182	 11.08565	  6.43470	  5.51554	  5.57917	  6.37913	  0.06602	 11.07363	708.47998	 24.50	
  1.692	-77.194	 11.06923	  6.04758	  5.87555	  5.28219	  6.64992	  0.06153	 11.05813	707.55402	 24.50	
  1.691	-128.401	 11.06181	  5.58648	  6.32389	  5.36223	  6.54638	  0.06733	 11.04967	707.70300	 24.50	
  1.700	180.000	 11.07540	  5.39533	  6.54123	  5.78979	  6.13198	  0.07399	 11.06400	707.75299	 24.50	
  3.400	180.000	 11.05702	  4.83876	  7.06306	  5.73885	  6.06574	  0.05881	 11.06741	707.64697	 24.50	
  3.388	-152.325	 11.04600	  4.94180	  6.92154	  5.24130	  6.56884	  0.03656	 11.06556	707.65503	 24.50	
  3.397	-124.529	 11.01710	  5.24131	  6.54877	  4.85962	  6.95068	  0.02418	 11.03848	707.65601	 24.50	
  3.399	-96.763	 11.02707	  5.71545	  6.05907	  4.69127	  7.14964	  0.01599	 11.04297	707.69202	 24.50	
  3.394	-69.283	 11.05541	  6.23770	  5.56851	  4.77413	  7.10126	  0.01509	 11.06653	707.67297	 24.50	
  3.400	-41.398	 11.03822	  6.69091	  5.13472	  5.06832	  6.76718	  0.02200	 11.04323	707.70001	 24.50	
  3.401	-14.021	 11.04864	  6.94842	  4.91846	  5.51435	  6.31663	  0.03330	 11.05043	707.59399	 24.50	
  3.401	 14.021	 11.08667	  6.99174	  4.92880	  6.07089	  5.81836	  0.05067	 11.08329	707.71399	 24.50	
  3.400	 41.398	 11.08277	  6.73272	  5.16454	  6.53018	  5.38252	  0.04843	 11.07399	707.72302	 24.50	
  3.394	 69.283	 11.07499	  6.30612	  5.56183	  6.81095	  5.11281	  0.04994	 11.06684	707.73401	 24.50	
  3.399	 96.763	 11.08029	  5.77937	  6.08354	  6.87524	  5.05047	  0.05595	 11.07826	707.65900	 24.50	
  3.397	124.529	 11.06758	  5.30437	  6.57040	  6.68145	  5.21479	  0.06004	 11.06824	707.71399	 24.50	
  3.388	152.325	 11.04060	  4.96447	  6.91572	  6.25534	  5.56601	  0.05941	 11.04623	707.65503	 24.50	
  5.099	161.165	 11.00872	  4.32670	  7.47948	  6.19870	  5.46149	  0.01692	 11.07431	707.65900	 24.50	
  5.109	142.013	 11.02417	  4.57581	  7.20900	  6.71750	  5.01224	  0.01268	 11.08189	707.68298	 24.50	
  5.095	123.033	 11.01914	  4.95333	  6.77964	  7.10031	  4.67872	  0.00642	 11.06814	707.66699	 24.50	
  5.105	104.191	 11.01951	  5.43825	  6.25317	  7.35387	  4.46820	  0.01001	 11.05477	707.78003	 24.50	
  5.093	 85.207	 11.04312	  5.97243	  5.72584	  7.41252	  4.43968	  0.00440	 11.07199	707.81598	 24.50	
  5.104	 66.290	 11.02613	  6.50048	  5.20157	  7.27305	  4.54745	  0.00708	 11.05545	707.87000	 24.50	
  5.094	 47.331	 11.02711	  6.96196	  4.77967	  6.96581	  4.81333	  0.00150	 11.05988	707.87500	 24.50	
  5.089	 28.397	 11.02850	  7.31419	  4.46423	  6.52531	  5.20820	  0.00037	 11.06416	707.73901	 24.50	
  5.096	  9.576	 11.02315	  7.49553	  4.29953	  6.00006	  5.69592	 -0.00149	 11.06324	707.66302	 24.50	
  5.096	 -9.576	 11.01320	  7.48422	  4.29521	  5.42579	  6.25133	 -0.01021	 11.05640	707.70801	 24.50	
  5.089	-28.397	 11.00227	  7.27960	  4.45743	  4.92016	  6.76809	 -0.02037	 11.05539	707.71503	 24.50	
  5.094	-47.331	 10.97543	  6.90292	  4.75664	  4.49101	  7.20857	 -0.03283	 11.03932	707.81500	 24.50	
  5.104	-66.290	 10.99170	  6.43792	  5.19597	  4.20500	  7.55083	 -0.04315	 11.06960	707.78497	 24.50	
  5.093	-85.207	 10.98411	  5.89539	  5.71308	  4.07109	  7.69669	 -0.03220	 11.06786	707.90100	 24.50	
  5.105	-104.191	 10.94778	  5.33887	  6.24358	  4.08597	  7.62496	 -0.03753	 11.03716	707.87701	 24.50	
  5.095	-123.033	 10.95885	  4.87331	  6.76652	  4.28720	  7.39158	 -0.02432	 11.05144	707.81598	 24.50	
  5.109	-142.013	 10.94994	  4.49825	  7.18819	  4.62390	  6.99496	 -0.00104	 11.04446	707.80200	 24.50	
  5.099	-161.165	 10.94910	  4.27916	  7.45221	  5.08744	  6.48865	  0.00240	 11.03252	707.77301	 24.50	
  5.100	180.000	 11.00751	  4.23454	  7.58550	  5.65537	  5.97856	  0.02246	 11.08411	707.79901	 24.50	
  6.800	180.000	 10.86654	  3.57881	  8.05618	  5.49554	  5.84843	 -0.03209	 11.05401	707.74298	 24.50	
  6.796	-166.229	 10.85771	  3.62702	  7.98719	  4.96971	  6.37635	 -0.06207	 11.05331	707.80701	 24.40	
  6.808	-152.311	 10.86260	  3.78453	  7.79325	  4.48900	  6.89817	 -0.07056	 11.06158	707.82501	 24.40	
  6.795	-138.383	 10.86461	  4.05904	  7.46622	  4.07231	  7.37381	 -0.07728	 11.07026	707.88599	 24.40	
  6.792	-124.591	 10.85073	  4.41975	  7.03296	  3.74484	  7.74779	 -0.09609	 11.05978	707.79401	 24.40	
  6.787	-110.754	 10.85448	  4.86563	  6.54092	  3.53401	  8.01713	 -0.11534	 11.05823	707.85999	 24.50	
  6.800	-96.985	 10.86621	  5.36993	  6.01652	  3.43019	  8.16595	 -0.12656	 11.06932	707.78003	 24.40	
  6.800	-83.015	 10.86274	  5.91077	  5.47011	  3.44046	  8.16030	 -0.13558	 11.05808	707.75403	 24.40	
  6.787	-69.246	 10.87994	  6.44566	  4.96992	  3.56741	  8.03053	 -0.13642	 11.06760	707.91199	 24.40	
  6.792	-55.409	 10.85287	  6.92144	  4.50204	  3.78843	  7.74159	 -0.12468	 11.02763	707.78400	 24.40	
  6.795	-41.617	 10.90183	  7.37597	  4.14758	  4.14534	  7.38746	 -0.10696	 11.06443	707.88300	 24.40	
  6.808	-27.689	 10.89426	  7.70511	  3.85625	  4.56736	  6.90660	 -0.09614	 11.04696	707.91699	 24.40	
  6.796	-13.771	 10.90976	  7.91971	  3.69222	  5.06312	  6.39680	 -0.08364	 11.04838	707.81299	 24.40	
  6.800	  0.000	 10.93370	  8.01309	  3.63762	  5.60443	  5.87181	 -0.07298	 11.06271	707.91998	 24.40	
  6.796	 13.771	 10.94495	  7.95691	  3.69526	  6.15508	  5.34765	 -0.06818	 11.07198	707.93402	 24.40	
  6.808	 27.689	 10.93525	  7.75472	  3.85584	  6.66949	  4.85576	 -0.06941	 11.05252	707.88300	 24.40	
  6.795	 41.617	 10.95225	  7.44143	  4.14462	  7.13720	  4.45824	 -0.06310	 11.06828	707.80499	 24.40	
  6.792	 55.409	 10.96226	  7.02242	  4.52348	  7.51940	  4.13876	 -0.05680	 11.07255	707.70398	 24.40	
  6.787	 69.246	 10.94190	  6.52070	  4.96464	  7.76635	  3.91431	 -0.06282	 11.05444	707.81500	 24.40	
  6.800	 83.015	 10.93795	  5.99546	  5.46221	  7.90144	  3.79221	 -0.06428	 11.05010	707.88397	 24.40	
  6.800	 96.985	 10.93868	  5.45490	  6.00515	  7.89840	  3.79302	 -0.06529	 11.05859	707.83899	 24.40	
  6.787	110.754	 10.90974	  4.94519	  6.52118	  7.72996	  3.90752	 -0.06509	 11.03420	707.81000	 24.40	
  6.792	124.591	 10.92077	  4.50147	  7.02930	  7.46376	  4.13959	 -0.05432	 11.06105	708.02899	 24.40	
  6.795	138.383	 10.90206	  4.12513	  7.44615	  7.06351	  4.45514	 -0.04883	 11.04895	707.78003	 24.40	
  6.808	152.311	 10.90742	  3.83829	  7.79041	  6.59914	  4.86018	 -0.04875	 11.07007	707.90100	 24.40	
  6.796	166.229	 10.88565	  3.65697	  7.98849	  6.05772	  5.33037	 -0.04385	 11.06083	708.08301	 24.40	
  8.491	168.704	 10.73696	  2.98995	  8.46029	  5.92447	  5.16617	 -0.11982	 11.06229	707.85303	 24.40	
  8.502	157.493	 10.73747	  3.13060	  8.28577	  6.46882	  4.66738	 -0.12952	 11.05057	707.95099	 24.40	
  8.494	146.194	 10.75487	  3.37429	  8.00520	  6.99189	  4.22357	 -0.12836	 11.05220	707.96198	 24.40	
  8.495	135.039	 10.75063	  3.68631	  7.62519	  7.44802	  3.83674	 -0.12817	 11.03694	707.87701	 24.40	
  8.487	123.723	 10.78334	  4.09442	  7.18295	  7.84974	  3.53998	 -0.14304	 11.05279	707.93103	 24.40	
  8.492	112.575	 10.79466	  4.54720	  6.68250	  8.13795	  3.31736	 -0.15667	 11.05174	707.89502	 24.40	
  8.510	101.220	 10.80052	  5.05498	  6.13722	  8.32000	  3.17323	 -0.16212	 11.04669	707.93201	 24.40	
  8.500	 90.000	 10.81346	  5.59615	  5.59232	  8.38601	  3.13245	 -0.15055	 11.04894	707.96198	 24.40	
  8.510	 78.780	 10.81541	  6.14524	  5.05073	  8.33808	  3.17268	 -0.14731	 11.05082	707.95001	 24.40	
  8.492	 67.425	 10.83595	  6.69701	  4.55258	  8.18196	  3.32187	 -0.14296	 11.06724	708.02399	 24.40	
  8.487	 56.277	 10.82394	  7.18653	  4.09974	  7.90554	  3.54046	 -0.13387	 11.06325	708.01599	 24.40	
  8.495	 44.961	 10.80955	  7.62643	  3.69862	  7.52644	  3.84522	 -0.13145	 11.04974	707.95697	 24.40	
  8.494	 33.806	 10.80706	  7.99000	  3.38900	  7.07829	  4.23678	 -0.14593	 11.05321	707.90601	 24.40	
  8.502	 22.507	 10.79126	  8.25514	  3.15163	  6.56587	  4.68170	 -0.15790	 11.03994	707.90802	 24.40	
  8.491	 11.296	 10.79105	  8.41575	  3.02129	  6.02954	  5.18439	 -0.15379	 11.04643	708.04303	 24.40	
  8.500	  0.000	 10.79225	  8.47243	  2.97510	  5.46676	  5.73205	 -0.15627	 11.05371	707.89801	 24.40	
  8.491	-11.296	 10.79848	  8.41379	  3.02827	  4.92581	  6.28656	 -0.16543	 11.06998	707.87000	 24.40	
  8.502	-22.507	 10.76051	  8.21620	  3.15508	  4.39868	  6.80296	 -0.17667	 11.04149	707.90100	 24.40	
  8.494	-33.806	 10.75817	  7.93314	  3.39062	  3.93017	  7.32042	 -0.18653	 11.05139	708.05798	 24.40	
  8.495	-44.961	 10.73307	  7.54862	  3.69908	  3.52700	  7.75889	 -0.20423	 11.04251	707.91998	 24.40	
  8.487	-56.277	 10.73441	  7.09461	  4.10356	  3.21138	  8.13001	 -0.22470	 11.05553	708.02100	 24.40	
  8.492	-67.425	 10.70970	  6.58248	  4.54556	  2.96632	  8.39483	 -0.24018	 11.04720	708.04401	 24.40	
  8.510	-78.780	 10.70503	  6.03852	  5.05549	  2.80650	  8.57842	 -0.24403	 11.05607	707.88599	 24.40	
  8.500	-90.000	 10.71580	  5.49385	  5.60694	  2.75511	  8.64645	 -0.23507	 11.07509	708.09802	 24.40	
  8.510	-101.220	 10.71823	  4.95905	  6.15795	  2.78807	  8.59481	 -0.22124	 11.08050	708.03003	 24.40	
  8.492	-112.575	 10.67368	  4.43547	  6.67528	  2.91201	  8.37726	 -0.20374	 11.03592	707.94202	 24.40	
  8.487	-123.723	 10.69935	  4.00117	  7.19249	  3.13739	  8.11608	 -0.18034	 11.06395	707.34100	 24.40	
  8.495	-135.039	 10.69768	  3.61225	  7.64179	  3.43570	  7.74602	 -0.16112	 11.06612	707.81598	 24.40	
  8.494	-146.194	 10.70449	  3.31274	  8.01378	  3.82715	  7.29959	 -0.15075	 11.06913	706.46301	 24.40	
  8.502	-157.493	 10.70163	  3.08930	  8.29134	  4.28792	  6.78200	 -0.15236	 11.05905	707.31000	 24.40	
  8.491	-168.704	 10.70740	  2.96452	  8.45696	  4.79796	  6.24836	 -0.14444	 11.05490	707.97302	 24.40	
  8.500	180.000	 10.73473	  2.93123	  8.52900	  5.35327	  5.71198	 -0.12209	 11.07315	707.93402	 24.40	
 10.200	180.000	 10.50974	  2.25686	  8.93597	  5.16215	  5.51987	 -0.20992	 11.04174	707.93201	 24.40	
 10.191	-170.497	 10.50600	  2.28591	  8.89321	  4.60729	  6.07103	 -0.22798	 11.05296	707.76202	 24.40	
 10.210	-161.034	 10.49963	  2.38761	  8.75374	  4.08333	  6.61770	 -0.24317	 11.05861	707.27197	 24.40	
 10.194	-151.526	 10.50057	  2.58099	  8.51040	  3.59638	  7.15803	 -0.24087	 11.05979	707.87201	 24.40	
 10.190	-142.105	 10.47585	  2.83062	  8.16686	  3.16159	  7.63204	 -0.23708	 11.04172	707.38000	 24.40	
 10.215	-132.646	 10.49429	  3.15750	  7.78830	  2.80255	  8.08166	 -0.24887	 11.06469	706.21997	 24.40	
 10.203	-123.092	 10.48151	  3.54914	  7.30749	  2.50162	  8.44195	 -0.26917	 11.05195	706.38599	 24.40	
 10.192	-113.678	 10.48931	  4.00210	  6.79979	  2.28238	  8.73725	 -0.29239	 11.06221	707.98102	 24.40	
 10.208	-104.249	 10.47079	  4.48726	  6.24860	  2.13088	  8.92789	 -0.31862	 11.03823	706.47699	 24.40	
 10.210	-94.801	 10.48589	  5.02255	  5.70157	  2.06537	  9.04409	 -0.33745	 11.05281	707.93103	 24.40	
 10.210	-85.199	 10.49144	  5.58451	  5.13852	  2.07811	  9.04614	 -0.34887	 11.04742	707.96503	 24.40	
 10.208	-75.751	 10.50880	  6.14753	  4.61133	  2.17031	  8.95682	 -0.34976	 11.05901	707.81598	 24.40	
 10.192	-66.322	 10.54101	  6.70460	  4.12479	  2.35082	  8.77516	 -0.34130	 11.07302	706.36902	 24.40	
 10.203	-56.908	 10.53745	  7.21404	  3.66159	  2.58975	  8.47985	 -0.32562	 11.04941	706.31799	 24.40	
 10.215	-47.354	 10.53111	  7.67705	  3.24961	  2.90136	  8.09608	 -0.30059	 11.02750	706.39203	 24.40	
 10.190	-37.895	 10.57232	  8.10264	  2.92730	  3.28835	  7.68797	 -0.28117	 11.05670	707.00598	 24.40	
 10.194	-28.474	 10.60056	  8.44894	  2.66186	  3.72877	  7.21268	 -0.26704	 11.06830	706.35199	 24.40	
 10.210	-18.966	 10.60212	  8.69435	  2.46075	  4.22146	  6.67180	 -0.25657	 11.05799	706.40900	 24.40	
 10.191	 -9.503	 10.60463	  8.83737	  2.34670	  4.74859	  6.12021	 -0.25155	 11.05064	706.35602	 24.40	
 10.200	  0.000	 10.61525	  8.90296	  2.30351	  5.30541	  5.56753	 -0.24808	 11.05090	706.89801	 24.40	
 10.191	  9.503	 10.62649	  8.87042	  2.33761	  5.88153	  5.01582	 -0.25268	 11.05558	706.39502	 24.40	
 10.210	 18.966	 10.63579	  8.74353	  2.44710	  6.44005	  4.50101	 -0.25989	 11.06476	706.35199	 24.40	
 10.194	 28.474	 10.62635	  8.49127	  2.64498	  6.96322	  4.01872	 -0.24859	 11.04677	706.30701	 24.40	
 10.190	 37.895	 10.63231	  8.17168	  2.91232	  7.45819	  3.58940	 -0.23023	 11.04569	706.38300	 24.40	
 10.215	 47.354	 10.65386	  7.79359	  3.24462	  7.91154	  3.21495	 -0.21528	 11.06858	706.31598	 24.40	
 10.203	 56.908	 10.64173	  7.31668	  3.64781	  8.25483	  2.92185	 -0.21970	 11.04213	706.39801	 24.40	
 10.192	 66.322	 10.66798	  6.82336	  4.11576	  8.54437	  2.71139	 -0.22284	 11.06834	706.39801	 24.40	
 10.208	 75.751	 10.64612	  6.27390	  4.60238	  8.72264	  2.54559	 -0.22968	 11.04572	706.44000	 24.40	
 10.210	 85.199	 10.66155	  5.72775	  5.14308	  8.83334	  2.47047	 -0.24184	 11.06585	706.51202	 24.40	
 10.210	 94.801	 10.65869	  5.16732	  5.70962	  8.82717	  2.47591	 -0.25614	 11.06621	706.41498	 24.40	
 10.208	104.249	 10.65418	  4.63547	  6.26762	  8.72326	  2.55702	 -0.25835	 11.07481	706.45001	 24.40	
 10.192	113.678	 10.62595	  4.12954	  6.79767	  8.49833	  2.71149	 -0.25261	 11.04998	706.31299	 24.40	
 10.203	123.092	 10.60965	  3.66763	  7.31175	  8.20722	  2.92950	 -0.23611	 11.05350	706.34601	 24.40	
 10.215	132.646	 10.60491	  3.25487	  7.78967	  7.84076	  3.21478	 -0.21673	 11.06559	706.37799	 24.40	
 10.190	142.105	 10.56739	  2.91371	  8.16937	  7.36654	  3.57509	 -0.20915	 11.03774	706.96503	 24.40	
 10.194	151.526	 10.57230	  2.64558	  8.51055	  6.87000	  4.00305	 -0.21335	 11.06088	706.36902	 24.40	
 10.210	161.034	 10.55151	  2.43639	  8.75129	  6.31918	  4.46852	 -0.20908	 11.05451	706.54303	 24.40	
 10.191	170.497	 10.54309	  2.31513	  8.89885	  5.75483	  4.98248	 -0.20298	 11.06228	706.71503	 24.40	
 11.899	171.783	 10.29735	  1.64986	  9.28952	  5.55691	  4.76984	 -0.29434	 11.04980	706.45398	 24.40	
 11.890	163.610	 10.29757	  1.75692	  9.14888	  6.11924	  4.25153	 -0.29630	 11.03364	706.53601	 24.40	
 11.889	155.445	 10.34464	  1.93373	  8.96717	  6.69391	  3.78263	 -0.29515	 11.06704	706.41901	 24.40	
 11.909	147.299	 10.35063	  2.16158	  8.67404	  7.22504	  3.32822	 -0.29400	 11.05863	706.46198	 24.40	
 11.902	139.148	 10.39220	  2.46911	  8.33086	  7.73467	  2.94312	 -0.29674	 11.08331	706.81097	 24.40	
 11.894	130.867	 10.37988	  2.82199	  7.88110	  8.15049	  2.60006	 -0.30779	 11.04957	706.58301	 24.40	
 11.897	122.732	 10.39297	  3.22468	  7.40667	  8.52484	  2.31626	 -0.32842	 11.04892	708.10498	 24.40	
 11.903	114.597	 10.40115	  3.67235	  6.88868	  8.82527	  2.09237	 -0.35036	 11.04461	706.45398	 24.40	
 11.893	106.346	 10.41466	  4.17505	  6.33734	  9.04779	  1.92858	 -0.36482	 11.04297	706.43903	 24.40	
 11.892	 98.155	 10.45005	  4.71541	  5.79153	  9.20431	  1.83566	 -0.36574	 11.06930	706.62598	 24.40	
 11.900	 90.000	 10.44328	  5.25566	  5.22380	  9.24182	  1.79536	 -0.35236	 11.05419	707.93402	 24.40	
 11.892	 81.845	 10.45031	  5.81149	  4.68126	  9.20532	  1.82862	 -0.33329	 11.05765	706.58801	 24.40	
 11.893	 73.654	 10.43629	  6.35935	  4.14775	  9.06890	  1.92321	 -0.31551	 11.03962	707.86401	 24.40	
 11.903	 65.403	 10.45904	  6.92328	  3.65586	  8.88097	  2.09315	 -0.29882	 11.06753	706.46198	 24.40	
 11.897	 57.268	 10.44837	  7.42974	  3.20351	  8.58514	  2.32203	 -0.29357	 11.06058	706.51001	 24.40	
 11.894	 49.133	 10.43884	  7.89519	  2.80419	  8.22396	  2.61322	 -0.28751	 11.05424	706.41901	 24.40	
 11.902	 40.852	 10.42257	  8.31140	  2.44490	  7.79619	  2.95931	 -0.30558	 11.04586	706.57397	 24.40	
 11.909	 32.701	 10.41238	  8.66045	  2.15636	  7.32115	  3.35491	 -0.32817	 11.04463	707.35699	 24.40	
 11.889	 24.555	 10.42561	  8.95380	  1.93485	  6.80639	  3.81694	 -0.34605	 11.05827	706.49799	 24.40	
 11.890	 16.390	 10.43403	  9.16572	  1.77677	  6.27099	  4.30977	 -0.34728	 11.07387	706.62299	 24.40	
 11.899	  8.217	 10.40726	  9.26695	  1.67498	  5.70097	  4.81924	 -0.33583	 11.05051	706.60303	 24.40	
 11.900	  0.000	 10.37974	  9.27973	  1.64191	  5.11219	  5.36659	 -0.32778	 11.02582	706.54303	 24.40	
 11.899	 -8.217	 10.38404	  9.23935	  1.67731	  4.56330	  5.92690	 -0.33527	 11.03786	706.68701	 24.40	
 11.890	-16.390	 10.37957	  9.10488	  1.78007	  4.03431	  6.48009	 -0.33559	 11.04714	706.55200	 24.40	
 11.889	-24.555	 10.37174	  8.88893	  1.94292	  3.52452	  7.03016	 -0.34106	 11.04899	706.56000	 24.40	
 11.909	-32.701	 10.35236	  8.59219	  2.16763	  3.05981	  7.53924	 -0.35248	 11.04630	706.52399	 24.40	
 11.902	-40.852	 10.34625	  8.23004	  2.45995	  2.65436	  8.01131	 -0.37140	 11.05772	706.59698	 24.40	
 11.894	-49.133	 10.32683	  7.78835	  2.81541	  2.28930	  8.43241	 -0.39807	 11.05248	706.56000	 24.40	
 11.897	-57.268	 10.33392	  7.32314	  3.21712	  1.98728	  8.81095	 -0.41509	 11.08308	706.48499	 24.40	
 11.903	-65.403	 10.28291	  6.77640	  3.65745	  1.73692	  9.06934	 -0.42269	 11.04626	706.60498	 24.40	
 11.893	-73.654	 10.29039	  6.23300	  4.16326	  1.56797	  9.29243	 -0.43556	 11.07128	706.58398	 24.40	
 11.892	-81.845	 10.27224	  5.66705	  4.68454	  1.45982	  9.40713	 -0.43948	 11.06152	706.44800	 24.40	
 11.900	-90.000	 10.26150	  5.10328	  5.22926	  1.40784	  9.44747	 -0.43928	 11.06265	706.65399	 24.40	
 11.892	-98.155	 10.27052	  4.56406	  5.79616	  1.43260	  9.41083	 -0.43033	 11.07577	706.39502	 24.40	
 11.893	-106.346	 10.24720	  4.03417	  6.34096	  1.51298	  9.26013	 -0.41096	 11.05981	706.43701	 24.50	
 11.903	-114.597	 10.26266	  3.54271	  6.90370	  1.66170	  9.06272	 -0.38277	 11.07891	706.61603	 24.50	
 11.897	-122.732	 10.24234	  3.09643	  7.39885	  1.87680	  8.74882	 -0.35198	 11.05572	706.61200	 24.50	
 11.894	-130.867	 10.22638	  2.70438	  7.85928	  2.16148	  8.36652	 -0.33371	 11.03352	706.58002	 24.50	
 11.902	-139.148	 10.24312	  2.36354	  8.29863	  2.51328	  7.94640	 -0.32397	 11.05312	706.46301	 24.50	
 11.909	-147.299	 10.24314	  2.07974	  8.65939	  2.90747	  7.47331	 -0.33170	 11.04954	706.56702	 24.50	
 11.889	-155.445	 10.25882	  1.87126	  8.95229	  3.36736	  6.96615	 -0.33722	 11.05578	706.53998	 24.50	
 11.890	-163.610	 10.26419	  1.72243	  9.15982	  3.87342	  6.42136	 -0.32946	 11.05562	706.57501	 24.50	
 11.899	-171.783	 10.28891	  1.63612	  9.30548	  4.41482	  5.87829	 -0.32060	 11.06492	706.54901	 24.50	
 11.900	180.000	 10.29040	  1.60872	  9.33814	  4.97236	  5.32166	 -0.30026	 11.05487	706.58301	 24.50	
 13.600	180.000	 10.01920	  0.95745	  9.69803	  4.75286	  5.08353	 -0.39727	 11.05974	706.38000	 24.50	
 13.608	-172.853	  9.99806	  0.97045	  9.65812	  4.19099	  5.62405	 -0.41170	 11.05626	706.49500	 24.50	
 13.611	-165.583	  9.98822	  1.04500	  9.54638	  3.64356	  6.18573	 -0.42544	 11.05990	706.49298	 24.50	
 13.601	-158.353	  9.97441	  1.17622	  9.34849	  3.11956	  6.74097	 -0.42679	 11.05259	706.64203	 24.50	
 13.609	-151.210	  9.96130	  1.35370	  9.08666	  2.64764	  7.25930	 -0.42243	 11.04490	706.65302	 24.50	
 13.611	-143.999	  9.99083	  1.59720	  8.79078	  2.23332	  7.78484	 -0.41326	 11.08524	706.59802	 24.50	
 13.601	-136.825	  9.95005	  1.88528	  8.36975	  1.84739	  8.22008	 -0.40152	 11.04114	706.71002	 24.50	
 13.596	-129.640	  9.97359	  2.23703	  7.94831	  1.52747	  8.66028	 -0.41269	 11.06716	706.54401	 24.50	
 13.611	-122.431	  9.95752	  2.62263	  7.45636	  1.25779	  9.00749	 -0.43226	 11.05135	706.64697	 24.50	
 13.604	-115.211	  9.96441	  3.06420	  6.94351	  1.05237	  9.30588	 -0.45366	 11.05745	706.68402	 24.50	
 13.595	-108.042	  9.96358	  3.54164	  6.39724	  0.90084	  9.53014	 -0.47696	 11.05569	706.68701	 24.50	
 13.607	-100.793	  9.98139	  4.05846	  5.84605	  0.79647	  9.70960	 -0.49608	 11.07434	706.63098	 24.50	
 13.601	-93.617	  9.95934	  4.57866	  5.27582	  0.75306	  9.76206	 -0.50027	 11.04123	706.69299	 24.50	
 13.601	-86.383	  9.99096	  5.15047	  4.72604	  0.76564	  9.79373	 -0.49387	 11.06908	706.64203	 24.50	
 13.607	-79.207	  9.98022	  5.70031	  4.18254	  0.82924	  9.70673	 -0.48572	 11.04954	706.73798	 24.50	
 13.595	-71.958	 10.00016	  6.26699	  3.67302	  0.95883	  9.56045	 -0.47311	 11.05059	706.62903	 24.50	
 13.604	-64.789	 10.00994	  6.81630	  3.18891	  1.13444	  9.34398	 -0.46616	 11.04862	706.72302	 24.50	
 13.611	-57.569	 10.02608	  7.34558	  2.74275	  1.36558	  9.05938	 -0.46376	 11.05021	706.81299	 24.50	
 13.596	-50.360	 10.06920	  7.85409	  2.35440	  1.65887	  8.72917	 -0.45301	 11.07602	706.69299	 24.50	
 13.601	-43.175	 10.07678	  8.29548	  2.00048	  2.00253	  8.30770	 -0.44037	 11.05684	706.73700	 24.50	
 13.611	-36.001	 10.07668	  8.68478	  1.68733	  2.38704	  7.83565	 -0.42140	 11.03772	706.70502	 24.50	
 13.609	-28.790	 10.11052	  9.03406	  1.43984	  2.82673	  7.35231	 -0.41293	 11.05722	706.56403	 24.50	
 13.601	-21.647	 10.11502	  9.28947	  1.24617	  3.29714	  6.82168	 -0.40296	 11.04791	706.73199	 24.50	
 13.611	-14.417	 10.13462	  9.49603	  1.10368	  3.81911	  6.26913	 -0.39713	 11.05780	706.73199	 24.50	
 13.608	 -7.147	 10.14583	  9.61965	  1.01898	  4.36096	  5.70937	 -0.39753	 11.06260	706.71503	 24.50	
 13.600	  0.000	 10.14797	  9.65893	  0.98977	  4.90754	  5.15574	 -0.39189	 11.05404	706.67798	 24.50	
 13.608	  7.147	 10.15781	  9.63853	  1.01505	  5.47617	  4.60830	 -0.40150	 11.05864	706.78802	 24.50	
 13.611	 14.417	 10.13231	  9.50842	  1.09202	  6.02689	  4.06530	 -0.41775	 11.02577	706.71002	 24.50	
 13.601	 21.647	 10.15962	  9.34684	  1.23643	  6.59534	  3.58006	 -0.41727	 11.04831	706.76398	 24.50	
 13.609	 28.790	 10.16776	  9.10561	  1.42466	  7.13501	  3.11353	 -0.41024	 11.05539	706.72900	 24.50	
 13.611	 36.001	 10.15508	  8.77227	  1.67200	  7.62785	  2.68504	 -0.39213	 11.03699	706.65698	 24.50	
 13.601	 43.175	 10.18680	  8.41469	  1.98167	  8.10219	  2.32459	 -0.37955	 11.06257	706.59802	 24.50	
 13.596	 50.360	 10.17792	  7.96705	  2.32794	  8.50972	  1.98135	 -0.36607	 11.04718	706.59100	 24.50	
 13.611	 57.569	 10.18555	  7.49306	  2.72294	  8.87502	  1.69547	 -0.36537	 11.05157	706.59100	 24.50	
 13.604	 64.789	 10.20595	  6.98715	  3.17426	  9.18121	  1.47387	 -0.37273	 11.07121	706.67297	 24.50	
 13.595	 71.958	 10.21202	  6.44749	  3.66518	  9.40135	  1.30974	 -0.38911	 11.07567	706.81299	 24.50	
 13.607	 79.207	 10.21078	  5.88721	  4.18318	  9.54696	  1.19878	 -0.41010	 11.06782	706.84003	 24.50	
 13.601	 86.383	 10.19377	  5.32267	  4.71683	  9.59576	  1.15118	 -0.43253	 11.05050	706.79401	 24.50	
 13.601	 93.617	 10.17159	  4.75561	  5.26992	  9.57398	  1.15497	 -0.44839	 11.03233	706.75500	 24.50	
 13.607	100.793	 10.19051	  4.22807	  5.84406	  9.52405	  1.21113	 -0.45490	 11.06609	706.84198	 24.50	
 13.595	108.042	 10.16520	  3.70627	  6.39460	  9.35050	  1.32206	 -0.44514	 11.04504	706.81299	 24.50	
 13.604	115.211	 10.16589	  3.22215	  6.95128	  9.13488	  1.48289	 -0.43265	 11.06485	706.92102	 24.50	
 13.611	122.431	 10.15584	  2.77216	  7.47893	  8.83461	  1.69511	 -0.41680	 11.07259	706.75201	 24.50	
 13.596	129.640	 10.13065	  2.36817	  7.95409	  8.44814	  1.97059	 -0.39755	 11.05870	706.90900	 24.50	
 13.601	136.825	 10.10446	  2.00542	  8.38974	  8.00945	  2.29309	 -0.38183	 11.04758	706.82800	 24.60	
 13.611	143.999	 10.09700	  1.69451	  8.78206	  7.54847	  2.65867	 -0.38126	 11.06093	706.96600	 24.60	
 13.609	151.210	 10.08037	  1.43979	  9.10542	  7.02770	  3.07553	 -0.37840	 11.06213	706.76898	 24.60	
 13.601	158.353	 10.07024	  1.23921	  9.36677	  6.47995	  3.53558	 -0.38205	 11.06752	706.94299	 24.60	
 13.611	165.583	 10.06732	  1.08765	  9.57087	  5.91528	  4.03015	 -0.38376	 11.08200	706.86401	 24.60	
 13.608	172.853	 10.01520	  0.99190	  9.64450	  5.31863	  4.53222	 -0.38315	 11.03602	706.77502	 24.60	
 15.298	173.587	  9.71503	  0.35922	  9.97415	  5.06139	  4.27493	 -0.46128	 11.05280	706.84399	 24.60	
 15.291	167.167	  9.74992	  0.43864	  9.89607	  5.64245	  3.76972	 -0.46064	 11.07790	706.84802	 24.60	
 15.307	160.676	  9.73914	  0.56525	  9.70184	  6.20425	  3.26264	 -0.45875	 11.04372	706.84198	 24.60	
 15.300	154.261	  9.76741	  0.73910	  9.48171	  6.77750	  2.80261	 -0.45769	 11.05602	706.92603	 24.60	
 15.288	147.854	  9.80602	  0.96942	  9.20553	  7.32394	  2.39104	 -0.45340	 11.07506	706.83099	 24.60	
 15.293	141.428	  9.81771	  1.23494	  8.85215	  7.82533	  2.00253	 -0.45192	 11.06706	706.92401	 24.60	
 15.299	134.985	  9.80602	  1.54359	  8.42450	  8.27679	  1.64273	 -0.45733	 11.04010	706.88098	 24.60	
 15.305	128.583	  9.83336	  1.90246	  7.98136	  8.70857	  1.33859	 -0.46917	 11.05290	706.85400	 24.60	
 15.309	122.142	  9.83696	  2.29951	  7.48135	  9.05989	  1.08342	 -0.48138	 11.03998	706.88202	 24.60	
 15.304	115.711	  9.88257	  2.74997	  6.98177	  9.38550	  0.88479	 -0.48917	 11.06977	706.91199	 24.60	
 15.297	109.291	  9.89421	  3.22416	  6.43579	  9.62437	  0.72831	 -0.49686	 11.06367	706.89001	 24.60	
 15.293	102.897	  9.90675	  3.72794	  5.87991	  9.79849	  0.60921	 -0.50095	 11.06476	706.83600	 24.60	
 15.293	 96.458	  9.91312	  4.25426	  5.31630	  9.90074	  0.53553	 -0.50084	 11.05809	706.74701	 24.60	
 15.300	 90.000	  9.92377	  4.80423	  4.75662	  9.94507	  0.50672	 -0.49317	 11.06202	706.81598	 24.60	
 15.293	 83.542	  9.91120	  5.35503	  4.19941	  9.89813	  0.52803	 -0.48197	 11.04983	706.83099	 24.60	
 15.293	 77.103	  9.92756	  5.92499	  3.67654	  9.81402	  0.60006	 -0.46249	 11.06647	706.77698	 24.60	
 15.297	 70.709	  9.93120	  6.47643	  3.17777	  9.65513	  0.72119	 -0.44199	 11.06596	706.79901	 24.60	
 15.304	 64.289	  9.91840	  7.01159	  2.69630	  9.41977	  0.88282	 -0.42648	 11.05919	706.94299	 24.60	
 15.309	 57.858	  9.92351	  7.53750	  2.25689	  9.14179	  1.09429	 -0.42050	 11.07298	706.83099	 24.60	
 15.305	 51.417	  9.89448	  8.00445	  1.85736	  8.76874	  1.35598	 -0.41798	 11.04798	706.83899	 24.60	
 15.299	 45.015	  9.90812	  8.46836	  1.50816	  8.37828	  1.67569	 -0.42571	 11.07431	706.90997	 24.60	
 15.293	 38.572	  9.89800	  8.86262	  1.20330	  7.91421	  2.03896	 -0.44111	 11.06322	706.76398	 24.60	
 15.288	 32.146	  9.88660	  9.20215	  0.94324	  7.42157	  2.43397	 -0.44861	 11.05312	706.88098	 24.60	
 15.300	 25.739	  9.86428	  9.47281	  0.72283	  6.89361	  2.85417	 -0.44732	 11.03772	706.88202	 24.60	
 15.307	 19.324	  9.87121	  9.70825	  0.55854	  6.35208	  3.33227	 -0.44931	 11.05456	706.93402	 24.60	
 15.291	 12.833	  9.89088	  9.88632	  0.44777	  5.80246	  3.84512	 -0.43855	 11.07865	706.88898	 24.60	
 15.298	  6.413	  9.87853	  9.97099	  0.37461	  5.23809	  4.36221	 -0.42386	 11.07336	706.88202	 24.60	
 15.300	  0.000	  9.86512	  9.98759	  0.35177	  4.66631	  4.91022	 -0.41166	 11.06354	706.92102	 24.60	
 15.298	 -6.413	  9.85582	  9.94383	  0.37613	  4.11766	  5.45972	 -0.41665	 11.05753	706.87000	 24.60	
 15.291	-12.833	  9.83677	  9.82224	  0.44960	  3.58219	  6.00745	 -0.42339	 11.04754	706.88202	 24.60	
 15.307	-19.324	  9.82761	  9.65156	  0.56582	  3.05902	  6.57224	 -0.43315	 11.05370	706.87799	 24.60	
 15.300	-25.739	  9.80174	  9.39560	  0.73590	  2.57771	  7.09843	 -0.43691	 11.03162	706.82300	 24.60	
 15.288	-32.146	  9.80396	  9.10452	  0.95605	  2.14157	  7.62097	 -0.44297	 11.05365	706.85400	 24.60	
 15.293	-38.572	  9.79462	  8.74541	  1.21935	  1.73129	  8.11400	 -0.44844	 11.05870	706.82599	 24.60	
 15.299	-45.015	  9.77002	  8.32417	  1.52637	  1.35463	  8.56385	 -0.45403	 11.05925	706.81897	 24.60	
 15.305	-51.417	  9.73893	  7.85472	  1.87706	  1.04163	  8.94278	 -0.46191	 11.04396	706.98798	 24.60	
 15.309	-57.858	  9.72410	  7.35714	  2.26824	  0.76712	  9.29255	 -0.45721	 11.05210	706.87000	 24.60	
 15.304	-64.289	  9.72525	  6.84328	  2.70638	  0.54004	  9.60065	 -0.45919	 11.07439	706.90399	 24.60	
 15.297	-70.709	  9.71741	  6.29547	  3.18374	  0.36624	  9.83114	 -0.46154	 11.08498	706.86401	 24.60	
 15.293	-77.103	  9.69767	  5.73492	  3.67885	  0.23619	  9.98593	 -0.46386	 11.08080	706.97198	 24.70	
 15.293	-83.542	  9.65381	  5.14821	  4.19166	  0.14929	 10.05273	 -0.48625	 11.04479	706.83398	 24.60	
 15.300	-90.000	  9.66086	  4.59539	  4.74567	  0.10824	 10.10233	 -0.49917	 11.06435	706.81897	 24.60	
 15.293	-96.458	  9.65261	  4.05067	  5.30288	  0.11793	 10.05963	 -0.50909	 11.05691	707.01099	 24.60	
 15.293	-102.897	  9.64334	  3.52693	  5.85996	  0.17581	  9.94617	 -0.52404	 11.05530	706.88702	 24.60	
 15.297	-109.291	  9.62780	  3.02827	  6.40746	  0.28472	  9.75731	 -0.51681	 11.03509	707.00800	 24.60	
 15.304	-115.711	  9.64578	  2.57158	  6.96062	  0.43779	  9.53843	 -0.50246	 11.06289	706.91602	 24.60	
 15.309	-122.142	  9.63578	  2.14256	  7.47317	  0.64087	  9.22830	 -0.48333	 11.04989	707.00299	 24.60	
 15.305	-128.583	  9.62379	  1.75572	  7.95010	  0.89153	  8.86336	 -0.47107	 11.03761	707.06702	 24.70	
 15.299	-134.985	  9.65975	  1.41450	  8.42872	  1.18738	  8.49573	 -0.46993	 11.07919	707.12903	 24.70	
 15.293	-141.428	  9.64063	  1.11675	  8.81538	  1.54521	  8.02012	 -0.47685	 11.05306	707.10901	 24.60	
 15.288	-147.854	  9.67934	  0.86930	  9.20134	  1.95678	  7.55232	 -0.49400	 11.09029	707.11499	 24.70	
 15.300	-154.261	  9.67350	  0.66317	  9.48583	  2.39063	  7.03242	 -0.49556	 11.07718	707.17999	 24.70	
 15.307	-160.676	  9.66800	  0.50503	  9.70906	  2.86814	  6.48543	 -0.49865	 11.06225	707.19299	 24.70	
 15.291	-167.167	  9.67266	  0.40281	  9.86590	  3.40313	  5.91570	 -0.49166	 11.05106	707.14801	 24.70	
 15.298	-173.587	  9.68650	  0.34334	  9.96776	  3.93411	  5.36571	 -0.48009	 11.05035	707.08698	 24.70	
 15.300	180.000	  9.70995	  0.32811	 10.01146	  4.48969	  4.82469	 -0.46672	 11.05966	707.20300	 24.70	
 17.000	180.000	  9.36376	 -0.28234	 10.29587	  4.20496	  4.54003	 -0.51928	 11.06673	707.10901	 24.70	
 16.990	-174.179	  9.33891	 -0.27372	 10.25428	  3.65409	  5.08170	 -0.51912	 11.05313	707.12097	 24.70	
 17.009	-168.383	  9.32073	 -0.22933	 10.16550	  3.11983	  5.62980	 -0.52734	 11.05387	707.10303	 24.70	
 17.000	-162.596	  9.30837	 -0.13663	 10.00814	  2.61018	  6.18733	 -0.53264	 11.05378	706.95203	 24.70	
 16.990	-156.759	  9.32135	  0.00155	  9.81461	  2.12646	  6.74429	 -0.53851	 11.07287	707.09302	 24.70	
 16.995	-150.919	  9.29762	  0.17400	  9.52535	  1.66659	  7.26465	 -0.53404	 11.05600	707.08197	 24.70	
 16.988	-145.161	  9.28888	  0.38868	  9.19848	  1.25102	  7.76628	 -0.52500	 11.04710	707.06403	 24.70	
 17.014	-139.343	  9.27464	  0.63961	  8.82185	  0.87252	  8.23920	 -0.51978	 11.04364	706.97699	 24.70	
 17.007	-133.546	  9.27531	  0.94377	  8.40312	  0.55581	  8.67177	 -0.51507	 11.04505	707.09198	 24.70	
 17.001	-127.699	  9.28685	  1.28140	  7.95565	  0.27497	  9.07918	 -0.51805	 11.05609	707.20801	 24.70	
 17.006	-121.937	  9.28397	  1.65644	  7.46368	  0.03449	  9.42975	 -0.52413	 11.05748	707.09003	 24.70	
 17.002	-116.134	  9.26619	  2.06841	  6.92883	 -0.15952	  9.71049	 -0.52620	 11.03511	707.10901	 24.70	
 17.001	-110.310	  9.28285	  2.51658	  6.40039	 -0.31201	  9.97328	 -0.53096	 11.05813	707.10101	 24.70	
 16.988	-104.517	  9.29067	  3.00111	  5.85343	 -0.41116	 10.15444	 -0.51888	 11.05683	707.08600	 24.70	
 17.008	-98.662	  9.28764	  3.50320	  5.28846	 -0.48519	 10.28058	 -0.49700	 11.05640	707.03900	 24.70	
 16.996	-92.909	  9.30330	  4.02964	  4.74810	 -0.50625	 10.35335	 -0.46725	 11.06279	707.02197	 24.70	
 16.996	-87.091	  9.31038	  4.58002	  4.19666	 -0.49616	 10.36074	 -0.44310	 11.06320	706.99902	 24.70	
 17.012	-81.253	  9.30417	  5.12701	  3.65412	 -0.44905	 10.29521	 -0.41877	 11.04914	707.11499	 24.70	
 16.988	-75.483	  9.31106	  5.68049	  3.15048	 -0.35178	 10.17407	 -0.41279	 11.03717	707.10303	 24.70	
 17.001	-69.690	  9.33084	  6.24279	  2.66100	 -0.23315	 10.01713	 -0.40636	 11.04806	707.18799	 24.70	
 17.002	-63.866	  9.35497	  6.79427	  2.20790	 -0.05338	  9.78862	 -0.41234	 11.05258	706.99902	 24.70	
 17.006	-58.063	  9.37025	  7.32189	  1.78547	  0.16524	  9.49663	 -0.42101	 11.04532	706.97699	 24.70	
 17.001	-52.301	  9.40469	  7.83197	  1.40844	  0.42818	  9.16609	 -0.43060	 11.06023	707.10303	 24.70	
 17.007	-46.454	  9.42479	  8.30832	  1.05466	  0.72744	  8.77320	 -0.43595	 11.06252	707.03101	 24.70	
 17.014	-40.657	  9.44285	  8.73972	  0.74283	  1.06133	  8.34519	 -0.43434	 11.05877	707.05298	 24.70	
 16.988	-34.839	  9.45007	  9.10851	  0.48280	  1.45106	  7.85757	 -0.43068	 11.03189	707.03900	 24.70	
 16.995	-29.081	  9.47717	  9.45619	  0.25972	  1.87324	  7.36505	 -0.43421	 11.04938	707.24799	 24.70	
 16.990	-23.241	  9.47934	  9.72818	  0.06878	  2.32210	  6.82854	 -0.42951	 11.03752	706.98499	 24.70	
 17.000	-17.404	  9.50933	  9.96961	 -0.07893	  2.80731	  6.29678	 -0.42212	 11.05744	707.13800	 24.70	
 17.009	-11.617	  9.51086	 10.12010	 -0.18252	  3.31600	  5.73257	 -0.41905	 11.04838	707.03400	 24.70	
 16.990	 -5.821	  9.53835	 10.22963	 -0.23817	  3.85159	  5.19097	 -0.40523	 11.07037	707.02698	 24.70	
 17.000	  0.000	  9.54085	 10.27199	 -0.26633	  4.39581	  4.63829	 -0.40316	 11.07285	707.06403	 24.70	
 16.990	  5.821	  9.54454	 10.24602	 -0.24466	  4.96224	  4.08897	 -0.40675	 11.06390	706.83099	 24.70	
 17.009	 11.617	  9.53844	 10.16173	 -0.19048	  5.51401	  3.56652	 -0.41853	 11.05492	707.07898	 24.70	
 17.000	 17.404	  9.55442	 10.03302	 -0.08921	  6.07654	  3.07603	 -0.43096	 11.07097	706.99597	 24.70	
 16.990	 23.241	  9.55891	  9.83031	  0.05218	  6.63532	  2.59460	 -0.44400	 11.06332	707.00598	 24.70	
 16.995	 29.081	  9.56944	  9.57340	  0.23754	  7.17165	  2.15784	 -0.44944	 11.07148	707.14899	 24.70	
 16.988	 34.839	  9.54944	  9.23583	  0.46294	  7.65606	  1.75150	 -0.45798	 11.04214	707.17999	 24.70	
 17.014	 40.657	  9.56142	  8.88131	  0.71981	  8.15059	  1.36943	 -0.46191	 11.05553	707.10602	 24.70	
 17.007	 46.454	  9.55769	  8.45798	  1.02891	  8.58309	  1.03175	 -0.46178	 11.04288	707.11700	 24.70	
 17.001	 52.301	  9.57050	  8.00280	  1.38303	  8.98171	  0.74495	 -0.46566	 11.04644	707.18903	 24.70	
 17.006	 58.063	  9.58536	  7.52426	  1.76694	  9.33813	  0.49307	 -0.46699	 11.05645	707.10699	 24.70	
 17.002	 63.866	  9.58404	  7.00557	  2.19146	  9.63138	  0.28419	 -0.47182	 11.05017	707.25598	 24.70	
 17.001	 69.690	  9.58192	  6.46555	  2.64727	  9.86789	  0.11702	 -0.48245	 11.05271	707.21899	 24.70	
 16.988	 75.483	  9.59179	  5.91733	  3.14216	 10.05074	 -0.00257	 -0.49085	 11.05726	707.24200	 24.70	
 17.012	 81.253	  9.58194	  5.36084	  3.64623	 10.16461	 -0.09066	 -0.49601	 11.05078	707.24402	 24.70	
 16.996	 87.091	  9.58051	  4.80391	  4.18833	 10.21111	 -0.11463	 -0.50060	 11.03992	707.20203	 24.70	
 16.996	 92.909	  9.57675	  4.25227	  4.74407	 10.20982	 -0.11365	 -0.49731	 11.04477	707.13098	 24.70	
 17.008	 98.662	  9.57858	  3.72769	  5.29845	 10.16170	 -0.07548	 -0.49332	 11.05609	707.25598	 24.70	
 16.988	104.517	  9.57230	  3.21299	  5.86641	 10.03306	  0.01711	 -0.49805	 11.05796	707.16199	 24.70	
 17.001	110.310	  9.54615	  2.71287	  6.41498	  9.83661	  0.12663	 -0.49923	 11.04704	707.12598	 24.70	
 17.002	116.134	  9.53350	  2.25816	  6.95664	  9.58740	  0.28615	 -0.50084	 11.04623	707.12402	 24.70	
 17.006	121.937	  9.51685	  1.83143	  7.47580	  9.27738	  0.49054	 -0.50672	 11.04182	707.21002	 24.80	
 17.001	127.699	  9.51803	  1.44241	  7.98347	  8.93737	  0.72633	 -0.51198	 11.06782	707.14899	 24.80	
 17.007	133.546	  9.49011	  1.08408	  8.43776	  8.51888	  1.00630	 -0.51193	 11.05590	707.10901	 24.80	
 17.014	139.343	  9.45712	  0.76666	  8.84371	  8.05009	  1.32832	 -0.51515	 11.03851	706.96899	 24.80	
 16.988	145.161	  9.46366	  0.50126	  9.23120	  7.56338	  1.70303	 -0.51781	 11.05746	707.30402	 24.80	
 16.995	150.919	  9.44438	  0.26797	  9.55193	  7.04567	  2.09273	 -0.51526	 11.06347	707.17902	 24.80	
 16.990	156.759	  9.41867	  0.07803	  9.80586	  6.48924	  2.52209	 -0.52401	 11.04940	707.13202	 24.80	
 17.000	162.596	  9.38943	 -0.07805	 10.00638	  5.91125	  2.98190	 -0.52037	 11.03678	707.17401	 24.80	
 17.009	168.383	  9.38389	 -0.19175	 10.17223	  5.34557	  3.47652	 -0.51823	 11.05701	707.14398	 24.80	
 16.990	174.179	  9.35677	 -0.25443	 10.24162	  4.77287	  3.98303	 -0.51882	 11.04170	707.27802	 24.80	
 18.709	174.675	  8.98875	 -0.85143	 10.50102	  4.46816	  3.68817	 -0.53667	 11.06245	707.23901	 24.80	
 18.703	169.441	  8.97850	 -0.79761	 10.39739	  5.01317	  3.17799	 -0.54149	 11.03069	707.20300	 24.80	
 18.691	164.085	  9.01150	 -0.69320	 10.27418	  5.59847	  2.69325	 -0.54957	 11.04558	707.14600	 24.80	
 18.706	158.818	  9.03877	 -0.56964	 10.10477	  6.17595	  2.22535	 -0.56315	 11.06051	707.29498	 24.80	
 18.695	153.537	  9.05165	 -0.39518	  9.85465	  6.71790	  1.80081	 -0.56487	 11.04821	707.23297	 24.80	
 18.704	148.255	  9.07502	 -0.19942	  9.57205	  7.26009	  1.39505	 -0.55571	 11.05622	707.28302	 24.80	
 18.698	142.952	  9.09227	  0.04079	  9.22583	  7.77638	  1.03033	 -0.55202	 11.05069	707.35901	 24.80	
 18.699	137.625	  9.13536	  0.32022	  8.85726	  8.28512	  0.69324	 -0.54858	 11.08270	707.39001	 24.80	
 18.705	132.343	  9.12302	  0.62592	  8.40129	  8.69591	  0.39559	 -0.54067	 11.04785	707.41602	 24.80	
 18.713	127.067	  9.15084	  0.96857	  7.94686	  9.11395	  0.12499	 -0.52173	 11.05998	707.30298	 24.80	
 18.700	121.794	  9.17094	  1.35295	  7.45260	  9.47713	 -0.10274	 -0.50409	 11.06424	707.33398	 24.80	
 18.698	116.504	  9.17688	  1.76824	  6.92234	  9.77047	 -0.28763	 -0.48078	 11.05015	707.21600	 24.80	
 18.707	111.165	  9.18310	  2.20968	  6.37835	 10.02112	 -0.44143	 -0.46329	 11.04289	707.18597	 24.80	
 18.690	105.863	  9.20820	  2.69105	  5.83815	 10.22126	 -0.54823	 -0.45226	 11.05003	707.26398	 24.80	
 18.696	100.583	  9.22263	  3.18895	  5.28354	 10.36255	 -0.63376	 -0.44941	 11.05640	707.38501	 24.80	
 18.700	 95.309	  9.23165	  3.70924	  4.72729	 10.44168	 -0.68516	 -0.44562	 11.05354	707.28900	 24.80	
 18.700	 90.000	  9.23297	  4.24602	  4.17740	 10.46268	 -0.69982	 -0.46713	 11.04750	707.29303	 24.80	
 18.700	 84.691	  9.22455	  4.78825	  3.63352	 10.42505	 -0.68818	 -0.48022	 11.03267	707.27002	 24.80	
 18.696	 79.417	  9.24113	  5.34465	  3.12288	 10.36635	 -0.64048	 -0.48583	 11.05303	707.36200	 24.80	
 18.690	 74.137	  9.25509	  5.90227	  2.62701	 10.25133	 -0.55157	 -0.48921	 11.07334	707.29303	 24.80	
 18.707	 68.835	  9.23214	  6.43820	  2.14248	 10.05510	 -0.44335	 -0.49622	 11.05866	707.36603	 24.80	
 18.698	 63.496	  9.21537	  6.96464	  1.69319	  9.79166	 -0.28088	 -0.49439	 11.03626	707.29498	 24.80	
 18.700	 58.206	  9.23000	  7.49316	  1.28328	  9.51346	 -0.08754	 -0.49052	 11.05863	707.26398	 24.80	
 18.713	 52.933	  9.21021	  7.97447	  0.90001	  9.15589	  0.14663	 -0.48719	 11.04329	707.20001	 24.80	
 18.705	 47.657	  9.21011	  8.43732	  0.56660	  8.76324	  0.43325	 -0.48241	 11.04805	707.30298	 24.80	
 18.699	 42.375	  9.20906	  8.86461	  0.26409	  8.34842	  0.73482	 -0.46675	 11.05313	707.35901	 24.80	
 18.698	 37.048	  9.21311	  9.26089	 -0.00626	  7.88527	  1.08535	 -0.45013	 11.07112	707.26398	 24.80	
 18.704	 31.745	  9.19160	  9.58704	 -0.24163	  7.37070	  1.46495	 -0.42139	 11.04846	707.30402	 24.80	
 18.695	 26.463	  9.19282	  9.87361	 -0.42826	  6.85449	  1.88083	 -0.40496	 11.05188	707.42798	 24.80	
 18.706	 21.182	  9.17944	 10.10135	 -0.58674	  6.31885	  2.31433	 -0.38703	 11.04759	707.33099	 24.80	
 18.691	 15.915	  9.16409	 10.26319	 -0.70208	  5.76039	  2.78469	 -0.37457	 11.03137	707.32599	 24.80	
 18.703	 10.559	  9.17945	 10.41552	 -0.79497	  5.21003	  3.28763	 -0.37201	 11.05941	707.45898	 24.80	
 18.709	  5.325	  9.15626	 10.46606	 -0.84425	  4.65658	  3.78487	 -0.37768	 11.03429	707.31403	 24.80	
 18.700	  0.000	  9.17902	 10.51109	 -0.85939	  4.10900	  4.34251	 -0.38007	 11.06463	707.50897	 24.80	
 18.709	 -5.325	  9.14939	 10.45371	 -0.84773	  3.55196	  4.87803	 -0.37482	 11.04424	707.34100	 24.80	
 18.703	-10.559	  9.15789	 10.38438	 -0.79131	  3.04165	  5.43130	 -0.37632	 11.05385	707.31403	 24.80	
 18.691	-15.915	  9.15332	 10.23759	 -0.69409	  2.53207	  5.99611	 -0.40645	 11.06098	707.53400	 24.80	
 18.706	-21.182	  9.12395	 10.02276	 -0.57642	  2.05430	  6.52204	 -0.40190	 11.04228	707.48999	 24.90	
 18.695	-26.463	  9.11761	  9.77047	 -0.41635	  1.60571	  7.05754	 -0.40659	 11.04456	707.34302	 24.80	
 18.704	-31.745	  9.08317	  9.44511	 -0.22582	  1.17138	  7.56310	 -0.40671	 11.03071	707.28101	 24.90	
 18.698	-37.048	  9.08896	  9.10121	  0.01510	  0.79260	  8.06873	 -0.41318	 11.05142	707.37701	 24.90	
 18.699	-42.375	  9.04890	  8.67775	  0.28422	  0.43759	  8.50607	 -0.41086	 11.02715	707.44501	 24.90	
 18.705	-47.657	  9.04147	  8.25282	  0.58630	  0.11465	  8.94573	 -0.40878	 11.05212	707.32898	 24.90	
 18.713	-52.933	  9.01180	  7.77454	  0.91991	 -0.17332	  9.32518	 -0.39451	 11.04600	707.32898	 24.90	
 18.700	-58.206	  8.99832	  7.27207	  1.30033	 -0.40927	  9.66287	 -0.37409	 11.05096	707.44897	 24.90	
 18.698	-63.496	  8.99273	  6.75547	  1.71041	 -0.60626	  9.95347	 -0.36797	 11.06139	707.47998	 24.90	
 18.707	-68.835	  8.96615	  6.20329	  2.15026	 -0.78217	 10.18012	 -0.35998	 11.05408	707.49500	 24.90	
 18.690	-74.137	  8.96180	  5.65734	  2.63139	 -0.90618	 10.36560	 -0.37048	 11.05927	707.42499	 24.90	
 18.696	-79.417	  8.93584	  5.09636	  3.11752	 -1.00809	 10.48132	 -0.37070	 11.05040	707.52899	 24.90	
 18.700	-84.691	  8.91431	  4.53792	  3.62781	 -1.06858	 10.54688	 -0.38775	 11.04248	707.54199	 24.90	
 18.700	-90.000	  8.92355	  3.99563	  4.17346	 -1.10693	 10.59169	 -0.41707	 11.06647	707.45599	 24.90	
 18.700	-95.309	  8.90538	  3.46139	  4.71245	 -1.10239	 10.54626	 -0.43098	 11.05258	707.50000	 24.90	
 18.696	-100.583	  8.91637	  2.95716	  5.27013	 -1.06659	 10.47654	 -0.46031	 11.07150	707.55402	 24.90	
 18.690	-105.863	  8.90150	  2.46756	  5.81624	 -0.98403	 10.31534	 -0.49085	 11.05234	707.41302	 24.90	
 18.707	-111.165	  8.89818	  2.00741	  6.36053	 -0.88202	 10.12815	 -0.50780	 11.05640	707.52502	 24.90	
 18.698	-116.504	  8.90555	  1.57663	  6.90472	 -0.73283	  9.89241	 -0.52910	 11.06844	707.49500	 24.90	
 18.700	-121.794	  8.89068	  1.16547	  7.41141	 -0.55878	  9.58671	 -0.53814	 11.05679	707.46399	 24.90	
 18.713	-127.067	  8.89133	  0.79696	  7.90781	 -0.34052	  9.24582	 -0.54638	 11.05659	707.49799	 24.90	
 18.705	-132.343	  8.89296	  0.47432	  8.36880	 -0.07370	  8.85389	 -0.55054	 11.05439	707.47498	 24.90	
 18.699	-137.625	  8.90174	  0.18229	  8.80353	  0.23701	  8.42608	 -0.54542	 11.05923	707.44702	 24.90	
 18.698	-142.952	  8.90157	 -0.07919	  9.19023	  0.57985	  7.96225	 -0.54582	 11.05735	707.42102	 24.90	
 18.704	-148.255	  8.91042	 -0.30576	  9.54478	  0.96037	  7.47654	 -0.53958	 11.06768	707.52301	 24.90	
 18.695	-153.537	  8.90393	 -0.48419	  9.82571	  1.39185	  6.94557	 -0.53001	 11.04436	707.53101	 24.90	
 18.706	-158.818	  8.91174	 -0.63852	 10.07451	  1.84338	  6.41493	 -0.52378	 11.04893	707.58698	 24.90	
 18.691	-164.085	  8.94059	 -0.74897	 10.28251	  2.31908	  5.88757	 -0.51906	 11.06894	707.71198	 24.90	
 18.703	-169.441	  8.93194	 -0.82323	 10.39731	  2.82574	  5.31073	 -0.51719	 11.04068	707.55701	 24.90	
 18.709	-174.675	  8.95545	 -0.86720	 10.49084	  3.34678	  4.77654	 -0.52185	 11.05400	707.69202	 24.90	
 18.700	180.000	  8.94818	 -0.87083	 10.49123	  3.88942	  4.22474	 -0.52894	 11.02620	707.61298	 24.90	
 20.400	180.000	  8.54732	 -1.45248	 10.70092	  3.57449	  3.90816	 -0.51474	 11.04119	707.60199	 24.90	
 20.401	-175.153	  8.54651	 -1.45679	 10.70075	  3.04103	  4.44267	 -0.49600	 11.06862	707.61798	 24.90	
 20.407	-170.264	  8.52376	 -1.42057	 10.61930	  2.51810	  4.98390	 -0.48268	 11.05758	707.65601	 24.90	
 20.410	-165.423	  8.50651	 -1.35702	 10.49077	  2.01201	  5.53220	 -0.47887	 11.05422	707.72198	 24.90	
 20.392	-160.496	  8.50190	 -1.25118	 10.31571	  1.54526	  6.07600	 -0.47853	 11.05593	707.65503	 24.90	
 20.401	-155.705	  8.48903	 -1.12661	 10.09122	  1.10358	  6.59850	 -0.48303	 11.05026	707.62097	 24.90	
 20.405	-150.835	  8.48897	 -0.96759	  9.82778	  0.67371	  7.13183	 -0.49843	 11.06137	707.78198	 24.90	
 20.397	-145.903	  8.47482	 -0.76781	  9.48989	  0.27833	  7.62722	 -0.51382	 11.04584	707.63202	 24.90	
 20.392	-141.062	  8.49962	 -0.55038	  9.16183	 -0.07754	  8.12730	 -0.53710	 11.08152	707.56299	 24.90	
 20.396	-136.227	  8.47762	 -0.28970	  8.73994	 -0.39900	  8.56700	 -0.54920	 11.06065	707.54901	 24.90	
 20.408	-131.372	  8.46275	 -0.00653	  8.29191	 -0.68716	  8.97818	 -0.54536	 11.05207	707.64203	 24.90	
 20.410	-126.511	  8.46028	  0.31570	  7.82447	 -0.93268	  9.35754	 -0.53664	 11.04540	707.68701	 24.90	
 20.400	-121.604	  8.48901	  0.67851	  7.35220	 -1.13475	  9.72434	 -0.52243	 11.07732	707.59003	 24.90	
 20.403	-116.741	  8.46712	  1.06568	  6.81754	 -1.30365	  9.99380	 -0.50747	 11.04433	707.55902	 24.90	
 20.413	-111.900	  8.47767	  1.47275	  6.29924	 -1.45403	 10.26007	 -0.48008	 11.06293	707.60797	 24.90	
 20.398	-107.004	  8.48320	  1.92205	  5.75523	 -1.56492	 10.46008	 -0.45096	 11.06736	707.67200	 24.90	
 20.394	-102.132	  8.46475	  2.38871	  5.19329	 -1.63631	 10.58230	 -0.41535	 11.03700	707.62799	 24.90	
 20.403	-97.332	  8.47600	  2.87271	  4.65779	 -1.69855	 10.70420	 -0.39672	 11.05875	707.63501	 24.90	
 20.392	-92.440	  8.48894	  3.39115	  4.11812	 -1.70932	 10.76377	 -0.37775	 11.06382	707.60999	 24.90	
 20.392	-87.560	  8.47912	  3.91403	  3.57796	 -1.69200	 10.74794	 -0.36514	 11.04270	707.62701	 24.90	
 20.403	-82.668	  8.49101	  4.45773	  3.05782	 -1.66050	 10.71819	 -0.35964	 11.04734	707.70300	 24.90	
 20.394	-77.868	  8.50561	  4.99866	  2.57198	 -1.58975	 10.63084	 -0.35516	 11.04758	707.75702	 24.90	
 20.398	-72.996	  8.52854	  5.55737	  2.09242	 -1.48358	 10.50028	 -0.34971	 11.05454	707.58502	 24.90	
 20.413	-68.100	  8.54695	  6.11181	  1.63517	 -1.35007	 10.31347	 -0.34314	 11.05494	707.60101	 24.90	
 20.403	-63.259	  8.56296	  6.64520	  1.21227	 -1.17964	 10.06829	 -0.34640	 11.04173	707.57098	 24.90	
 20.400	-58.396	  8.59454	  7.18002	  0.81721	 -0.98369	  9.79835	 -0.35577	 11.06061	707.65601	 24.90	
 20.410	-53.489	  8.61350	  7.69354	  0.44197	 -0.76127	  9.47264	 -0.37029	 11.06429	707.70599	 24.90	
 20.408	-48.628	  8.62755	  8.16447	  0.10917	 -0.50612	  9.09640	 -0.37677	 11.05217	707.67297	 24.90	
 20.396	-43.773	  8.67511	  8.63546	 -0.18494	 -0.19202	  8.70000	 -0.38285	 11.07552	707.68402	 24.90	
 20.392	-38.938	  8.68650	  9.03993	 -0.44815	  0.14014	  8.24164	 -0.38566	 11.06468	707.63300	 24.90	
 20.397	-34.097	  8.68649	  9.39829	 -0.68398	  0.49557	  7.75461	 -0.39102	 11.04223	707.70801	 24.90	
 20.405	-29.165	  8.71313	  9.74574	 -0.89055	  0.89211	  7.25852	 -0.38286	 11.05249	707.74597	 24.90	
 20.401	-24.295	  8.72636	 10.03535	 -1.06427	  1.31629	  6.73125	 -0.38108	 11.05264	707.82397	 24.90	
 20.392	-19.504	  8.76137	 10.29190	 -1.19776	  1.76930	  6.21848	 -0.37808	 11.08059	707.63501	 24.90	
 20.410	-14.577	  8.73771	 10.44614	 -1.30340	  2.23173	  5.65093	 -0.35871	 11.04483	707.73901	 24.90	
 20.407	 -9.736	  8.74945	 10.57978	 -1.38479	  2.73660	  5.10048	 -0.36095	 11.04381	707.73499	 24.90	
 20.401	 -4.847	  8.76674	 10.66829	 -1.42813	  3.26269	  4.56082	 -0.35221	 11.05453	707.79303	 24.90	
 20.400	  0.000	  8.76846	 10.69629	 -1.44693	  3.79003	  4.02167	 -0.34971	 11.04918	707.78497	 24.90	
 20.401	  4.847	  8.77440	 10.68486	 -1.43491	  4.33712	  3.49065	 -0.34528	 11.05319	707.68298	 24.90	
 20.407	  9.736	  8.78742	 10.63730	 -1.39697	  4.88704	  2.98677	 -0.34045	 11.07206	707.67700	 24.90	
 20.410	 14.577	  8.79001	 10.52422	 -1.31724	  5.43975	  2.49648	 -0.33770	 11.06541	707.79401	 24.90	
 20.392	 19.504	  8.78874	 10.34501	 -1.20516	  5.99236	  2.02849	 -0.34878	 11.05354	707.79901	 24.90	
 20.401	 24.295	  8.79061	 10.13396	 -1.06562	  6.51706	  1.59818	 -0.35410	 11.05159	707.78003	 24.90	
 20.405	 29.165	  8.80018	  9.88025	 -0.90174	  7.05152	  1.17548	 -0.36886	 11.06008	707.75702	 24.90	
 20.397	 34.097	  8.81459	  9.57702	 -0.70506	  7.57858	  0.78304	 -0.39973	 11.07478	707.69202	 24.90	
 20.392	 38.938	  8.80917	  9.21032	 -0.46924	  8.04910	  0.43074	 -0.42716	 11.05357	707.80200	 24.90	
 20.396	 43.773	  8.81786	  8.81810	 -0.19940	  8.49425	  0.11929	 -0.45303	 11.05732	707.82397	 24.90	
 20.408	 48.628	  8.82479	  8.39132	  0.09186	  8.92489	 -0.18055	 -0.48158	 11.05824	707.70398	 24.90	
 20.410	 53.489	  8.83988	  7.93587	  0.42337	  9.32149	 -0.44165	 -0.49640	 11.07091	707.69098	 24.90	
 20.400	 58.396	  8.82670	  7.42202	  0.79215	  9.64780	 -0.66466	 -0.49232	 11.04807	707.80103	 24.90	
 20.403	 63.259	  8.84357	  6.91787	  1.19499	  9.95149	 -0.84861	 -0.48769	 11.06166	707.83197	 24.90	
 20.413	 68.100	  8.84393	  6.38973	  1.61696	 10.19505	 -0.99531	 -0.49033	 11.05601	707.97400	 24.90	
 20.398	 72.996	  8.83253	  5.83748	  2.07410	 10.37273	 -1.12035	 -0.47776	 11.04000	707.89203	 24.90	
 20.394	 77.868	  8.85703	  5.30057	  2.56793	 10.54044	 -1.20728	 -0.46377	 11.06460	707.94598	 24.90	
 20.403	 82.668	  8.84677	  4.75952	  3.05830	 10.62688	 -1.26992	 -0.44939	 11.05407	707.98798	 24.90	
 20.392	 87.560	  8.84774	  4.21411	  3.59120	 10.66667	 -1.28694	 -0.42422	 11.05115	707.87500	 25.00	
 20.392	 92.440	  8.85271	  3.67811	  4.13716	 10.67790	 -1.28375	 -0.39699	 11.05991	707.86902	 24.90	
 20.403	 97.332	  8.85210	  3.15556	  4.68872	 10.64116	 -1.25554	 -0.39114	 11.07127	707.94299	 24.90	
 20.394	102.132	  8.83687	  2.65892	  5.22830	 10.53247	 -1.19151	 -0.40359	 11.06034	707.92603	 25.00	
 20.398	107.004	  8.81203	  2.16819	  5.77490	 10.36860	 -1.10510	 -0.40398	 11.04811	707.86902	 24.90	
 20.413	111.900	  8.79959	  1.70836	  6.31978	 10.16973	 -0.99340	 -0.41792	 11.05177	707.82397	 25.00	
 20.403	116.741	  8.78946	  1.28212	  6.85201	  9.92528	 -0.85368	 -0.43476	 11.05911	707.77600	 25.00	
 20.400	121.604	  8.75936	  0.87554	  7.36242	  9.60799	 -0.67810	 -0.45954	 11.04554	707.85498	 24.90	
 20.410	126.511	  8.75707	  0.50595	  7.87315	  9.27056	 -0.46624	 -0.49066	 11.06549	707.78699	 25.00	
 20.408	131.372	  8.73703	  0.16493	  8.34339	  8.86733	 -0.21259	 -0.51403	 11.06051	707.89099	 25.00	
 20.396	136.227	  8.72778	 -0.13922	  8.78589	  8.43227	  0.07279	 -0.53476	 11.06461	707.90802	 25.00	
 20.392	141.062	  8.69730	 -0.40718	  9.16830	  7.95776	  0.37767	 -0.56779	 11.04772	707.84698	 25.00	
 20.397	145.903	  8.67011	 -0.65061	  9.52201	  7.46044	  0.70960	 -0.56879	 11.04079	707.95398	 25.00	
 20.405	150.835	  8.65653	 -0.86115	  9.85241	  6.92593	  1.09202	 -0.55654	 11.04681	707.96698	 25.00	
 20.401	155.705	  8.63293	 -1.03957	 10.11595	  6.37633	  1.49829	 -0.56082	 11.04468	707.94800	 24.90	
 20.392	160.496	  8.61827	 -1.18047	 10.32888	  5.83632	  1.92329	 -0.55551	 11.04779	707.83801	 24.90	
 20.410	165.423	  8.59045	 -1.30203	 10.49299	  5.25448	  2.38856	 -0.54202	 11.04128	707.92603	 24.90	
 20.407	170.264	  8.58401	 -1.38222	 10.62099	  4.69776	  2.87679	 -0.52827	 11.05132	707.93103	 24.90	
 20.401	175.153	  8.56600	 -1.43010	 10.68371	  4.13753	  3.38669	 -0.52547	 11.04778	707.90100	 25.00	
  0.141	 45.000	 11.08190	  5.98836	  5.98431	  5.85944	  6.12106	  0.08243	 11.06156	707.83899	 25.00	
  4.001	128.691	 11.03661	  5.09437	  6.72916	  6.75417	  5.08686	  0.05510	 11.04974	707.74902	 25.00	
  4.002	 76.995	 11.04891	  6.17173	  5.62320	  7.02389	  4.86757	  0.03538	 11.05243	707.86700	 24.90	
  4.002	 25.892	 11.04542	  7.04220	  4.80426	  6.34145	  5.48292	  0.02551	 11.05071	707.90802	 25.00	
  4.002	-25.892	 11.03832	  7.02767	  4.79030	  5.20040	  6.59752	  0.01535	 11.05374	707.96503	 25.00	
  4.002	-76.995	 11.01950	  6.10228	  5.62321	  4.50927	  7.32190	  0.00206	 11.05090	707.89099	 25.00	
  4.001	-128.691	 11.01382	  5.03267	  6.73121	  4.73115	  7.04961	  0.01961	 11.05561	707.84900	 25.00	
  4.000	180.000	 11.01275	  4.61909	  7.23236	  5.69576	  6.03261	  0.05211	 11.04446	708.09198	 25.00	
  8.000	180.000	 10.77290	  3.12221	  8.38935	  5.39467	  5.75581	 -0.09656	 11.06154	708.09802	 25.00	
  7.991	-152.370	 10.73960	  3.35868	  8.05531	  4.19484	  6.97780	 -0.12437	 11.04716	707.95898	 25.00	
  7.997	-124.550	 10.74301	  4.10270	  7.17122	  3.32837	  7.99433	 -0.15209	 11.05848	707.86401	 25.00	
  8.006	-96.837	 10.73750	  5.21564	  5.95469	  2.95403	  8.47811	 -0.19455	 11.05054	707.84900	 25.00	
  7.988	-69.228	 10.75658	  6.48009	  4.72946	  3.12127	  8.31666	 -0.20532	 11.04548	707.82098	 25.00	
  7.997	-41.563	 10.77964	  7.58212	  3.75828	  3.78629	  7.56046	 -0.16704	 11.03826	707.71997	 25.00	
  8.008	-13.821	 10.82149	  8.24549	  3.23607	  4.87688	  6.40786	 -0.14280	 11.05097	707.89502	 25.00	
  8.008	 13.821	 10.84344	  8.27356	  3.23253	  6.16007	  5.15531	 -0.12823	 11.05901	707.87000	 25.00	
  7.997	 41.563	 10.85777	  7.66470	  3.75842	  7.32845	  4.10812	 -0.11080	 11.05882	708.03497	 25.00	
  7.988	 69.228	 10.85713	  6.58159	  4.72359	  8.08090	  3.47412	 -0.11860	 11.05646	708.00098	 25.00	
  8.006	 96.837	 10.84540	  5.32512	  5.94575	  8.22850	  3.33715	 -0.12691	 11.04570	707.93903	 25.00	
  7.997	124.550	 10.81991	  4.19409	  7.15839	  7.72135	  3.72957	 -0.11360	 11.04728	707.90302	 25.00	
  7.991	152.370	 10.80594	  3.41890	  8.06565	  6.68308	  4.59233	 -0.10079	 11.06171	707.96997	 25.00	
 12.009	161.059	 10.30512	  1.76979	  9.12884	  6.29894	  4.08748	 -0.29549	 11.05580	707.95001	 25.00	
 12.013	142.081	 10.33853	  2.31009	  8.45956	  7.55079	  3.03886	 -0.30017	 11.05074	707.94202	 25.00	
 12.006	123.113	 10.36677	  3.17335	  7.42819	  8.51790	  2.29090	 -0.33448	 11.03848	708.04602	 25.00	
 12.007	104.200	 10.41039	  4.29441	  6.18964	  9.11907	  1.85920	 -0.36572	 11.05028	707.99799	 25.00	
 11.989	 85.301	 10.43751	  5.56878	  4.89623	  9.25488	  1.77648	 -0.34877	 11.05826	708.08099	 25.00	
 12.013	 66.294	 10.43425	  6.85892	  3.68049	  8.91647	  2.03937	 -0.30208	 11.05500	708.05701	 25.00	
 12.012	 47.388	 10.43060	  8.00780	  2.69409	  8.15503	  2.65866	 -0.29635	 11.06090	708.08801	 25.00	
 11.990	 28.440	 10.39322	  8.83024	  1.99733	  7.05042	  3.56485	 -0.33567	 11.03608	707.91199	 25.00	
 11.991	  9.464	 10.39163	  9.27171	  1.64992	  5.77781	  4.72433	 -0.33564	 11.05068	708.00897	 25.00	
 11.991	 -9.464	 10.36969	  9.24172	  1.65591	  4.46566	  6.00731	 -0.33397	 11.03852	707.87799	 25.00	
 11.990	-28.440	 10.34351	  8.76993	  2.00792	  3.26765	  7.27943	 -0.35115	 11.04536	707.98199	 25.00	
 12.012	-47.388	 10.30256	  7.88805	  2.69892	  2.32220	  8.35355	 -0.38656	 11.04437	707.95099	 25.00	
 12.013	-66.294	 10.24870	  6.70657	  3.67604	  1.67459	  9.10015	 -0.42515	 11.03049	708.13397	 25.00	
 11.989	-85.301	 10.23085	  5.40891	  4.88785	  1.39488	  9.43150	 -0.43604	 11.03568	708.07202	 25.00	
 12.007	-104.200	 10.22864	  4.14487	  6.18863	  1.44469	  9.32308	 -0.41699	 11.05092	708.04999	 25.00	
 12.006	-123.113	 10.22275	  3.04529	  7.42723	  1.84999	  8.74654	 -0.35812	 11.05338	707.82098	 25.00	
 12.013	-142.081	 10.23946	  2.21972	  8.46290	  2.62099	  7.79855	 -0.32882	 11.06478	708.04901	 25.00	
 12.009	-161.059	 10.25266	  1.71780	  9.13678	  3.68891	  6.59634	 -0.33848	 11.06351	708.07501	 25.00	
 16.000	180.000	  9.56145	  0.07101	 10.12333	  4.36909	  4.70311	 -0.49119	 11.04981	708.13702	 25.00	
 15.990	-165.604	  9.53132	  0.16282	  9.95138	  3.11303	  5.99589	 -0.51104	 11.05994	708.03003	 25.00	
 16.002	-151.165	  9.48958	  0.50485	  9.40698	  1.96719	  7.24230	 -0.51591	 11.03134	707.91699	 25.00	
 16.002	-136.836	  9.49486	  1.09051	  8.58682	  1.05457	  8.39045	 -0.49187	 11.05076	707.93903	 25.00	
 15.995	-122.439	  9.49390	  1.92196	  7.50220	  0.41037	  9.28892	 -0.50369	 11.04575	708.03601	 25.00	
 15.993	-107.966	  9.49840	  2.95885	  6.25383	  0.00080	  9.91738	 -0.52611	 11.05141	707.96997	 25.00	
 16.005	-93.629	  9.50349	  4.14851	  4.95464	 -0.15800	 10.19915	 -0.49416	 11.05592	708.12201	 25.00	
 15.992	-79.234	  9.52010	  5.44326	  3.69058	 -0.06905	 10.12184	 -0.44814	 11.04954	708.01898	 25.00	
 16.009	-64.774	  9.56428	  6.75604	  2.54954	  0.26117	  9.71204	 -0.43802	 11.05803	707.98102	 25.00	
 15.997	-50.364	  9.61308	  7.95990	  1.60138	  0.85185	  8.95852	 -0.44579	 11.05529	708.10498	 25.00	
 15.997	-36.045	  9.65838	  8.95602	  0.87090	  1.66771	  7.94826	 -0.44524	 11.05018	708.07397	 25.00	
 16.000	-21.597	  9.68473	  9.66658	  0.37410	  2.70304	  6.73888	 -0.43435	 11.04141	707.96997	 25.00	
 16.003	 -7.169	  9.70854	 10.03657	  0.12564	  3.91339	  5.43377	 -0.41709	 11.04174	707.94202	 25.00	
 16.003	  7.169	  9.73177	 10.07035	  0.11784	  5.21100	  4.15991	 -0.42404	 11.05451	707.95697	 25.00	
 16.000	 21.597	  9.76234	  9.76467	  0.35822	  6.53298	  2.98740	 -0.45222	 11.07817	707.84399	 25.00	
 15.997	 36.045	  9.74574	  9.06596	  0.85096	  7.73391	  1.97422	 -0.45244	 11.03909	708.01001	 25.00	
 15.997	 50.364	  9.77284	  8.12247	  1.57591	  8.78234	  1.16666	 -0.44146	 11.05573	708.00500	 25.00	
 16.009	 64.774	  9.79298	  6.96427	  2.53503	  9.55278	  0.61019	 -0.45295	 11.07370	708.11902	 25.00	
 15.992	 79.234	  9.78652	  5.66558	  3.68785	  9.97505	  0.29901	 -0.48672	 11.05816	708.11200	 25.00	
 16.005	 93.629	  9.77355	  4.36300	  4.95788	 10.05093	  0.24271	 -0.50574	 11.05211	708.16400	 25.00	
 15.993	107.966	  9.75127	  3.15323	  6.26368	  9.76775	  0.43704	 -0.50888	 11.04539	708.20898	 25.00	
 15.995	122.439	  9.73440	  2.08737	  7.53169	  9.15541	  0.85021	 -0.50299	 11.06680	708.09198	 25.10	
 16.002	136.836	  9.66234	  1.22041	  8.59472	  8.19243	  1.50487	 -0.48329	 11.03832	708.02600	 25.10	
 16.002	151.165	  9.64145	  0.59664	  9.44120	  7.03753	  2.39230	 -0.48445	 11.05747	708.14203	 25.10	
 15.990	165.604	  9.59484	  0.21700	  9.94793	  5.70750	  3.48088	 -0.48452	 11.04612	708.06000	 25.10	
 20.003	168.362	  8.69542	 -1.21454	 10.54526	  4.97305	  2.78143	 -0.53884	 11.05383	708.14301	 25.10	
 20.008	156.764	  8.73082	 -0.94089	 10.13943	  6.29497	  1.69608	 -0.55260	 11.05357	708.13599	 25.10	
 20.000	145.147	  8.78274	 -0.48597	  9.46371	  7.55399	  0.77338	 -0.55620	 11.05829	708.13599	 25.10	
 19.995	133.545	  8.82205	  0.15368	  8.53138	  8.65273	  0.04090	 -0.52547	 11.04812	708.16803	 25.10	
 20.009	121.926	  8.85919	  0.96316	  7.41846	  9.56568	 -0.53546	 -0.46705	 11.05779	708.01801	 25.10	
 20.005	110.327	  8.89567	  1.95633	  6.18430	 10.19621	 -0.89596	 -0.41754	 11.04624	708.14697	 25.10	
 19.989	 98.733	  8.93201	  3.09097	  4.90518	 10.55067	 -1.09500	 -0.40611	 11.05149	708.08099	 25.10	
 19.999	 87.075	  8.95077	  4.33773	  3.62650	 10.62675	 -1.14855	 -0.42985	 11.05723	708.06000	 25.10	
 19.992	 75.457	  8.95293	  5.61738	  2.43535	 10.42187	 -1.01302	 -0.48054	 11.05347	708.06097	 25.10	
 20.009	 63.844	  8.92725	  6.86424	  1.36329	  9.93151	 -0.72374	 -0.49635	 11.04016	708.09497	 25.10	
 19.989	 52.269	  8.92854	  8.04309	  0.47053	  9.18975	 -0.23208	 -0.48565	 11.05419	708.11102	 25.10	
 19.999	 40.602	  8.90998	  9.06315	 -0.24844	  8.20754	  0.44278	 -0.43859	 11.05719	708.24902	 25.10	
 20.004	 29.051	  8.89511	  9.85222	 -0.77245	  7.05583	  1.30485	 -0.37787	 11.05382	708.20697	 25.10	
 20.005	 17.433	  8.88378	 10.38458	 -1.11681	  5.80459	  2.32426	 -0.35133	 11.05828	708.10797	 25.10	
 20.006	  5.780	  8.86171	 10.62394	 -1.28928	  4.50357	  3.47287	 -0.34201	 11.04688	708.16400	 25.10	
 20.006	 -5.780	  8.86697	 10.62271	 -1.28919	  3.24927	  4.73033	 -0.36595	 11.06626	708.08099	 25.10	
 20.005	-17.433	  8.84245	 10.32132	 -1.11152	  2.05894	  6.02149	 -0.37835	 11.05336	708.17102	 25.10	
 20.004	-29.051	  8.81107	  9.72711	 -0.75742	  1.02055	  7.26338	 -0.38936	 11.05341	708.17902	 25.10	
 19.999	-40.602	  8.76180	  8.87603	 -0.22786	  0.14984	  8.38503	 -0.39371	 11.04346	708.15900	 25.10	
 19.989	-52.269	  8.72045	  7.82592	  0.48088	 -0.56327	  9.36677	 -0.37566	 11.06339	708.19897	 25.10	
 20.009	-63.844	  8.67142	  6.62319	  1.37577	 -1.06287	 10.07773	 -0.34206	 11.05412	708.15302	 25.10	
 19.992	-75.457	  8.62062	  5.33613	  2.42856	 -1.38437	 10.51909	 -0.35127	 11.03683	708.08002	 25.10	
 19.999	-87.075	  8.59251	  4.05519	  3.60694	 -1.54338	 10.71089	 -0.37238	 11.04534	708.11603	 25.10	
 19.989	-98.733	  8.59050	  2.82877	  4.88318	 -1.53644	 10.64389	 -0.41939	 11.05984	708.17902	 25.10	
 20.005	-110.327	  8.56922	  1.72770	  6.15003	 -1.34945	 10.27740	 -0.48392	 11.04500	708.15900	 25.10	
 20.009	-121.926	  8.58729	  0.77227	  7.39713	 -0.98727	  9.68007	 -0.52434	 11.07337	708.15601	 25.10	
 19.995	-133.545	  8.56319	 -0.00913	  8.47983	 -0.42675	  8.78174	 -0.55206	 11.04006	708.09100	 25.10	
 20.000	-145.147	  8.57150	 -0.60648	  9.40915	  0.34015	  7.71554	 -0.52900	 11.03887	708.05701	 25.10	
 20.008	-156.764	  8.58927	 -1.02756	 10.11210	  1.30959	  6.51921	 -0.49297	 11.05211	708.08899	 25.10	
 20.003	-168.362	  8.64402	 -1.26649	 10.55933	  2.42039	  5.27217	 -0.49295	 11.08849	708.25500	 25.10	
 20.000	180.000	  8.66205	 -1.31696	 10.67587	  3.65623	  3.99499	 -0.51807	 11.05951	708.24597	 25.10	
