FileType=PCF
NHL=14
Date=08/25/17	16:34:28
Facility=APL
Serial=16328-7
Customer=NASA
NP=6
Mach=0.050000
Calibration=1:1
CalPts=490
TstPts=95
PortNumbering=AP Standard
Units=Torr C m/s kg/m^3 deg mm 
Theta[deg]	Phi[deg]	P1[Torr]	P2[Torr]	P3[Torr]	P4[Torr]	P5[Torr]	P6[Torr]	Pt[Torr]	Ps[Abs,Torr]	Ts[C]	
  0.000	  0.000	  1.26653	  0.70561	  0.71083	  0.69663	  0.72579	  0.00761	  1.25847	708.22400	 22.40	
  1.691	128.401	  1.27223	  0.66698	  0.73585	  0.72880	  0.67978	  0.00715	  1.26313	708.37799	 22.40	
  1.692	 77.194	  1.27187	  0.70876	  0.69435	  0.73997	  0.67209	  0.00750	  1.26266	708.31598	 22.40	
  1.699	 26.182	  1.26706	  0.74466	  0.65573	  0.70926	  0.69198	  0.00566	  1.25866	708.22601	 22.40	
  1.699	-26.182	  1.26264	  0.73988	  0.65082	  0.65635	  0.73765	  0.00367	  1.25576	708.16400	 22.40	
  1.692	-77.194	  1.26693	  0.70416	  0.68759	  0.63266	  0.77089	  0.00469	  1.26068	708.24103	 22.40	
  1.691	-128.401	  1.26310	  0.65792	  0.73142	  0.63877	  0.75712	  0.00493	  1.25656	708.25403	 22.40	
  1.700	180.000	  1.26604	  0.64190	  0.75524	  0.68110	  0.71423	  0.00670	  1.25854	708.25702	 22.40	
  3.400	180.000	  1.26091	  0.57564	  0.81485	  0.67325	  0.70813	  0.00346	  1.25596	708.25201	 22.40	
  3.388	-152.325	  1.26672	  0.58899	  0.80417	  0.62361	  0.76629	  0.00279	  1.26382	708.24402	 22.40	
  3.397	-124.529	  1.25761	  0.61832	  0.75890	  0.58136	  0.80466	  0.00110	  1.25599	708.24402	 22.40	
  3.399	-96.763	  1.25861	  0.66881	  0.70320	  0.56241	  0.82766	  0.00004	  1.25734	708.20898	 22.40	
  3.394	-69.283	  1.25936	  0.72276	  0.64868	  0.56770	  0.82009	 -0.00250	  1.25741	708.24402	 22.40	
  3.400	-41.398	  1.25883	  0.77208	  0.60480	  0.59784	  0.78647	 -0.00189	  1.25568	708.27802	 22.30	
  3.401	-14.021	  1.26386	  0.80594	  0.58369	  0.64765	  0.73998	  0.00236	  1.25777	708.19000	 22.30	
  3.401	 14.021	  1.26659	  0.80774	  0.58525	  0.70764	  0.68275	  0.00245	  1.25974	708.30200	 22.30	
  3.400	 41.398	  1.27041	  0.78329	  0.61282	  0.76152	  0.63937	  0.00454	  1.26096	708.08801	 22.30	
  3.394	 69.283	  1.26746	  0.73209	  0.65642	  0.79332	  0.61016	  0.00413	  1.25863	708.17902	 22.30	
  3.399	 96.763	  1.26248	  0.67523	  0.70642	  0.79714	  0.60152	  0.00492	  1.25274	708.18701	 22.30	
  3.397	124.529	  1.26523	  0.62731	  0.76063	  0.77781	  0.61873	  0.00565	  1.25593	708.16998	 22.30	
  3.388	152.325	  1.26220	  0.59028	  0.79939	  0.73061	  0.65469	  0.00476	  1.25512	708.02899	 22.30	
  5.099	161.165	  1.25338	  0.51631	  0.86142	  0.72396	  0.63941	  0.00057	  1.25279	708.08801	 22.30	
  5.109	142.013	  1.25821	  0.54736	  0.83175	  0.78298	  0.59388	  0.00209	  1.25588	708.13898	 22.30	
  5.095	123.033	  1.25704	  0.58739	  0.78450	  0.82494	  0.55787	  0.00186	  1.25249	708.16101	 22.30	
  5.105	104.191	  1.26691	  0.64527	  0.73418	  0.85761	  0.54333	  0.00191	  1.26098	708.03802	 22.30	
  5.093	 85.207	  1.26158	  0.69820	  0.67113	  0.85940	  0.53545	 -0.00051	  1.25496	708.12799	 22.30	
  5.104	 66.290	  1.26580	  0.75826	  0.61821	  0.84611	  0.54940	 -0.00016	  1.25847	708.15601	 22.40	
  5.094	 47.331	  1.26346	  0.80917	  0.56909	  0.80871	  0.57783	 -0.00073	  1.25694	708.13000	 22.40	
  5.089	 28.397	  1.25715	  0.84459	  0.53263	  0.75741	  0.61749	 -0.00032	  1.25257	708.11200	 22.40	
  5.096	  9.576	  1.26414	  0.86921	  0.51747	  0.70356	  0.67510	 -0.00242	  1.26145	708.23297	 22.40	
  5.096	 -9.576	  1.26078	  0.86638	  0.51491	  0.63892	  0.73448	 -0.00354	  1.25924	707.98798	 22.40	
  5.089	-28.397	  1.25611	  0.84011	  0.53272	  0.58317	  0.78878	 -0.00509	  1.25625	708.19501	 22.40	
  5.094	-47.331	  1.25570	  0.80217	  0.56156	  0.53574	  0.83835	 -0.00795	  1.25865	708.09802	 22.40	
  5.104	-66.290	  1.25196	  0.74563	  0.60874	  0.50404	  0.87101	 -0.00991	  1.25736	708.02899	 22.40	
  5.093	-85.207	  1.25696	  0.68852	  0.66848	  0.49143	  0.89050	 -0.00991	  1.26384	708.11902	 22.30	
  5.105	-104.191	  1.25101	  0.62746	  0.72535	  0.49403	  0.88119	 -0.00795	  1.25770	708.04102	 22.40	
  5.095	-123.033	  1.25068	  0.57550	  0.78226	  0.51478	  0.85420	 -0.00823	  1.25689	708.15302	 22.30	
  5.109	-142.013	  1.25489	  0.53740	  0.83264	  0.55528	  0.81230	 -0.00465	  1.26084	708.22400	 22.30	
  5.099	-161.165	  1.25691	  0.51373	  0.86419	  0.60589	  0.75932	 -0.00318	  1.26143	708.20599	 22.30	
  5.100	180.000	  1.25708	  0.50700	  0.87470	  0.66462	  0.69938	 -0.00116	  1.25974	708.08899	 22.30	
  6.800	180.000	  1.24428	  0.43644	  0.92995	  0.65205	  0.68617	 -0.00742	  1.25831	708.15399	 22.30	
  6.796	-166.229	  1.24335	  0.44158	  0.92146	  0.59364	  0.74458	 -0.00802	  1.25892	708.17102	 22.30	
  6.808	-152.311	  1.24053	  0.45808	  0.89643	  0.53875	  0.80026	 -0.00774	  1.25780	708.17102	 22.30	
  6.795	-138.383	  1.24398	  0.48547	  0.86244	  0.49155	  0.85458	 -0.01285	  1.26367	708.26300	 22.30	
  6.792	-124.591	  1.23606	  0.52204	  0.81061	  0.45359	  0.89104	 -0.01451	  1.25670	708.07703	 22.30	
  6.787	-110.754	  1.23683	  0.57174	  0.75506	  0.42889	  0.92183	 -0.01737	  1.25627	708.09198	 22.30	
  6.800	-96.985	  1.23926	  0.62840	  0.69849	  0.41863	  0.93961	 -0.01801	  1.26024	708.20099	 22.30	
  6.800	-83.015	  1.23742	  0.68540	  0.63726	  0.41742	  0.93763	 -0.01967	  1.25786	708.17902	 22.30	
  6.787	-69.246	  1.23901	  0.74482	  0.58245	  0.43182	  0.92413	 -0.01950	  1.25737	708.11902	 22.30	
  6.792	-55.409	  1.24121	  0.80029	  0.53492	  0.45771	  0.89623	 -0.01901	  1.25682	708.10303	 22.30	
  6.795	-41.617	  1.24055	  0.84853	  0.49399	  0.49513	  0.85423	 -0.01443	  1.25470	708.05200	 22.30	
  6.808	-27.689	  1.24684	  0.89010	  0.46301	  0.54317	  0.80546	 -0.01381	  1.25838	708.15302	 22.30	
  6.796	-13.771	  1.24913	  0.91422	  0.44644	  0.59840	  0.74902	 -0.01140	  1.25933	708.04102	 22.30	
  6.800	  0.000	  1.25336	  0.92731	  0.44147	  0.65943	  0.69332	 -0.00951	  1.26065	708.11902	 22.30	
  6.796	 13.771	  1.25476	  0.92161	  0.44916	  0.72048	  0.63639	 -0.00830	  1.25996	708.05200	 22.30	
  6.808	 27.689	  1.25337	  0.89848	  0.46830	  0.77844	  0.58284	 -0.00700	  1.25784	708.01300	 22.30	
  6.795	 41.617	  1.25950	  0.86635	  0.50116	  0.83267	  0.54080	 -0.00593	  1.26104	708.13599	 22.30	
  6.792	 55.409	  1.25992	  0.82059	  0.54356	  0.87672	  0.50483	 -0.00434	  1.26081	707.96997	 22.30	
  6.787	 69.246	  1.25778	  0.76400	  0.59286	  0.90399	  0.48123	 -0.00454	  1.25758	707.97101	 22.30	
  6.800	 83.015	  1.25689	  0.70653	  0.64714	  0.91922	  0.46794	 -0.00396	  1.25736	708.01898	 22.30	
  6.800	 96.985	  1.25795	  0.64799	  0.70629	  0.91813	  0.46859	 -0.00671	  1.25950	708.03497	 22.30	
  6.787	110.754	  1.25784	  0.59059	  0.76717	  0.90357	  0.47907	 -0.00623	  1.26085	707.87201	 22.30	
  6.792	124.591	  1.26043	  0.54304	  0.82348	  0.87443	  0.50452	 -0.00529	  1.26427	708.04102	 22.30	
  6.795	138.383	  1.25319	  0.49932	  0.86500	  0.82566	  0.53709	 -0.00490	  1.25832	708.05701	 22.30	
  6.808	152.311	  1.25541	  0.46752	  0.90548	  0.77687	  0.58114	 -0.00653	  1.26448	708.02399	 22.30	
  6.796	166.229	  1.24281	  0.44137	  0.92025	  0.71113	  0.62686	 -0.00693	  1.25437	707.96503	 22.30	
  8.491	168.704	  1.23434	  0.37366	  0.97854	  0.70111	  0.61430	 -0.01290	  1.26168	707.97101	 22.30	
  8.502	157.493	  1.23382	  0.38952	  0.95775	  0.76160	  0.55841	 -0.01346	  1.25938	708.09998	 22.30	
  8.494	146.194	  1.23893	  0.41793	  0.93021	  0.82188	  0.51119	 -0.01142	  1.26203	708.07202	 22.30	
  8.495	135.039	  1.23700	  0.45030	  0.88712	  0.87140	  0.46791	 -0.01155	  1.25765	708.05200	 22.40	
  8.487	123.723	  1.24037	  0.49644	  0.83858	  0.91573	  0.43651	 -0.01236	  1.25877	708.00500	 22.30	
  8.492	112.575	  1.24425	  0.54677	  0.78506	  0.94862	  0.41398	 -0.01465	  1.25996	708.00500	 22.30	
  8.510	101.220	  1.24608	  0.60435	  0.72579	  0.96954	  0.40050	 -0.01304	  1.26096	708.14301	 22.40	
  8.500	 90.000	  1.24531	  0.66362	  0.66362	  0.97535	  0.39606	 -0.01142	  1.25824	708.16101	 22.40	
  8.510	 78.780	  1.24112	  0.72179	  0.60068	  0.96657	  0.39918	 -0.01199	  1.25344	708.07397	 22.40	
  8.492	 67.425	  1.24501	  0.78415	  0.54612	  0.94993	  0.41598	 -0.01223	  1.25818	707.98199	 22.40	
  8.487	 56.277	  1.24220	  0.83583	  0.49684	  0.91714	  0.43921	 -0.01244	  1.25579	708.11401	 22.40	
  8.495	 44.961	  1.24075	  0.88560	  0.45222	  0.87524	  0.47164	 -0.01016	  1.25565	708.01001	 22.30	
  8.494	 33.806	  1.23871	  0.92371	  0.41670	  0.82374	  0.51352	 -0.01348	  1.25469	708.08801	 22.30	
  8.502	 22.507	  1.24126	  0.95604	  0.39122	  0.76851	  0.56353	 -0.01746	  1.25900	708.08099	 22.30	
  8.491	 11.296	  1.23769	  0.97280	  0.37432	  0.70655	  0.61761	 -0.01657	  1.25720	708.03497	 22.40	
  8.500	  0.000	  1.23077	  0.97201	  0.36766	  0.64091	  0.67417	 -0.01596	  1.25158	708.18500	 22.40	
  8.491	-11.296	  1.22995	  0.96474	  0.37208	  0.58116	  0.73415	 -0.01872	  1.25393	707.98798	 22.40	
  8.502	-22.507	  1.23341	  0.94851	  0.38861	  0.52668	  0.79563	 -0.02057	  1.25960	708.19299	 22.40	
  8.494	-33.806	  1.22655	  0.91194	  0.41149	  0.47165	  0.84794	 -0.02128	  1.25504	708.06403	 22.40	
  8.495	-44.961	  1.22965	  0.87242	  0.44750	  0.42977	  0.90065	 -0.02356	  1.26134	708.07202	 22.40	
  8.487	-56.277	  1.22469	  0.81843	  0.48694	  0.39191	  0.93770	 -0.02781	  1.25789	707.94598	 22.40	
  8.492	-67.425	  1.21763	  0.75827	  0.53491	  0.36552	  0.96263	 -0.03019	  1.25233	708.02100	 22.40	
  8.510	-78.780	  1.22048	  0.69988	  0.59122	  0.34757	  0.98522	 -0.03085	  1.25757	708.01801	 22.40	
  8.500	-90.000	  1.22054	  0.63922	  0.65227	  0.34414	  0.99093	 -0.02930	  1.25857	708.05798	 22.40	
  8.510	-101.220	  1.21842	  0.57981	  0.71098	  0.34700	  0.98263	 -0.02913	  1.25724	707.91699	 22.40	
  8.492	-112.575	  1.21844	  0.52415	  0.77099	  0.36270	  0.96233	 -0.02684	  1.25755	708.02100	 22.40	
  8.487	-123.723	  1.21883	  0.47510	  0.82623	  0.38519	  0.93265	 -0.02566	  1.25706	707.93402	 22.40	
  8.495	-135.039	  1.22235	  0.43575	  0.88164	  0.42287	  0.89377	 -0.01946	  1.26060	707.91199	 22.40	
  8.494	-146.194	  1.22444	  0.40461	  0.92256	  0.46638	  0.84528	 -0.01784	  1.26044	707.78497	 22.40	
  8.502	-157.493	  1.22338	  0.37972	  0.95355	  0.51704	  0.78685	 -0.01847	  1.25858	707.88397	 22.40	
  8.491	-168.704	  1.22540	  0.36589	  0.97332	  0.57347	  0.72954	 -0.01594	  1.25729	707.91699	 22.40	
  8.500	180.000	  1.22601	  0.36379	  0.97844	  0.63441	  0.66894	 -0.01364	  1.25536	707.90802	 22.40	
 10.200	180.000	  1.20581	  0.28963	  1.02976	  0.61559	  0.65033	 -0.02239	  1.25835	707.98798	 22.40	
 10.191	-170.497	  1.20316	  0.29153	  1.02227	  0.55358	  0.70951	 -0.02468	  1.25803	708.17603	 22.40	
 10.210	-161.034	  1.20005	  0.30394	  1.00349	  0.49619	  0.76857	 -0.02500	  1.25640	707.90002	 22.40	
 10.194	-151.526	  1.19878	  0.32352	  0.97484	  0.43943	  0.82848	 -0.02848	  1.25719	708.01001	 22.40	
 10.190	-142.105	  1.20035	  0.35118	  0.93955	  0.39409	  0.88285	 -0.02741	  1.26032	708.05298	 22.40	
 10.215	-132.646	  1.19591	  0.38521	  0.89216	  0.35249	  0.92777	 -0.03014	  1.25676	707.95697	 22.40	
 10.203	-123.092	  1.19090	  0.42627	  0.83711	  0.31807	  0.96516	 -0.03218	  1.25295	708.02100	 22.40	
 10.192	-113.678	  1.19728	  0.47744	  0.78441	  0.29449	  1.00242	 -0.03541	  1.25890	707.88599	 22.40	
 10.208	-104.249	  1.19906	  0.53127	  0.72543	  0.27634	  1.02737	 -0.03907	  1.26176	707.98499	 22.40	
 10.210	-94.801	  1.20452	  0.59219	  0.66603	  0.26992	  1.04263	 -0.03929	  1.26674	707.83197	 22.40	
 10.210	-85.199	  1.19851	  0.65085	  0.60148	  0.26965	  1.03768	 -0.03948	  1.26023	708.01300	 22.40	
 10.208	-75.751	  1.20190	  0.71325	  0.54395	  0.27976	  1.02954	 -0.04168	  1.26207	708.03302	 22.40	
 10.192	-66.322	  1.20513	  0.77600	  0.48928	  0.29882	  1.00869	 -0.03956	  1.26322	708.12000	 22.40	
 10.203	-56.908	  1.20408	  0.83332	  0.43664	  0.32402	  0.97650	 -0.03689	  1.25955	708.05701	 22.40	
 10.215	-47.354	  1.20580	  0.88647	  0.39519	  0.35966	  0.93657	 -0.03343	  1.25808	708.05298	 22.40	
 10.190	-37.895	  1.21072	  0.93314	  0.36059	  0.40330	  0.89071	 -0.03234	  1.26044	708.02600	 22.40	
 10.194	-28.474	  1.21332	  0.97172	  0.33072	  0.44994	  0.83781	 -0.03110	  1.26040	708.12799	 22.40	
 10.210	-18.966	  1.22020	  1.00522	  0.31129	  0.50748	  0.78290	 -0.03079	  1.26553	707.98798	 22.40	
 10.191	 -9.503	  1.21863	  1.02014	  0.29912	  0.56465	  0.72071	 -0.02767	  1.26110	707.95001	 22.40	
 10.200	  0.000	  1.21523	  1.02377	  0.29372	  0.62293	  0.65788	 -0.02829	  1.25564	707.92499	 22.40	
 10.191	  9.503	  1.22079	  1.02337	  0.30097	  0.69033	  0.60020	 -0.02598	  1.25951	708.02698	 22.40	
 10.210	 18.966	  1.22614	  1.01216	  0.31544	  0.75501	  0.54553	 -0.02633	  1.26286	707.90100	 22.40	
 10.194	 28.474	  1.22740	  0.98625	  0.33771	  0.81533	  0.49281	 -0.02365	  1.26289	708.06598	 22.40	
 10.190	 37.895	  1.22521	  0.94955	  0.36521	  0.86741	  0.44584	 -0.02224	  1.25851	708.08502	 22.40	
 10.215	 47.354	  1.22958	  0.90876	  0.40575	  0.92126	  0.40687	 -0.01987	  1.26168	708.09198	 22.40	
 10.203	 56.908	  1.22317	  0.85142	  0.44729	  0.95653	  0.37162	 -0.02141	  1.25468	708.04303	 22.40	
 10.192	 66.322	  1.22602	  0.79695	  0.49958	  0.98932	  0.34976	 -0.02052	  1.25604	708.02100	 22.40	
 10.208	 75.751	  1.22394	  0.73702	  0.55308	  1.00920	  0.33247	 -0.02053	  1.25389	708.05701	 22.40	
 10.210	 85.199	  1.22755	  0.67718	  0.61386	  1.02379	  0.32262	 -0.02259	  1.25832	708.06598	 22.40	
 10.210	 94.801	  1.23057	  0.61669	  0.67770	  1.02669	  0.32303	 -0.02206	  1.26217	708.04102	 22.40	
 10.208	104.249	  1.22526	  0.55571	  0.73733	  1.01153	  0.33088	 -0.02278	  1.25786	708.06897	 22.40	
 10.192	113.678	  1.22417	  0.50242	  0.79693	  0.98942	  0.34770	 -0.02127	  1.25847	708.09198	 22.40	
 10.203	123.092	  1.22199	  0.45086	  0.85396	  0.95636	  0.37150	 -0.02011	  1.25756	708.01801	 22.40	
 10.215	132.646	  1.21765	  0.40574	  0.90334	  0.91320	  0.40131	 -0.01972	  1.25577	708.02100	 22.40	
 10.190	142.105	  1.21310	  0.36803	  0.94405	  0.86042	  0.44011	 -0.01849	  1.25353	707.99597	 22.40	
 10.194	151.526	  1.21502	  0.33696	  0.98386	  0.80636	  0.48599	 -0.02025	  1.25884	708.02899	 22.40	
 10.210	161.034	  1.20997	  0.31314	  1.00706	  0.74288	  0.53581	 -0.02083	  1.25696	708.01898	 22.30	
 10.191	170.497	  1.21225	  0.30075	  1.02653	  0.68297	  0.59294	 -0.01999	  1.26118	708.06000	 22.30	
 11.899	171.783	  1.18453	  0.22351	  1.07088	  0.65986	  0.56774	 -0.03096	  1.26111	707.84900	 22.40	
 11.890	163.610	  1.18696	  0.23793	  1.05651	  0.72440	  0.51250	 -0.02960	  1.25876	708.02698	 22.40	
 11.889	155.445	  1.18802	  0.25745	  1.03417	  0.78524	  0.46013	 -0.03097	  1.25761	708.04303	 22.40	
 11.909	147.299	  1.18740	  0.28345	  1.00030	  0.84342	  0.41115	 -0.02949	  1.25386	708.00897	 22.30	
 11.902	139.148	  1.18702	  0.31531	  0.95900	  0.89648	  0.36806	 -0.02834	  1.25073	707.77002	 22.40	
 11.894	130.867	  1.18764	  0.35462	  0.91038	  0.94347	  0.33112	 -0.02828	  1.24829	708.08502	 22.30	
 11.897	122.732	  1.19526	  0.40080	  0.86231	  0.98825	  0.30309	 -0.03009	  1.25415	707.99500	 22.40	
 11.903	114.597	  1.19751	  0.45195	  0.80588	  1.02454	  0.27828	 -0.03096	  1.25494	708.04401	 22.30	
 11.893	106.346	  1.19855	  0.50661	  0.74486	  1.04734	  0.26270	 -0.03150	  1.25353	707.94800	 22.40	
 11.892	 98.155	  1.20095	  0.56578	  0.68347	  1.06354	  0.25298	 -0.03022	  1.25487	707.93597	 22.30	
 11.900	 90.000	  1.19936	  0.62468	  0.62064	  1.06519	  0.24948	 -0.03027	  1.25101	707.96997	 22.30	
 11.892	 81.845	  1.20566	  0.68809	  0.56409	  1.06719	  0.25350	 -0.03053	  1.25842	708.03497	 22.30	
 11.893	 73.654	  1.20189	  0.74749	  0.50374	  1.04858	  0.26365	 -0.02894	  1.25381	707.98999	 22.30	
 11.903	 65.403	  1.20324	  0.80670	  0.45011	  1.02595	  0.28150	 -0.03198	  1.25487	707.95001	 22.30	
 11.897	 57.268	  1.20900	  0.87101	  0.40277	  1.00054	  0.30938	 -0.02708	  1.26296	708.04401	 22.30	
 11.894	 49.133	  1.20400	  0.91696	  0.35848	  0.95614	  0.33883	 -0.03001	  1.25837	708.01202	 22.30	
 11.902	 40.852	  1.20110	  0.96259	  0.31543	  0.90635	  0.37374	 -0.03134	  1.25616	708.00098	 22.30	
 11.909	 32.701	  1.20027	  1.00215	  0.28313	  0.85251	  0.41784	 -0.03267	  1.25752	707.90900	 22.30	
 11.889	 24.555	  1.19701	  1.03042	  0.25734	  0.79238	  0.46631	 -0.03358	  1.25641	707.97699	 22.30	
 11.890	 16.390	  1.19170	  1.04925	  0.23792	  0.72994	  0.51790	 -0.03329	  1.25090	707.84399	 22.30	
 11.899	  8.217	  1.18732	  1.05988	  0.22433	  0.66479	  0.57263	 -0.03418	  1.24949	708.03302	 22.30	
 11.900	  0.000	  1.18989	  1.06616	  0.22140	  0.60263	  0.63599	 -0.03676	  1.25394	708.01300	 22.30	
 11.899	 -8.217	  1.18598	  1.05750	  0.22279	  0.53947	  0.69438	 -0.03763	  1.25119	708.00500	 22.30	
 11.890	-16.390	  1.18482	  1.04178	  0.23288	  0.48052	  0.75463	 -0.03839	  1.25257	708.00500	 22.30	
 11.889	-24.555	  1.18229	  1.01729	  0.24955	  0.42453	  0.81452	 -0.03840	  1.25284	708.01202	 22.30	
 11.909	-32.701	  1.18307	  0.98478	  0.27484	  0.37408	  0.87185	 -0.04079	  1.25686	708.08801	 22.30	
 11.902	-40.852	  1.17948	  0.94309	  0.30669	  0.33062	  0.92256	 -0.04221	  1.25547	708.01202	 22.30	
 11.894	-49.133	  1.17707	  0.89205	  0.34441	  0.28969	  0.96859	 -0.04505	  1.25566	707.95099	 22.30	
 11.897	-57.268	  1.17792	  0.84121	  0.38846	  0.25695	  1.01023	 -0.04751	  1.25965	707.93103	 22.30	
 11.903	-65.403	  1.17227	  0.77880	  0.43590	  0.22788	  1.03900	 -0.04986	  1.25583	707.95398	 22.30	
 11.893	-73.654	  1.16870	  0.71597	  0.48806	  0.20788	  1.05881	 -0.05337	  1.25348	707.91101	 22.30	
 11.892	-81.845	  1.16865	  0.65467	  0.54707	  0.19697	  1.07309	 -0.05127	  1.25495	707.98102	 22.30	
 11.900	-90.000	  1.16959	  0.59551	  0.60844	  0.19418	  1.07931	 -0.05075	  1.25811	707.94202	 22.30	
 11.892	-98.155	  1.16314	  0.53101	  0.66714	  0.19479	  1.06831	 -0.05102	  1.25267	707.94202	 22.30	
 11.893	-106.346	  1.16114	  0.47472	  0.72686	  0.20540	  1.05169	 -0.05029	  1.24930	708.06702	 22.30	
 11.903	-114.597	  1.16771	  0.42320	  0.79376	  0.22452	  1.03458	 -0.04817	  1.25759	707.90302	 22.30	
 11.897	-122.732	  1.16967	  0.37731	  0.85036	  0.24953	  1.00348	 -0.04398	  1.25869	707.93103	 22.30	
 11.894	-130.867	  1.16378	  0.32857	  0.90011	  0.27840	  0.95696	 -0.04296	  1.25263	707.90601	 22.30	
 11.902	-139.148	  1.16723	  0.29611	  0.94978	  0.31957	  0.91271	 -0.03884	  1.25540	707.97699	 22.30	
 11.909	-147.299	  1.16762	  0.26653	  0.98992	  0.36389	  0.86056	 -0.03593	  1.25293	708.00201	 22.30	
 11.889	-155.445	  1.16620	  0.24371	  1.02006	  0.41330	  0.80204	 -0.03716	  1.25037	707.99799	 22.30	
 11.890	-163.610	  1.16681	  0.22775	  1.04403	  0.46822	  0.74321	 -0.03414	  1.24935	707.89099	 22.30	
 11.899	-171.783	  1.17331	  0.21758	  1.06363	  0.52887	  0.68448	 -0.03399	  1.25377	707.94598	 22.30	
 11.900	180.000	  1.17483	  0.21917	  1.06727	  0.59193	  0.62477	 -0.03141	  1.25256	707.95099	 22.30	
 13.600	180.000	  1.15125	  0.14821	  1.11408	  0.57040	  0.60366	 -0.04043	  1.26015	708.01300	 22.30	
 13.608	-172.853	  1.14297	  0.14693	  1.10347	  0.50537	  0.65926	 -0.04176	  1.25405	707.92499	 22.30	
 13.611	-165.583	  1.14274	  0.15544	  1.09192	  0.44776	  0.72098	 -0.04434	  1.25667	707.96997	 22.30	
 13.601	-158.353	  1.14012	  0.16941	  1.06746	  0.38953	  0.78181	 -0.04543	  1.25530	707.96698	 22.30	
 13.609	-151.210	  1.13774	  0.18648	  1.03807	  0.33556	  0.83854	 -0.04822	  1.25480	708.03003	 22.30	
 13.611	-143.999	  1.13443	  0.21195	  0.99989	  0.28925	  0.89129	 -0.04908	  1.25300	708.00500	 22.30	
 13.601	-136.825	  1.13457	  0.24257	  0.95651	  0.24769	  0.94275	 -0.05032	  1.25497	707.91699	 22.30	
 13.596	-129.640	  1.13228	  0.28023	  0.90582	  0.21074	  0.98659	 -0.05136	  1.25188	707.96399	 22.30	
 13.611	-122.431	  1.12853	  0.32138	  0.84950	  0.17771	  1.02530	 -0.05519	  1.24974	707.88599	 22.30	
 13.604	-115.211	  1.13250	  0.36988	  0.79571	  0.15663	  1.05932	 -0.05599	  1.25353	707.99799	 22.30	
 13.595	-108.042	  1.13437	  0.42170	  0.73659	  0.13916	  1.08564	 -0.05908	  1.25632	707.88000	 22.30	
 13.607	-100.793	  1.13226	  0.47610	  0.67358	  0.12497	  1.10200	 -0.05945	  1.25350	708.00500	 22.30	
 13.601	-93.617	  1.13545	  0.53740	  0.61355	  0.12247	  1.11309	 -0.05738	  1.25637	707.89099	 22.30	
 13.601	-86.383	  1.13654	  0.59728	  0.55197	  0.12128	  1.11434	 -0.05992	  1.25634	707.84698	 22.30	
 13.607	-79.207	  1.13552	  0.65923	  0.49224	  0.12963	  1.10440	 -0.05666	  1.25328	707.93201	 22.30	
 13.595	-71.958	  1.13966	  0.72230	  0.43697	  0.14299	  1.09107	 -0.05746	  1.25598	707.94800	 22.30	
 13.604	-64.789	  1.14309	  0.78500	  0.38395	  0.16258	  1.06844	 -0.05670	  1.25643	708.06598	 22.30	
 13.611	-57.569	  1.14162	  0.84233	  0.33344	  0.18699	  1.03604	 -0.05355	  1.25421	707.99597	 22.30	
 13.596	-50.360	  1.14401	  0.89625	  0.29111	  0.21772	  0.99694	 -0.05336	  1.25328	708.11200	 22.30	
 13.601	-43.175	  1.14766	  0.94869	  0.25303	  0.25714	  0.95323	 -0.05205	  1.25449	707.96997	 22.30	
 13.611	-36.001	  1.15622	  0.99843	  0.22262	  0.30220	  0.90758	 -0.04930	  1.25981	708.02899	 22.30	
 13.609	-28.790	  1.15175	  1.03006	  0.19425	  0.34735	  0.84768	 -0.04852	  1.25264	707.98798	 22.30	
 13.601	-21.647	  1.15787	  1.06434	  0.17521	  0.40178	  0.79331	 -0.04389	  1.25636	708.06897	 22.30	
 13.611	-14.417	  1.15935	  1.08715	  0.15993	  0.45908	  0.73336	 -0.04265	  1.25549	707.96198	 22.30	
 13.608	 -7.147	  1.15740	  1.09787	  0.15014	  0.51657	  0.66910	 -0.04259	  1.25103	707.91998	 22.30	
 13.600	  0.000	  1.16418	  1.10790	  0.14943	  0.57941	  0.61277	 -0.04328	  1.25639	707.94299	 22.30	
 13.608	  7.147	  1.16725	  1.10857	  0.15441	  0.64513	  0.55447	 -0.04148	  1.25762	708.00500	 22.30	
 13.611	 14.417	  1.16781	  1.09656	  0.16440	  0.70866	  0.49609	 -0.03982	  1.25558	708.00500	 22.30	
 13.601	 21.647	  1.16992	  1.07728	  0.18101	  0.77132	  0.44149	 -0.03979	  1.25691	707.95898	 22.30	
 13.609	 28.790	  1.17174	  1.05216	  0.20272	  0.83173	  0.39205	 -0.03782	  1.25816	707.92297	 22.30	
 13.611	 36.001	  1.17608	  1.01930	  0.23172	  0.89078	  0.34736	 -0.03651	  1.26044	707.99298	 22.30	
 13.601	 43.175	  1.17640	  0.97676	  0.26448	  0.94078	  0.30597	 -0.03987	  1.25941	707.87799	 22.30	
 13.596	 50.360	  1.18087	  0.93061	  0.30717	  0.99137	  0.27118	 -0.03606	  1.26242	707.91498	 22.30	
 13.611	 57.569	  1.17588	  0.87489	  0.34795	  1.02804	  0.23879	 -0.03698	  1.25740	707.91699	 22.30	
 13.604	 64.789	  1.17674	  0.81628	  0.39799	  1.06044	  0.21435	 -0.03815	  1.25587	707.97900	 22.30	
 13.595	 71.958	  1.17614	  0.75761	  0.45197	  1.08413	  0.19770	 -0.04067	  1.25556	707.92297	 22.30	
 13.607	 79.207	  1.17831	  0.69702	  0.50894	  1.10197	  0.18540	 -0.03963	  1.25702	707.87799	 22.30	
 13.601	 86.383	  1.17602	  0.63333	  0.56774	  1.10853	  0.17836	 -0.04114	  1.25495	707.92499	 22.30	
 13.601	 93.617	  1.17692	  0.57324	  0.63051	  1.11103	  0.17788	 -0.03929	  1.25717	707.90601	 22.30	
 13.607	100.793	  1.17432	  0.51202	  0.69098	  1.10133	  0.18185	 -0.04215	  1.25598	707.86700	 22.30	
 13.595	108.042	  1.17260	  0.45663	  0.75376	  1.08263	  0.19628	 -0.03974	  1.25554	707.82397	 22.30	
 13.604	115.211	  1.17401	  0.40009	  0.81593	  1.05982	  0.20994	 -0.04047	  1.25983	707.83600	 22.30	
 13.611	122.431	  1.16766	  0.35044	  0.87079	  1.02317	  0.23415	 -0.03790	  1.25536	707.82501	 22.30	
 13.596	129.640	  1.16641	  0.30667	  0.92328	  0.98210	  0.26277	 -0.03877	  1.25592	707.88800	 22.30	
 13.601	136.825	  1.16549	  0.26816	  0.97392	  0.93476	  0.30006	 -0.03635	  1.25754	707.95001	 22.30	
 13.611	143.999	  1.16240	  0.23246	  1.01538	  0.88144	  0.33867	 -0.03776	  1.25757	707.84399	 22.30	
 13.609	151.210	  1.15904	  0.20375	  1.04994	  0.82286	  0.38320	 -0.03681	  1.25689	707.93201	 22.30	
 13.601	158.353	  1.15906	  0.17984	  1.07961	  0.76249	  0.43348	 -0.03939	  1.25907	707.79303	 22.30	
 13.611	165.583	  1.15355	  0.16239	  1.09680	  0.69639	  0.48615	 -0.03905	  1.25643	707.81000	 22.30	
 13.608	172.853	  1.15195	  0.15221	  1.10864	  0.63372	  0.54226	 -0.03912	  1.25764	707.75098	 22.30	
 15.298	173.587	  1.11631	  0.08676	  1.14255	  0.60804	  0.51732	 -0.04873	  1.25599	707.80499	 22.30	
 15.291	167.167	  1.12458	  0.09630	  1.13770	  0.67283	  0.46433	 -0.04719	  1.26157	707.83600	 22.30	
 15.307	160.676	  1.12394	  0.11029	  1.11808	  0.73567	  0.40834	 -0.04784	  1.25884	707.80798	 22.30	
 15.300	154.261	  1.12812	  0.12952	  1.09522	  0.79961	  0.35762	 -0.04596	  1.25954	707.71198	 22.30	
 15.288	147.854	  1.13377	  0.15932	  1.06449	  0.86153	  0.31472	 -0.04497	  1.26252	707.88599	 22.30	
 15.293	141.428	  1.12837	  0.18581	  1.01995	  0.91009	  0.27023	 -0.04347	  1.25286	707.80200	 22.30	
 15.299	134.985	  1.13051	  0.22058	  0.97566	  0.96269	  0.23187	 -0.04518	  1.25354	707.74298	 22.30	
 15.305	128.583	  1.13731	  0.26089	  0.93192	  1.01419	  0.19988	 -0.04667	  1.25819	707.69800	 22.20	
 15.309	122.142	  1.13571	  0.30584	  0.87286	  1.04946	  0.17262	 -0.04617	  1.25271	707.80103	 22.30	
 15.304	115.711	  1.13743	  0.35267	  0.81572	  1.08325	  0.14870	 -0.04641	  1.25306	707.75897	 22.30	
 15.297	109.291	  1.14578	  0.40733	  0.76087	  1.11548	  0.13302	 -0.04806	  1.25992	707.67999	 22.20	
 15.293	102.897	  1.14346	  0.46047	  0.69798	  1.13201	  0.11885	 -0.04576	  1.25529	707.77002	 22.30	
 15.293	 96.458	  1.14621	  0.51916	  0.63569	  1.14277	  0.11173	 -0.04825	  1.25652	707.82098	 22.30	
 15.300	 90.000	  1.14471	  0.57568	  0.57322	  1.14587	  0.10660	 -0.04834	  1.25411	707.75098	 22.30	
 15.293	 83.542	  1.14917	  0.64210	  0.51542	  1.14565	  0.11326	 -0.04506	  1.25773	707.72601	 22.30	
 15.293	 77.103	  1.14648	  0.70284	  0.45488	  1.13168	  0.12093	 -0.04466	  1.25452	707.75702	 22.30	
 15.297	 70.709	  1.14338	  0.76108	  0.39992	  1.11077	  0.13407	 -0.04510	  1.25234	707.75299	 22.30	
 15.304	 64.289	  1.14979	  0.82471	  0.35129	  1.09185	  0.15348	 -0.04440	  1.25896	707.80200	 22.30	
 15.309	 57.858	  1.14844	  0.88109	  0.30448	  1.05793	  0.17908	 -0.04412	  1.25827	707.76501	 22.30	
 15.305	 51.417	  1.14750	  0.93472	  0.25848	  1.01875	  0.20614	 -0.04395	  1.25922	707.76202	 22.30	
 15.299	 45.015	  1.14605	  0.98205	  0.21900	  0.97291	  0.23909	 -0.04559	  1.25917	707.80701	 22.30	
 15.293	 38.572	  1.14622	  1.02788	  0.18385	  0.92236	  0.27881	 -0.04567	  1.26139	707.71802	 22.30	
 15.288	 32.146	  1.14603	  1.06582	  0.15541	  0.86910	  0.32142	 -0.04496	  1.26177	707.72803	 22.30	
 15.300	 25.739	  1.14368	  1.09718	  0.12739	  0.80963	  0.36641	 -0.04547	  1.26146	707.89801	 22.30	
 15.307	 19.324	  1.14673	  1.12487	  0.11232	  0.75193	  0.42163	 -0.04579	  1.26488	707.89398	 22.30	
 15.291	 12.833	  1.13912	  1.13584	  0.09458	  0.68368	  0.47306	 -0.04609	  1.26047	707.86902	 22.30	
 15.298	  6.413	  1.13517	  1.14284	  0.08629	  0.61970	  0.53026	 -0.04595	  1.25652	707.87500	 22.30	
 15.300	  0.000	  1.13812	  1.14816	  0.08254	  0.55810	  0.58960	 -0.05006	  1.26220	707.82898	 22.30	
 15.298	 -6.413	  1.13465	  1.14149	  0.08466	  0.49734	  0.64937	 -0.04710	  1.26153	707.96698	 22.30	
 15.291	-12.833	  1.13163	  1.12809	  0.09049	  0.43662	  0.70869	 -0.04735	  1.25880	707.86700	 22.30	
 15.307	-19.324	  1.13175	  1.10877	  0.10473	  0.38112	  0.77085	 -0.04794	  1.26172	707.75702	 22.20	
 15.300	-25.739	  1.12607	  1.07817	  0.12008	  0.32516	  0.82751	 -0.05218	  1.25964	707.83600	 22.20	
 15.288	-32.146	  1.12265	  1.04259	  0.14200	  0.27538	  0.88133	 -0.05643	  1.25758	707.93597	 22.20	
 15.293	-38.572	  1.12684	  1.00704	  0.17424	  0.23325	  0.94077	 -0.05861	  1.26613	707.88000	 22.30	
 15.299	-45.015	  1.12449	  0.96109	  0.20626	  0.19104	  0.99082	 -0.05728	  1.26766	707.77698	 22.20	
 15.305	-51.417	  1.11821	  0.90480	  0.24555	  0.15623	  1.02997	 -0.05810	  1.26255	707.84100	 22.20	
 15.309	-57.858	  1.11185	  0.84620	  0.28796	  0.12571	  1.06464	 -0.05968	  1.25774	707.87701	 22.20	
 15.304	-64.289	  1.11356	  0.78966	  0.33433	  0.09905	  1.09951	 -0.05917	  1.26249	707.80103	 22.20	
 15.297	-70.709	  1.11043	  0.72727	  0.38714	  0.07949	  1.12414	 -0.06438	  1.26091	707.81500	 22.20	
 15.293	-77.103	  1.11230	  0.66833	  0.44314	  0.06642	  1.14462	 -0.06243	  1.26533	707.71399	 22.20	
 15.293	-83.542	  1.11039	  0.60675	  0.50028	  0.05736	  1.15416	 -0.06135	  1.26519	707.84100	 22.20	
 15.300	-90.000	  1.10684	  0.54349	  0.56033	  0.05440	  1.15411	 -0.06178	  1.26201	707.78003	 22.30	
 15.293	-96.458	  1.09894	  0.47990	  0.61749	  0.05539	  1.14188	 -0.06445	  1.25391	707.77301	 22.20	
 15.293	-102.897	  1.10792	  0.42729	  0.68360	  0.06212	  1.14055	 -0.06536	  1.26529	707.91199	 22.30	
 15.297	-109.291	  1.10834	  0.37444	  0.74539	  0.07699	  1.12148	 -0.06450	  1.26567	707.87201	 22.30	
 15.304	-115.711	  1.10713	  0.32161	  0.80477	  0.09214	  1.09527	 -0.06401	  1.26490	707.88599	 22.30	
 15.309	-122.142	  1.10397	  0.27666	  0.86107	  0.11980	  1.05728	 -0.06259	  1.26031	707.79401	 22.30	
 15.305	-128.583	  1.10581	  0.23359	  0.91638	  0.14679	  1.02041	 -0.06087	  1.26236	707.76202	 22.30	
 15.299	-134.985	  1.10232	  0.19628	  0.96323	  0.18039	  0.97300	 -0.05781	  1.25803	707.77399	 22.30	
 15.293	-141.428	  1.10479	  0.16635	  1.00948	  0.22210	  0.92442	 -0.05746	  1.25806	707.73700	 22.30	
 15.288	-147.854	  1.10755	  0.14160	  1.05101	  0.26922	  0.87169	 -0.05553	  1.25945	707.67700	 22.30	
 15.300	-154.261	  1.10735	  0.11892	  1.08293	  0.31625	  0.81513	 -0.05242	  1.25819	707.74597	 22.30	
 15.307	-160.676	  1.11257	  0.10100	  1.11295	  0.36716	  0.76029	 -0.05402	  1.26226	707.66602	 22.30	
 15.291	-167.167	  1.11084	  0.08838	  1.12921	  0.42263	  0.69647	 -0.05227	  1.25808	707.77698	 22.30	
 15.298	-173.587	  1.11983	  0.08235	  1.14861	  0.48582	  0.63961	 -0.05115	  1.26551	707.80200	 22.30	
 15.300	180.000	  1.12192	  0.08232	  1.15257	  0.54690	  0.57991	 -0.05190	  1.26534	707.83301	 22.30	
 17.000	180.000	  1.08721	  0.03265	  1.18401	  0.52804	  0.55875	 -0.05542	  1.26674	707.71198	 22.30	
 16.990	-174.179	  1.08134	  0.03046	  1.17573	  0.46581	  0.61380	 -0.05487	  1.26209	707.68402	 22.30	
 17.009	-168.383	  1.07966	  0.03313	  1.16700	  0.40690	  0.67290	 -0.05654	  1.26427	707.72803	 22.30	
 17.000	-162.596	  1.07004	  0.04342	  1.14108	  0.34858	  0.72764	 -0.05529	  1.25512	707.60400	 22.30	
 16.990	-156.759	  1.07162	  0.05903	  1.11933	  0.29895	  0.78729	 -0.05819	  1.25890	707.62097	 22.30	
 16.995	-150.919	  1.07219	  0.07751	  1.09115	  0.25051	  0.84550	 -0.06097	  1.26012	707.70398	 22.30	
 16.988	-145.161	  1.06728	  0.09853	  1.05269	  0.20405	  0.89695	 -0.06102	  1.25801	707.79102	 22.30	
 17.014	-139.343	  1.07172	  0.12752	  1.01546	  0.16388	  0.95316	 -0.06241	  1.26483	707.83002	 22.30	
 17.007	-133.546	  1.06839	  0.15794	  0.96728	  0.12602	  0.99811	 -0.06258	  1.26110	707.78003	 22.30	
 17.001	-127.699	  1.06646	  0.19288	  0.91688	  0.09308	  1.04056	 -0.06379	  1.26094	707.75702	 22.30	
 17.006	-121.937	  1.07023	  0.23638	  0.86438	  0.06706	  1.08328	 -0.06487	  1.26456	707.84900	 22.30	
 17.002	-116.134	  1.06583	  0.27882	  0.80550	  0.04496	  1.11078	 -0.06692	  1.26021	707.77399	 22.30	
 17.001	-110.310	  1.06908	  0.32657	  0.74883	  0.02414	  1.14157	 -0.06452	  1.26432	707.65802	 22.30	
 16.988	-104.517	  1.06924	  0.37871	  0.68958	  0.01419	  1.16005	 -0.06454	  1.26346	707.70398	 22.30	
 17.008	-98.662	  1.06641	  0.43253	  0.62551	  0.00421	  1.17096	 -0.06256	  1.25871	707.62500	 22.30	
 16.996	-92.909	  1.06702	  0.48819	  0.56599	 -0.00074	  1.17809	 -0.06231	  1.25970	707.80798	 22.30	
 16.996	-87.091	  1.06577	  0.54772	  0.50690	  0.00306	  1.17589	 -0.05880	  1.25625	707.84900	 22.30	
 17.012	-81.253	  1.06073	  0.60290	  0.44500	  0.00516	  1.16536	 -0.05926	  1.25114	707.83600	 22.30	
 16.988	-75.483	  1.06329	  0.66252	  0.39166	  0.01531	  1.15315	 -0.06195	  1.25052	707.59601	 22.30	
 17.001	-69.690	  1.06667	  0.72625	  0.34131	  0.03300	  1.13717	 -0.05518	  1.25223	707.68701	 22.30	
 17.002	-63.866	  1.06848	  0.78553	  0.29118	  0.05097	  1.11216	 -0.05624	  1.25143	707.76801	 22.30	
 17.006	-58.063	  1.06661	  0.83914	  0.24498	  0.07415	  1.07698	 -0.05997	  1.24683	707.79401	 22.30	
 17.001	-52.301	  1.07594	  0.89809	  0.20912	  0.10586	  1.04665	 -0.05933	  1.25431	707.78003	 22.30	
 17.007	-46.454	  1.07732	  0.95061	  0.16886	  0.13812	  1.00364	 -0.05665	  1.25225	707.64398	 22.30	
 17.014	-40.657	  1.08052	  0.99879	  0.13607	  0.17398	  0.95935	 -0.05845	  1.25402	707.72198	 22.30	
 16.988	-34.839	  1.08615	  1.04286	  0.11082	  0.21848	  0.91105	 -0.05702	  1.25593	707.73499	 22.30	
 16.995	-29.081	  1.08656	  1.07912	  0.08524	  0.26275	  0.85549	 -0.05221	  1.25361	707.71997	 22.30	
 16.990	-23.241	  1.09118	  1.11225	  0.06556	  0.31327	  0.80012	 -0.04598	  1.25500	707.80200	 22.30	
 17.000	-17.404	  1.09304	  1.13830	  0.04898	  0.36357	  0.74341	 -0.04796	  1.25657	707.73102	 22.30	
 17.009	-11.617	  1.09697	  1.15681	  0.03871	  0.41952	  0.68405	 -0.05298	  1.25660	707.82501	 22.30	
 16.990	 -5.821	  1.09569	  1.16545	  0.03351	  0.47599	  0.62480	 -0.04741	  1.25357	707.73700	 22.30	
 17.000	  0.000	  1.09551	  1.17067	  0.03060	  0.53367	  0.56615	 -0.04564	  1.25221	707.75299	 22.30	
 16.990	  5.821	  1.10379	  1.17411	  0.03773	  0.60035	  0.51177	 -0.04441	  1.25837	707.80200	 22.30	
 17.009	 11.617	  1.09867	  1.16058	  0.04073	  0.65569	  0.45280	 -0.04461	  1.25244	707.68402	 22.30	
 17.000	 17.404	  1.09796	  1.14425	  0.05485	  0.71707	  0.39999	 -0.04315	  1.24903	707.74597	 22.30	
 16.990	 23.241	  1.10221	  1.12618	  0.07220	  0.78008	  0.34981	 -0.04349	  1.25209	707.56500	 22.30	
 16.995	 29.081	  1.10590	  1.09891	  0.09584	  0.83877	  0.30656	 -0.04625	  1.25282	707.61102	 22.30	
 16.988	 34.839	  1.10736	  1.06528	  0.11961	  0.89331	  0.26298	 -0.04825	  1.25363	707.67999	 22.30	
 17.014	 40.657	  1.11054	  1.02831	  0.14905	  0.94968	  0.22201	 -0.04815	  1.25655	707.70300	 22.30	
 17.007	 46.454	  1.10919	  0.98296	  0.18517	  0.99609	  0.18878	 -0.04698	  1.25397	707.73499	 22.30	
 17.001	 52.301	  1.10974	  0.93346	  0.22230	  1.03891	  0.15692	 -0.04818	  1.25215	707.75403	 22.30	
 17.006	 58.063	  1.11484	  0.88432	  0.26119	  1.08124	  0.12681	 -0.04962	  1.25888	707.75897	 22.30	
 17.002	 63.866	  1.11205	  0.82506	  0.30770	  1.11122	  0.10274	 -0.04862	  1.25345	707.65900	 22.30	
 17.001	 69.690	  1.11180	  0.76612	  0.35858	  1.13755	  0.08592	 -0.04786	  1.25450	707.86298	 22.30	
 16.988	 75.483	  1.10914	  0.70646	  0.40695	  1.15493	  0.06879	 -0.04775	  1.25175	707.76001	 22.30	
 17.012	 81.253	  1.11449	  0.65027	  0.46708	  1.17267	  0.06411	 -0.04920	  1.25633	707.74597	 22.30	
 16.996	 87.091	  1.10973	  0.58607	  0.52030	  1.17518	  0.05386	 -0.04992	  1.25173	707.76001	 22.30	
 16.996	 92.909	  1.10906	  0.52760	  0.58011	  1.17453	  0.05556	 -0.04777	  1.25169	707.74902	 22.30	
 17.008	 98.662	  1.10768	  0.46969	  0.63999	  1.16867	  0.05839	 -0.04848	  1.25202	707.64697	 22.30	
 16.988	104.517	  1.10807	  0.41352	  0.70174	  1.15608	  0.06606	 -0.04818	  1.25358	707.74500	 22.30	
 17.001	110.310	  1.10832	  0.36595	  0.76344	  1.13600	  0.08670	 -0.04809	  1.25439	707.71997	 22.30	
 17.002	116.134	  1.10550	  0.31104	  0.82025	  1.10918	  0.09722	 -0.04968	  1.25590	707.85199	 22.30	
 17.006	121.937	  1.10553	  0.27176	  0.87851	  1.07594	  0.12728	 -0.04938	  1.25556	707.55402	 22.30	
 17.001	127.699	  1.09890	  0.22491	  0.92811	  1.03336	  0.14862	 -0.04946	  1.25208	707.58002	 22.30	
 17.007	133.546	  1.10127	  0.18696	  0.98106	  0.99343	  0.17903	 -0.04862	  1.25807	707.71198	 22.30	
 17.014	139.343	  1.09723	  0.15247	  1.02565	  0.94254	  0.21347	 -0.04890	  1.25681	707.70001	 22.30	
 16.988	145.161	  1.09617	  0.12183	  1.06565	  0.88798	  0.25250	 -0.04985	  1.25659	707.60999	 22.30	
 16.995	150.919	  1.09366	  0.09688	  1.09947	  0.83249	  0.29584	 -0.05205	  1.25745	707.65900	 22.30	
 16.990	156.759	  1.08649	  0.07510	  1.12340	  0.77001	  0.34044	 -0.04992	  1.25275	707.75897	 22.30	
 17.000	162.596	  1.08690	  0.05601	  1.14844	  0.70982	  0.38995	 -0.05236	  1.25665	707.63300	 22.30	
 17.009	168.383	  1.08596	  0.04470	  1.16559	  0.64854	  0.44393	 -0.05272	  1.25805	707.82397	 22.30	
 16.990	174.179	  1.08534	  0.03195	  1.17814	  0.58692	  0.49762	 -0.05330	  1.26173	707.76001	 22.30	
 18.709	174.675	  1.03798	 -0.04389	  1.20108	  0.54978	  0.45905	 -0.05387	  1.25816	707.66400	 22.30	
 18.703	169.441	  1.04230	 -0.03602	  1.19559	  0.61195	  0.40609	 -0.05256	  1.26046	707.78699	 22.30	
 18.691	164.085	  1.04653	 -0.02322	  1.18224	  0.67513	  0.35433	 -0.05440	  1.26096	707.90802	 22.30	
 18.706	158.818	  1.04786	 -0.00756	  1.16288	  0.73768	  0.30312	 -0.05198	  1.25986	707.82098	 22.30	
 18.695	153.537	  1.05016	  0.01193	  1.13560	  0.79655	  0.25747	 -0.05126	  1.25839	707.76703	 22.30	
 18.704	148.255	  1.05591	  0.03696	  1.10765	  0.85888	  0.21519	 -0.05049	  1.26159	707.76801	 22.30	
 18.698	142.952	  1.05566	  0.06538	  1.06796	  0.91393	  0.17430	 -0.04642	  1.25893	707.68103	 22.30	
 18.699	137.625	  1.06218	  0.09743	  1.02902	  0.96968	  0.13898	 -0.04822	  1.26210	707.85999	 22.30	
 18.705	132.343	  1.06349	  0.13306	  0.98073	  1.01523	  0.10840	 -0.05128	  1.25970	707.82202	 22.30	
 18.713	127.067	  1.06644	  0.17028	  0.93279	  1.06216	  0.07816	 -0.04981	  1.26212	707.79797	 22.30	
 18.700	121.794	  1.06781	  0.21313	  0.87723	  1.09888	  0.05338	 -0.04926	  1.26008	707.72198	 22.30	
 18.698	116.504	  1.06946	  0.25704	  0.82078	  1.13488	  0.02990	 -0.04631	  1.26044	707.75299	 22.40	
 18.707	111.165	  1.07124	  0.30795	  0.76093	  1.16217	  0.01419	 -0.04573	  1.25966	707.75403	 22.30	
 18.690	105.863	  1.07190	  0.35942	  0.70067	  1.18165	  0.00137	 -0.04249	  1.25727	707.69800	 22.30	
 18.696	100.583	  1.07192	  0.41488	  0.63999	  1.19384	 -0.00549	 -0.04538	  1.25593	707.67200	 22.40	
 18.700	 95.309	  1.07488	  0.47000	  0.58090	  1.20643	 -0.01328	 -0.04585	  1.25820	707.71198	 22.30	
 18.700	 90.000	  1.07627	  0.52867	  0.52161	  1.20905	 -0.01376	 -0.04661	  1.25885	707.56500	 22.30	
 18.700	 84.691	  1.07798	  0.58966	  0.46283	  1.20638	 -0.01009	 -0.04798	  1.25907	707.70801	 22.30	
 18.696	 79.417	  1.07435	  0.64798	  0.40632	  1.19354	 -0.00376	 -0.04647	  1.25482	707.66602	 22.30	
 18.690	 74.137	  1.07614	  0.70705	  0.35253	  1.18235	  0.00387	 -0.04582	  1.25767	707.67297	 22.40	
 18.707	 68.835	  1.07562	  0.76651	  0.29892	  1.16065	  0.01675	 -0.04755	  1.25767	707.78497	 22.40	
 18.698	 63.496	  1.07567	  0.82518	  0.25126	  1.13596	  0.03419	 -0.04669	  1.25900	707.69702	 22.40	
 18.700	 58.206	  1.07939	  0.88443	  0.20875	  1.10878	  0.05826	 -0.04507	  1.26455	707.67297	 22.30	
 18.713	 52.933	  1.07270	  0.93414	  0.16325	  1.06389	  0.08292	 -0.04443	  1.25926	707.68903	 22.40	
 18.705	 47.657	  1.07373	  0.98583	  0.12622	  1.02114	  0.11431	 -0.04654	  1.26103	707.69501	 22.30	
 18.699	 42.375	  1.07438	  1.03235	  0.09159	  0.97490	  0.14675	 -0.04646	  1.26180	707.67297	 22.40	
 18.698	 37.048	  1.07052	  1.07190	  0.06076	  0.92236	  0.18335	 -0.04456	  1.25963	707.57397	 22.30	
 18.704	 31.745	  1.07060	  1.10896	  0.03454	  0.86704	  0.22577	 -0.04431	  1.26059	707.60400	 22.40	
 18.695	 26.463	  1.06886	  1.14052	  0.01040	  0.80785	  0.27083	 -0.04259	  1.26127	707.59698	 22.40	
 18.706	 21.182	  1.06732	  1.16516	 -0.00615	  0.75031	  0.31756	 -0.03902	  1.26177	707.60101	 22.30	
 18.691	 15.915	  1.06614	  1.18411	 -0.02115	  0.68902	  0.36886	 -0.03840	  1.26059	707.59003	 22.30	
 18.703	 10.559	  1.06632	  1.19916	 -0.03542	  0.62643	  0.42146	 -0.03887	  1.26274	707.65002	 22.40	
 18.709	  5.325	  1.06104	  1.20324	 -0.04410	  0.56321	  0.47391	 -0.03925	  1.25950	707.60498	 22.40	
 18.700	  0.000	  1.06356	  1.20665	 -0.04445	  0.50420	  0.53560	 -0.04081	  1.26291	707.57001	 22.30	
 18.709	 -5.325	  1.05968	  1.20094	 -0.04423	  0.44392	  0.59188	 -0.04258	  1.26188	707.60400	 22.30	
 18.703	-10.559	  1.05125	  1.18372	 -0.03979	  0.38394	  0.64704	 -0.04189	  1.25436	707.67200	 22.40	
 18.691	-15.915	  1.05678	  1.17396	 -0.02847	  0.33199	  0.71157	 -0.04244	  1.26231	707.60199	 22.30	
 18.706	-21.182	  1.05634	  1.15218	 -0.01581	  0.27910	  0.77048	 -0.04616	  1.26477	707.73499	 22.30	
 18.695	-26.463	  1.04999	  1.11987	  0.00107	  0.22817	  0.82541	 -0.04650	  1.26011	707.57300	 22.30	
 18.704	-31.745	  1.05029	  1.08700	  0.02290	  0.18192	  0.88286	 -0.05208	  1.26299	707.72302	 22.30	
 18.698	-37.048	  1.04611	  1.04652	  0.04515	  0.13632	  0.93574	 -0.04799	  1.26297	707.74200	 22.40	
 18.699	-42.375	  1.04222	  0.99872	  0.07812	  0.09956	  0.98345	 -0.05246	  1.25939	707.65900	 22.30	
 18.705	-47.657	  1.04226	  0.95320	  0.10868	  0.06106	  1.03231	 -0.05359	  1.26420	707.60101	 22.30	
 18.713	-52.933	  1.03432	  0.89656	  0.14631	  0.03086	  1.06808	 -0.05156	  1.25743	707.62402	 22.30	
 18.700	-58.206	  1.03523	  0.84235	  0.18879	  0.00375	  1.10822	 -0.05113	  1.26111	707.77301	 22.30	
 18.698	-63.496	  1.03101	  0.78274	  0.23256	 -0.01943	  1.13657	 -0.05348	  1.25877	707.65802	 22.30	
 18.707	-68.835	  1.03028	  0.72373	  0.28051	 -0.03948	  1.16271	 -0.05321	  1.26053	707.77301	 22.40	
 18.690	-74.137	  1.02556	  0.66054	  0.33151	 -0.05399	  1.17852	 -0.05368	  1.25684	707.71399	 22.40	
 18.696	-79.417	  1.02548	  0.60143	  0.38569	 -0.06531	  1.19438	 -0.05356	  1.25915	707.67200	 22.30	
 18.700	-84.691	  1.02623	  0.54229	  0.44153	 -0.07472	  1.20527	 -0.05327	  1.26332	707.70801	 22.30	
 18.700	-90.000	  1.02298	  0.48144	  0.50024	 -0.07560	  1.20515	 -0.05235	  1.25983	707.76001	 22.40	
 18.700	-95.309	  1.02285	  0.42180	  0.55912	 -0.07828	  1.20395	 -0.05973	  1.26248	707.59399	 22.40	
 18.696	-100.583	  1.01806	  0.36618	  0.61825	 -0.06904	  1.18814	 -0.05933	  1.25628	707.65601	 22.40	
 18.690	-105.863	  1.02258	  0.31460	  0.68060	 -0.06081	  1.17832	 -0.05904	  1.26199	707.74200	 22.30	
 18.707	-111.165	  1.01950	  0.26335	  0.73951	 -0.04686	  1.15480	 -0.06122	  1.25944	707.66302	 22.40	
 18.698	-116.504	  1.01989	  0.21483	  0.79788	 -0.03128	  1.12782	 -0.06255	  1.25895	707.67999	 22.40	
 18.700	-121.794	  1.01964	  0.17303	  0.85488	 -0.00719	  1.09498	 -0.06410	  1.25822	707.61798	 22.40	
 18.713	-127.067	  1.02114	  0.13129	  0.91033	  0.01645	  1.06002	 -0.06303	  1.26064	707.63300	 22.40	
 18.705	-132.343	  1.02339	  0.09950	  0.96256	  0.05064	  1.01767	 -0.06042	  1.26052	707.55103	 22.40	
 18.699	-137.625	  1.02005	  0.06726	  1.00618	  0.08436	  0.96678	 -0.06046	  1.25556	707.64203	 22.40	
 18.698	-142.952	  1.01850	  0.03763	  1.04740	  0.12219	  0.91498	 -0.06209	  1.25332	707.76501	 22.40	
 18.704	-148.255	  1.02108	  0.01210	  1.08882	  0.16483	  0.86253	 -0.05898	  1.25600	707.62097	 22.40	
 18.695	-153.537	  1.02566	 -0.00530	  1.12440	  0.21339	  0.80915	 -0.05782	  1.25861	707.74902	 22.40	
 18.706	-158.818	  1.02389	 -0.02419	  1.14793	  0.25953	  0.74883	 -0.05745	  1.25502	707.67700	 22.40	
 18.691	-164.085	  1.02762	 -0.03579	  1.17266	  0.31328	  0.69251	 -0.05407	  1.25750	707.78699	 22.40	
 18.703	-169.441	  1.02695	 -0.04246	  1.18577	  0.36874	  0.63080	 -0.05474	  1.25455	707.71198	 22.40	
 18.709	-174.675	  1.03317	 -0.04491	  1.19937	  0.42896	  0.57564	 -0.05257	  1.25855	707.80103	 22.40	
 18.700	180.000	  1.03519	 -0.04677	  1.20317	  0.48766	  0.51762	 -0.05270	  1.25786	707.69702	 22.40	
 20.400	180.000	  0.98469	 -0.12628	  1.22312	  0.44559	  0.47464	 -0.05097	  1.25580	707.71802	 22.40	
 20.401	-175.153	  0.98162	 -0.12813	  1.21995	  0.38526	  0.53132	 -0.05074	  1.25687	707.70001	 22.40	
 20.407	-170.264	  0.97731	 -0.12289	  1.20824	  0.32775	  0.58849	 -0.04782	  1.25354	707.64899	 22.40	
 20.410	-165.423	  0.97818	 -0.11817	  1.19790	  0.27134	  0.65024	 -0.05228	  1.25843	707.54303	 22.40	
 20.392	-160.496	  0.97517	 -0.10569	  1.17646	  0.21896	  0.70840	 -0.05305	  1.25647	707.64697	 22.40	
 20.401	-155.705	  0.97278	 -0.09185	  1.14946	  0.16937	  0.76520	 -0.05576	  1.25592	707.59698	 22.40	
 20.405	-150.835	  0.96861	 -0.07790	  1.11856	  0.11920	  0.82056	 -0.05687	  1.25370	707.55603	 22.40	
 20.397	-145.903	  0.97308	 -0.05263	  1.08484	  0.07824	  0.88086	 -0.06171	  1.25770	707.52301	 22.40	
 20.392	-141.062	  0.97298	 -0.02772	  1.04724	  0.03941	  0.93359	 -0.05742	  1.26068	707.63300	 22.40	
 20.396	-136.227	  0.96790	 -0.00051	  0.99795	  0.00173	  0.97974	 -0.06004	  1.25518	707.63599	 22.40	
 20.408	-131.372	  0.96722	  0.02895	  0.94975	 -0.03447	  1.02756	 -0.06343	  1.25749	707.54797	 22.40	
 20.410	-126.511	  0.96703	  0.06556	  0.89729	 -0.06262	  1.06896	 -0.06026	  1.25751	707.54797	 22.40	
 20.400	-121.604	  0.96514	  0.10557	  0.83976	 -0.08591	  1.10267	 -0.06333	  1.25362	707.59698	 22.40	
 20.403	-116.741	  0.96521	  0.14538	  0.78404	 -0.11029	  1.13701	 -0.05937	  1.25513	707.65002	 22.40	
 20.413	-111.900	  0.97139	  0.19362	  0.72967	 -0.12648	  1.17130	 -0.05894	  1.26231	707.56299	 22.40	
 20.398	-107.004	  0.96585	  0.24166	  0.66559	 -0.14043	  1.18648	 -0.05750	  1.25555	707.70801	 22.40	
 20.394	-102.132	  0.96615	  0.29270	  0.60355	 -0.15390	  1.20503	 -0.05520	  1.25692	707.58801	 22.40	
 20.403	-97.332	  0.96744	  0.34819	  0.54571	 -0.15630	  1.21498	 -0.05269	  1.25599	707.63599	 22.40	
 20.392	-92.440	  0.97136	  0.40709	  0.48670	 -0.16018	  1.22545	 -0.05126	  1.26015	707.69501	 22.40	
 20.392	-87.560	  0.97061	  0.46465	  0.42850	 -0.15763	  1.22259	 -0.05244	  1.25647	707.57898	 22.40	
 20.403	-82.668	  0.97056	  0.52386	  0.36905	 -0.15703	  1.22046	 -0.05048	  1.25836	707.66602	 22.40	
 20.394	-77.868	  0.97190	  0.58161	  0.31365	 -0.15080	  1.21103	 -0.05085	  1.25733	707.69202	 22.40	
 20.398	-72.996	  0.97558	  0.64697	  0.26281	 -0.13494	  1.19665	 -0.04983	  1.25915	707.75098	 22.40	
 20.413	-68.100	  0.97675	  0.70764	  0.21297	 -0.11766	  1.17416	 -0.04870	  1.25630	707.58502	 22.40	
 20.403	-63.259	  0.98069	  0.76886	  0.16620	 -0.09785	  1.14931	 -0.05072	  1.25878	707.67499	 22.40	
 20.400	-58.396	  0.98182	  0.82634	  0.12317	 -0.07426	  1.11745	 -0.04955	  1.25622	707.69501	 22.40	
 20.410	-53.489	  0.98470	  0.88276	  0.08153	 -0.04914	  1.08211	 -0.05364	  1.25679	707.73700	 22.40	
 20.408	-48.628	  0.98590	  0.93553	  0.04523	 -0.01788	  1.03969	 -0.04783	  1.25462	707.66302	 22.40	
 20.396	-43.773	  0.99114	  0.98695	  0.01354	  0.01643	  0.99695	 -0.04720	  1.25773	707.63599	 22.40	
 20.392	-38.938	  0.99653	  1.03675	 -0.01661	  0.05540	  0.95038	 -0.04922	  1.25939	707.71198	 22.40	
 20.397	-34.097	  0.99701	  1.07715	 -0.04242	  0.09520	  0.89720	 -0.04591	  1.25785	707.62097	 22.40	
 20.405	-29.165	  0.99642	  1.11196	 -0.06823	  0.13599	  0.84000	 -0.04631	  1.25485	707.68298	 22.40	
 20.401	-24.295	  0.99987	  1.14511	 -0.08523	  0.18635	  0.78296	 -0.04340	  1.25495	707.67700	 22.40	
 20.392	-19.504	  1.00789	  1.17699	 -0.09770	  0.23842	  0.73138	 -0.04599	  1.26155	707.63300	 22.40	
 20.410	-14.577	  1.00973	  1.19878	 -0.11125	  0.28993	  0.67116	 -0.04413	  1.26206	707.62799	 22.40	
 20.407	 -9.736	  1.00860	  1.21020	 -0.11969	  0.34565	  0.60864	 -0.04020	  1.25756	707.57001	 22.40	
 20.401	 -4.847	  1.01003	  1.21982	 -0.12302	  0.40329	  0.54992	 -0.03898	  1.25691	707.60400	 22.40	
 20.400	  0.000	  1.01189	  1.22591	 -0.12482	  0.46165	  0.49255	 -0.03624	  1.25849	707.60400	 22.40	
 20.401	  4.847	  1.01337	  1.22387	 -0.12151	  0.52297	  0.43514	 -0.03380	  1.25835	707.70300	 22.40	
 20.407	  9.736	  1.01657	  1.21968	 -0.11437	  0.58550	  0.38141	 -0.03399	  1.26005	707.76801	 22.40	
 20.410	 14.577	  1.01693	  1.20765	 -0.10618	  0.64572	  0.32735	 -0.03310	  1.25866	707.63300	 22.40	
 20.392	 19.504	  1.01743	  1.18970	 -0.09323	  0.70641	  0.27494	 -0.03515	  1.25735	707.69202	 22.40	
 20.401	 24.295	  1.01896	  1.16671	 -0.07482	  0.76722	  0.22858	 -0.03420	  1.25778	707.65002	 22.40	
 20.405	 29.165	  1.02292	  1.14064	 -0.05353	  0.82908	  0.18321	 -0.03843	  1.26073	707.55402	 22.40	
 20.397	 34.097	  1.02395	  1.10694	 -0.03072	  0.88590	  0.14011	 -0.03879	  1.26056	707.75098	 22.40	
 20.392	 38.938	  1.02473	  1.06943	 -0.00491	  0.93950	  0.10017	 -0.04212	  1.26112	707.64899	 22.40	
 20.396	 43.773	  1.02642	  1.02449	  0.02714	  0.99060	  0.06520	 -0.04376	  1.25979	707.67700	 22.40	
 20.408	 48.628	  1.02458	  0.97486	  0.06091	  1.03638	  0.03231	 -0.04246	  1.25851	707.52100	 22.40	
 20.410	 53.489	  1.02566	  0.92610	  0.09827	  1.07844	  0.00384	 -0.04228	  1.25815	707.57703	 22.40	
 20.400	 58.396	  1.02544	  0.87039	  0.13953	  1.11609	 -0.02131	 -0.04309	  1.25722	707.67700	 22.40	
 20.403	 63.259	  1.02361	  0.81110	  0.18573	  1.14485	 -0.04041	 -0.04086	  1.25302	707.57898	 22.40	
 20.413	 68.100	  1.02616	  0.75622	  0.23248	  1.17537	 -0.05897	 -0.04092	  1.25480	707.63202	 22.40	
 20.398	 72.996	  1.02669	  0.69648	  0.28439	  1.19686	 -0.07229	 -0.04014	  1.25579	707.52600	 22.40	
 20.394	 77.868	  1.02772	  0.63658	  0.33690	  1.21396	 -0.08340	 -0.04048	  1.25601	707.59601	 22.40	
 20.403	 82.668	  1.03027	  0.57984	  0.39393	  1.22770	 -0.08921	 -0.03908	  1.25991	707.63300	 22.40	
 20.392	 87.560	  1.02632	  0.51682	  0.44911	  1.22873	 -0.09364	 -0.04035	  1.25502	707.61902	 22.40	
 20.392	 92.440	  1.03321	  0.46120	  0.51237	  1.23737	 -0.09493	 -0.04229	  1.26397	707.69501	 22.40	
 20.403	 97.332	  1.02978	  0.40230	  0.57325	  1.23023	 -0.09107	 -0.03699	  1.26201	707.66901	 22.40	
 20.394	102.132	  1.02654	  0.34702	  0.62991	  1.21575	 -0.08397	 -0.03664	  1.25784	707.54901	 22.40	
 20.398	107.004	  1.02961	  0.29335	  0.69377	  1.20433	 -0.07521	 -0.03951	  1.26540	707.57397	 22.40	
 20.413	111.900	  1.02368	  0.24309	  0.75172	  1.17785	 -0.06086	 -0.03784	  1.26013	707.44702	 22.40	
 20.403	116.741	  1.02664	  0.19482	  0.81285	  1.15546	 -0.04600	 -0.04107	  1.26515	707.50000	 22.40	
 20.400	121.604	  1.01653	  0.14914	  0.86321	  1.11295	 -0.02515	 -0.04252	  1.25569	707.68402	 22.40	
 20.410	126.511	  1.01193	  0.10520	  0.91636	  1.07215	 -0.00238	 -0.04315	  1.25429	707.58197	 22.30	
 20.408	131.372	  1.01496	  0.06732	  0.97338	  1.03309	  0.02588	 -0.04759	  1.26117	707.60797	 22.30	
 20.396	136.227	  1.01283	  0.03382	  1.01973	  0.98548	  0.05725	 -0.04698	  1.26036	707.48999	 22.30	
 20.392	141.062	  1.01060	  0.00229	  1.06349	  0.93319	  0.09221	 -0.04539	  1.25974	707.53101	 22.30	
 20.397	145.903	  1.00970	 -0.02487	  1.10457	  0.88099	  0.12951	 -0.04421	  1.26240	707.53998	 22.30	
 20.405	150.835	  1.00434	 -0.04981	  1.13606	  0.81889	  0.17154	 -0.04740	  1.25943	707.61102	 22.30	
 20.401	155.705	  1.00229	 -0.07059	  1.16474	  0.75883	  0.21573	 -0.05017	  1.25915	707.43298	 22.30	
 20.392	160.496	  0.99997	 -0.08939	  1.18957	  0.69925	  0.26160	 -0.04796	  1.26136	707.54303	 22.30	
 20.410	165.423	  0.99536	 -0.10643	  1.20747	  0.63394	  0.31126	 -0.04856	  1.26016	707.52100	 22.30	
 20.407	170.264	  0.99072	 -0.11423	  1.21556	  0.57069	  0.36444	 -0.05005	  1.25635	707.46997	 22.30	
 20.401	175.153	  0.98732	 -0.12145	  1.22183	  0.50828	  0.41823	 -0.04792	  1.25598	707.55603	 22.30	
  0.141	 45.000	  1.26823	  0.71226	  0.71055	  0.70231	  0.72683	  0.00988	  1.25823	707.56299	 22.30	
  4.001	128.691	  1.26730	  0.60776	  0.78296	  0.79073	  0.60716	  0.00554	  1.25953	707.65503	 22.30	
  4.002	 76.995	  1.27023	  0.72361	  0.66461	  0.82253	  0.58527	  0.00510	  1.26099	707.50702	 22.30	
  4.002	 25.892	  1.26412	  0.81769	  0.57216	  0.73939	  0.64942	  0.00323	  1.25684	707.53998	 22.30	
  4.002	-25.892	  1.26415	  0.81732	  0.56992	  0.61528	  0.77245	  0.00114	  1.25887	707.61902	 22.30	
  4.002	-76.995	  1.26027	  0.71298	  0.65903	  0.54248	  0.84903	 -0.00203	  1.25801	707.61902	 22.30	
  4.001	-128.691	  1.26412	  0.60028	  0.78284	  0.57012	  0.82152	  0.00117	  1.26252	707.72900	 22.30	
  4.000	180.000	  1.26636	  0.55621	  0.83979	  0.67498	  0.71001	  0.00369	  1.26211	707.66699	 22.30	
  8.000	180.000	  1.23409	  0.38679	  0.96587	  0.64068	  0.67753	 -0.00924	  1.25822	707.54303	 22.30	
  7.991	-152.370	  1.23358	  0.41233	  0.93198	  0.51040	  0.81403	 -0.01298	  1.26188	707.69202	 22.30	
  7.997	-124.550	  1.22909	  0.49289	  0.82917	  0.41295	  0.92314	 -0.01693	  1.25847	707.64398	 22.30	
  8.006	-96.837	  1.23215	  0.61511	  0.69610	  0.36946	  0.98025	 -0.02253	  1.26280	707.53998	 22.30	
  7.988	-69.228	  1.23292	  0.75480	  0.56028	  0.38742	  0.96217	 -0.02450	  1.25964	707.49799	 22.30	
  7.997	-41.563	  1.24123	  0.88221	  0.45537	  0.46144	  0.88326	 -0.01940	  1.26434	707.62701	 22.30	
  8.008	-13.821	  1.24125	  0.95387	  0.39656	  0.58012	  0.75219	 -0.01475	  1.25889	707.62097	 22.30	
  8.008	 13.821	  1.24441	  0.95742	  0.39870	  0.72280	  0.61471	 -0.01335	  1.25938	707.62701	 22.30	
  7.997	 41.563	  1.24957	  0.89178	  0.46000	  0.85524	  0.50285	 -0.00879	  1.26068	707.65503	 22.30	
  7.988	 69.228	  1.25772	  0.77653	  0.56919	  0.94482	  0.43536	 -0.01207	  1.26709	707.55902	 22.30	
  8.006	 96.837	  1.25539	  0.63566	  0.70534	  0.96172	  0.42013	 -0.01068	  1.26584	707.58698	 22.30	
  7.997	124.550	  1.24655	  0.50692	  0.83643	  0.90204	  0.45761	 -0.01023	  1.26096	707.60400	 22.30	
  7.991	152.370	  1.24250	  0.42133	  0.93571	  0.78662	  0.55103	 -0.01053	  1.26136	707.44897	 22.30	
 12.009	161.059	  1.18744	  0.23998	  1.05484	  0.74382	  0.49612	 -0.02919	  1.26080	707.51703	 22.30	
 12.013	142.081	  1.19232	  0.30036	  0.98182	  0.88451	  0.38155	 -0.02867	  1.26082	707.55603	 22.20	
 12.006	123.113	  1.19675	  0.39674	  0.86691	  0.99264	  0.30068	 -0.03086	  1.25897	707.48700	 22.20	
 12.007	104.200	  1.20194	  0.51833	  0.73087	  1.05876	  0.25324	 -0.03386	  1.26095	707.60999	 22.30	
 11.989	 85.301	  1.20563	  0.66178	  0.58649	  1.07368	  0.24680	 -0.03170	  1.26158	707.60498	 22.30	
 12.013	 66.294	  1.20978	  0.80813	  0.45461	  1.03983	  0.27682	 -0.03052	  1.26560	707.61102	 22.30	
 12.012	 47.388	  1.20415	  0.93170	  0.34304	  0.94849	  0.34264	 -0.02888	  1.26182	707.52899	 22.30	
 11.990	 28.440	  1.19857	  1.02150	  0.26470	  0.82377	  0.44086	 -0.03115	  1.25875	707.68903	 22.30	
 11.991	  9.464	  1.19992	  1.07262	  0.22518	  0.68185	  0.56907	 -0.03583	  1.26358	707.66400	 22.30	
 11.991	 -9.464	  1.19432	  1.06684	  0.22344	  0.53462	  0.70882	 -0.03582	  1.26191	707.64099	 22.30	
 11.990	-28.440	  1.18863	  1.01172	  0.26131	  0.40188	  0.84959	 -0.03874	  1.26099	707.55103	 22.30	
 12.012	-47.388	  1.18255	  0.91163	  0.33589	  0.29780	  0.96728	 -0.04451	  1.26056	707.54602	 22.30	
 12.013	-66.294	  1.17686	  0.77907	  0.44208	  0.22581	  1.05007	 -0.04804	  1.26028	707.63898	 22.30	
 11.989	-85.301	  1.17264	  0.63444	  0.57556	  0.19663	  1.08405	 -0.04769	  1.25862	707.62799	 22.30	
 12.007	-104.200	  1.17392	  0.49387	  0.72051	  0.20206	  1.07290	 -0.04872	  1.26280	707.46698	 22.30	
 12.006	-123.113	  1.17551	  0.37583	  0.86053	  0.25159	  1.01117	 -0.04263	  1.26475	707.63599	 22.30	
 12.013	-142.081	  1.17294	  0.28429	  0.97334	  0.33527	  0.90259	 -0.03710	  1.26024	707.62799	 22.30	
 12.009	-161.059	  1.17399	  0.22923	  1.04844	  0.45224	  0.76797	 -0.03624	  1.25768	707.60999	 22.30	
 16.000	180.000	  1.10296	  0.06051	  1.16096	  0.53779	  0.56894	 -0.05265	  1.25971	707.68298	 22.30	
 15.990	-165.604	  1.09819	  0.06747	  1.14113	  0.39627	  0.70851	 -0.05415	  1.26089	707.63202	 22.30	
 16.002	-151.165	  1.09181	  0.10616	  1.07830	  0.27504	  0.84353	 -0.05811	  1.25809	707.60400	 22.30	
 16.002	-136.836	  1.09161	  0.17401	  0.98673	  0.18096	  0.96713	 -0.05922	  1.25899	707.66699	 22.30	
 15.995	-122.439	  1.08976	  0.25747	  0.86530	  0.09974	  1.06699	 -0.06263	  1.26000	707.59601	 22.30	
 15.993	-107.966	  1.08877	  0.36871	  0.72975	  0.05396	  1.13217	 -0.06448	  1.25766	707.64697	 22.30	
 16.005	-93.629	  1.08904	  0.49832	  0.58535	  0.03149	  1.16373	 -0.06141	  1.25795	707.54303	 22.30	
 15.992	-79.234	  1.09529	  0.64270	  0.45114	  0.04326	  1.15986	 -0.06091	  1.26109	707.55902	 22.30	
 16.009	-64.774	  1.09447	  0.78250	  0.32371	  0.07843	  1.10923	 -0.05646	  1.25522	707.55902	 22.30	
 15.997	-50.364	  1.10075	  0.91535	  0.22278	  0.14504	  1.02848	 -0.05665	  1.25509	707.53101	 22.30	
 15.997	-36.045	  1.11459	  1.03338	  0.14011	  0.23147	  0.92600	 -0.05605	  1.26512	707.41302	 22.30	
 16.000	-21.597	  1.11738	  1.11172	  0.08734	  0.34641	  0.79267	 -0.05045	  1.26198	707.54901	 22.30	
 16.003	 -7.169	  1.11659	  1.14974	  0.06175	  0.47833	  0.64778	 -0.04638	  1.25561	707.53198	 22.30	
 16.003	  7.169	  1.12209	  1.15465	  0.06643	  0.62183	  0.51256	 -0.04573	  1.25662	707.52502	 22.30	
 16.000	 21.597	  1.12692	  1.12336	  0.09130	  0.76693	  0.38460	 -0.04806	  1.25989	707.46399	 22.30	
 15.997	 36.045	  1.12975	  1.04990	  0.15093	  0.90357	  0.27727	 -0.04580	  1.25917	707.61603	 22.30	
 15.997	 50.364	  1.13246	  0.94680	  0.22905	  1.01962	  0.18763	 -0.04677	  1.26034	707.55701	 22.30	
 16.009	 64.774	  1.13301	  0.81799	  0.33374	  1.10322	  0.12572	 -0.04892	  1.25838	707.37701	 22.30	
 15.992	 79.234	  1.13938	  0.67986	  0.46226	  1.15858	  0.09075	 -0.04795	  1.26551	707.48602	 22.20	
 16.005	 93.629	  1.13460	  0.53545	  0.60023	  1.16347	  0.08363	 -0.05103	  1.26146	707.64099	 22.20	
 15.993	107.966	  1.13143	  0.40579	  0.74401	  1.13231	  0.10790	 -0.04839	  1.26033	707.46997	 22.30	
 15.995	122.439	  1.12861	  0.28622	  0.88288	  1.06496	  0.15114	 -0.04973	  1.26355	707.56201	 22.30	
 16.002	136.836	  1.11717	  0.18680	  0.99780	  0.95704	  0.21943	 -0.04803	  1.25740	707.59302	 22.30	
 16.002	151.165	  1.11414	  0.11613	  1.08982	  0.83009	  0.31388	 -0.04881	  1.26020	707.57703	 22.30	
 15.990	165.604	  1.10805	  0.08103	  1.14282	  0.68494	  0.43851	 -0.05037	  1.25769	707.53101	 22.30	
 20.003	168.362	  1.00627	 -0.09072	  1.20865	  0.60343	  0.35727	 -0.05269	  1.25844	707.42999	 22.30	
 20.008	156.764	  1.01062	 -0.05720	  1.16492	  0.74877	  0.23918	 -0.04639	  1.25763	707.46997	 22.30	
 20.000	145.147	  1.01925	 -0.00251	  1.09359	  0.88826	  0.13960	 -0.04478	  1.25918	707.53998	 22.30	
 19.995	133.545	  1.02496	  0.06832	  0.99282	  1.00980	  0.05682	 -0.04730	  1.26002	707.61603	 22.30	
 20.009	121.926	  1.03155	  0.16230	  0.87242	  1.11088	 -0.00519	 -0.04444	  1.26095	707.56201	 22.30	
 20.005	110.327	  1.03525	  0.27276	  0.73670	  1.18086	 -0.04735	 -0.03886	  1.25966	707.63300	 22.30	
 19.989	 98.733	  1.03860	  0.39740	  0.59535	  1.21698	 -0.06915	 -0.04136	  1.25809	707.61902	 22.30	
 19.999	 87.075	  1.04390	  0.53542	  0.45753	  1.22897	 -0.07338	 -0.04278	  1.26215	707.52600	 22.30	
 19.992	 75.457	  1.04355	  0.67525	  0.32576	  1.20491	 -0.05866	 -0.04499	  1.26111	707.49402	 22.30	
 20.009	 63.844	  1.04067	  0.81179	  0.20588	  1.15140	 -0.02675	 -0.04283	  1.26063	707.58002	 22.30	
 19.989	 52.269	  1.03851	  0.94014	  0.10673	  1.06684	  0.03054	 -0.04399	  1.25972	707.67999	 22.30	
 19.999	 40.602	  1.03656	  1.05186	  0.02561	  0.95680	  0.10664	 -0.04225	  1.25940	707.57397	 22.30	
 20.004	 29.051	  1.03157	  1.13634	 -0.03849	  0.82739	  0.19825	 -0.03854	  1.25955	707.60400	 22.30	
 20.005	 17.433	  1.03083	  1.19491	 -0.07818	  0.68956	  0.31078	 -0.03528	  1.26045	707.71503	 22.30	
 20.006	  5.780	  1.02617	  1.22036	 -0.10165	  0.54346	  0.43618	 -0.03429	  1.25955	707.60999	 22.30	
 20.006	 -5.780	  1.02193	  1.21518	 -0.10385	  0.40339	  0.57018	 -0.03800	  1.25787	707.52899	 22.30	
 20.005	-17.433	  1.01860	  1.18140	 -0.08599	  0.27287	  0.71015	 -0.04307	  1.26006	707.56299	 22.30	
 20.004	-29.051	  1.01341	  1.11669	 -0.04995	  0.15451	  0.84590	 -0.04654	  1.26087	707.64203	 22.30	
 19.999	-40.602	  1.00704	  1.02093	  0.00970	  0.05712	  0.96829	 -0.04759	  1.25992	707.62500	 22.30	
 19.989	-52.269	  1.00248	  0.90214	  0.09095	 -0.02186	  1.07514	 -0.05274	  1.26153	707.62799	 22.30	
 20.009	-63.844	  0.99347	  0.76788	  0.18703	 -0.08001	  1.15009	 -0.04931	  1.25674	707.59003	 22.30	
 19.992	-75.457	  0.98953	  0.62497	  0.30432	 -0.11998	  1.20152	 -0.04967	  1.25917	707.54797	 22.30	
 19.999	-87.075	  0.98707	  0.48470	  0.43570	 -0.13525	  1.22195	 -0.04847	  1.26031	707.55103	 22.30	
 19.989	-98.733	  0.98610	  0.34767	  0.57538	 -0.13484	  1.21460	 -0.05527	  1.26176	707.55603	 22.30	
 20.005	-110.327	  0.98080	  0.22496	  0.71263	 -0.11103	  1.17219	 -0.05807	  1.25693	707.40802	 22.30	
 20.009	-121.926	  0.98506	  0.12141	  0.85290	 -0.06592	  1.10824	 -0.05937	  1.26167	707.50897	 22.30	
 19.995	-133.545	  0.98500	  0.03417	  0.97643	  0.00032	  1.01074	 -0.06106	  1.26145	707.58197	 22.30	
 20.000	-145.147	  0.98860	 -0.02895	  1.08082	  0.09046	  0.89458	 -0.05980	  1.26147	707.65503	 22.30	
 20.008	-156.764	  0.98494	 -0.07564	  1.15155	  0.19516	  0.75770	 -0.05447	  1.25395	707.68402	 22.30	
 20.003	-168.362	  0.99190	 -0.10036	  1.20110	  0.32007	  0.62186	 -0.04901	  1.25592	707.62402	 22.30	
 20.000	180.000	  0.99954	 -0.10654	  1.22048	  0.45665	  0.48693	 -0.05313	  1.25888	707.55103	 22.30	
