FileType=PCF
NHL=14
Date=08/25/17	18:31:52
Facility=APL
Serial=16328-7
Customer=NASA
NP=6
Mach=0.200000
Calibration=1:1
CalPts=490
TstPts=95
PortNumbering=AP Standard
Units=Torr C m/s kg/m^3 deg mm 
Theta[deg]	Phi[deg]	P1[Torr]	P2[Torr]	P3[Torr]	P4[Torr]	P5[Torr]	P6[Torr]	Pt[Torr]	Ps[Abs,Torr]	Ts[C]	
  0.000	  0.000	 19.48420	 10.48531	 10.50837	 10.21336	 10.71941	  0.15773	 19.45714	708.50598	 25.30	
  1.691	128.401	 19.45487	  9.86843	 11.05704	 10.93630	  9.92415	  0.15920	 19.42827	708.53900	 25.30	
  1.692	 77.194	 19.48608	 10.68609	 10.26503	 11.18176	  9.74901	  0.15455	 19.45929	708.62097	 25.30	
  1.699	 26.182	 19.48685	 11.32822	  9.59603	 10.65888	 10.25116	  0.14793	 19.45655	708.60999	 25.30	
  1.699	-26.182	 19.47741	 11.30066	  9.60332	  9.76210	 11.11495	  0.14591	 19.44683	708.48901	 25.30	
  1.692	-77.194	 19.50586	 10.66768	 10.28354	  9.23906	 11.65922	  0.13616	 19.48751	708.47400	 25.30	
  1.691	-128.401	 19.45957	  9.82914	 11.08498	  9.37920	 11.45175	  0.14429	 19.45144	708.46600	 25.30	
  1.700	180.000	 19.48139	  9.54329	 11.46607	 10.14814	 10.70553	  0.15553	 19.45727	708.45099	 25.30	
  3.400	180.000	 19.43120	  8.59199	 12.39881	 10.02903	 10.60816	  0.11933	 19.44670	708.58197	 25.30	
  3.388	-152.325	 19.41719	  8.76346	 12.16799	  9.14410	 11.50833	  0.10932	 19.45268	708.51300	 25.30	
  3.397	-124.529	 19.44959	  9.30775	 11.54150	  8.49970	 12.25376	  0.08613	 19.47939	708.62903	 25.30	
  3.399	-96.763	 19.41517	 10.09047	 10.62030	  8.18024	 12.56730	  0.07014	 19.44977	708.55103	 25.20	
  3.394	-69.283	 19.42452	 11.00105	  9.70541	  8.31594	 12.45337	  0.07842	 19.44687	708.46899	 25.30	
  3.400	-41.398	 19.46573	 11.80456	  8.97743	  8.87540	 11.91256	  0.08940	 19.47490	708.56097	 25.30	
  3.401	-14.021	 19.44924	 12.25735	  8.55762	  9.66315	 11.07594	  0.09943	 19.44946	708.57202	 25.30	
  3.401	 14.021	 19.46073	 12.27605	  8.54242	 10.62795	 10.12765	  0.10601	 19.44910	708.42603	 25.30	
  3.400	 41.398	 19.46582	 11.84311	  8.95600	 11.47657	  9.33788	  0.11224	 19.45881	708.49902	 25.30	
  3.394	 69.283	 19.47925	 11.09666	  9.70718	 12.01975	  8.84580	  0.11068	 19.47342	708.43500	 25.30	
  3.399	 96.763	 19.45897	 10.18393	 10.61100	 12.10527	  8.73592	  0.11929	 19.45250	708.53900	 25.30	
  3.397	124.529	 19.47650	  9.41117	 11.52644	 11.75349	  9.06447	  0.11894	 19.48271	708.49902	 25.30	
  3.388	152.325	 19.45138	  8.83246	 12.15982	 10.98275	  9.72670	  0.12237	 19.46816	708.47699	 25.30	
  5.099	161.165	 19.35216	  7.74982	 13.15186	 10.87661	  9.51155	  0.05928	 19.47636	708.42297	 25.30	
  5.109	142.013	 19.34984	  8.17095	 12.65276	 11.78249	  8.69858	  0.01743	 19.45855	708.69299	 25.30	
  5.095	123.033	 19.38267	  8.84372	 11.90991	 12.49571	  8.11695	  0.04780	 19.47199	708.56403	 25.30	
  5.105	104.191	 19.39068	  9.65502	 10.98859	 12.95488	  7.75400	  0.04903	 19.47203	708.66901	 25.30	
  5.093	 85.207	 19.39269	 10.53348	  9.99927	 13.03306	  7.69107	  0.00852	 19.45359	708.59497	 25.30	
  5.104	 66.290	 19.41506	 11.48185	  9.07385	 12.82004	  7.90979	  0.04380	 19.48473	708.63800	 25.30	
  5.094	 47.331	 19.37315	 12.25023	  8.31953	 12.25688	  8.36450	  0.00795	 19.43668	708.58197	 25.30	
  5.089	 28.397	 19.38296	 12.87222	  7.75954	 11.47166	  9.09360	  0.00170	 19.44532	708.58197	 25.30	
  5.096	  9.576	 19.38274	 13.19719	  7.45773	 10.54282	  9.96146	  0.00311	 19.45967	708.63098	 25.30	
  5.096	 -9.576	 19.36756	 13.19022	  7.46768	  9.52490	 10.95028	  0.01871	 19.45725	708.51300	 25.30	
  5.089	-28.397	 19.36790	 12.82981	  7.77790	  8.64337	 11.87525	 -0.03166	 19.46968	708.60699	 25.30	
  5.094	-47.331	 19.32036	 12.17181	  8.31320	  7.87591	 12.65504	 -0.05119	 19.43546	708.59497	 25.30	
  5.104	-66.290	 19.30510	 11.31087	  9.09161	  7.33592	 13.23301	 -0.06746	 19.44502	708.73901	 25.30	
  5.093	-85.207	 19.31860	 10.40236	  9.99887	  7.08836	 13.50147	 -0.06034	 19.47098	708.53601	 25.30	
  5.105	-104.191	 19.29259	  9.47952	 10.97768	  7.12180	 13.41766	 -0.05876	 19.45947	708.59198	 25.30	
  5.095	-123.033	 19.28187	  8.71131	 11.88062	  7.49003	 12.98890	 -0.03913	 19.44636	708.56201	 25.30	
  5.109	-142.013	 19.25841	  8.07277	 12.63492	  8.07340	 12.27638	 -0.00967	 19.42895	708.62402	 25.30	
  5.099	-161.165	 19.29811	  7.69783	 13.13142	  8.91799	 11.41447	 -0.00139	 19.45758	708.61298	 25.30	
  5.100	180.000	 19.28040	  7.55145	 13.28631	  9.83365	 10.43738	  0.04994	 19.42416	708.54797	 25.30	
  6.800	180.000	 19.10910	  6.47445	 14.17178	  9.60300	 10.22657	 -0.04172	 19.45194	708.57001	 25.30	
  6.796	-166.229	 19.09025	  6.53462	 14.04929	  8.68148	 11.15802	 -0.10846	 19.44882	708.66199	 25.30	
  6.808	-152.311	 19.09553	  6.82886	 13.69368	  7.81828	 12.09578	 -0.12149	 19.46021	708.56201	 25.30	
  6.795	-138.383	 19.08132	  7.28791	 13.10379	  7.07029	 12.92444	 -0.12701	 19.45163	708.68201	 25.30	
  6.792	-124.591	 19.05081	  7.89947	 12.32706	  6.48527	 13.59609	 -0.16302	 19.43024	708.75500	 25.30	
  6.787	-110.754	 19.07169	  8.65825	 11.46342	  6.12116	 14.07604	 -0.18689	 19.44162	708.63702	 25.30	
  6.800	-96.985	 19.11389	  9.46902	 10.54217	  5.95069	 14.34600	 -0.21089	 19.48338	708.76599	 25.30	
  6.800	-83.015	 19.09862	 10.37342	  9.56749	  5.96982	 14.33198	 -0.20621	 19.45524	708.76202	 25.30	
  6.787	-69.246	 19.11452	 11.32497	  8.67152	  6.20018	 14.08509	 -0.22302	 19.45439	708.72400	 25.30	
  6.792	-55.409	 19.12475	 12.20137	  7.86259	  6.61748	 13.61518	 -0.20525	 19.44000	708.70300	 25.30	
  6.795	-41.617	 19.14603	 12.96782	  7.19834	  7.22734	 12.95075	 -0.17487	 19.43990	708.67200	 25.30	
  6.808	-27.689	 19.18934	 13.58028	  6.71125	  8.01399	 12.13340	 -0.16593	 19.46136	708.68799	 25.30	
  6.796	-13.771	 19.21821	 13.96859	  6.40529	  8.90227	 11.22484	 -0.13451	 19.46992	708.78101	 25.30	
  6.800	  0.000	 19.21509	 14.09676	  6.29683	  9.83515	 10.26931	 -0.12276	 19.45781	708.77301	 25.30	
  6.796	 13.771	 19.22071	 14.00001	  6.38822	 10.80803	  9.33585	 -0.11712	 19.45274	708.73102	 25.30	
  6.808	 27.689	 19.23168	 13.65613	  6.69566	 11.73973	  8.47823	 -0.11777	 19.45239	708.73901	 25.20	
  6.795	 41.617	 19.23107	 13.08239	  7.19450	 12.55009	  7.75598	 -0.11352	 19.44562	708.51599	 25.30	
  6.792	 55.409	 19.22934	 12.34060	  7.84929	 13.21698	  7.17523	 -0.10755	 19.43789	708.63098	 25.30	
  6.787	 69.246	 19.24123	 11.47449	  8.66786	 13.68640	  6.78444	 -0.10815	 19.44944	708.67999	 25.30	
  6.800	 83.015	 19.24982	 10.57738	  9.56107	 13.92420	  6.56651	 -0.12127	 19.45997	708.76202	 25.30	
  6.800	 96.985	 19.22468	  9.67791	 10.52801	 13.88975	  6.58114	 -0.13190	 19.44665	708.70801	 25.30	
  6.787	110.754	 19.23319	  8.86449	 11.47176	 13.64062	  6.78931	 -0.12298	 19.46662	708.63800	 25.30	
  6.792	124.591	 19.20812	  8.08087	 12.35346	 13.12767	  7.18359	 -0.09630	 19.46496	708.80298	 25.30	
  6.795	138.383	 19.14834	  7.42222	 13.07234	 12.40093	  7.72758	 -0.10230	 19.42537	708.64899	 25.30	
  6.808	152.311	 19.17974	  6.92628	 13.70051	 11.58203	  8.47037	 -0.07155	 19.48193	708.73602	 25.30	
  6.796	166.229	 19.14314	  6.60539	 14.05589	 10.61585	  9.30742	 -0.08369	 19.45989	708.75201	 25.30	
  8.491	168.704	 18.87463	  5.42432	 14.87694	 10.34972	  9.01071	 -0.22200	 19.46706	708.65802	 25.30	
  8.502	157.493	 18.87704	  5.68592	 14.56567	 11.32792	  8.11838	 -0.23217	 19.44669	708.69702	 25.30	
  8.494	146.194	 18.90911	  6.11166	 14.07357	 12.26599	  7.33290	 -0.24140	 19.45307	708.69299	 25.30	
  8.495	135.039	 18.91621	  6.66211	 13.40958	 13.09342	  6.65356	 -0.23849	 19.43328	708.75000	 25.30	
  8.487	123.723	 18.93071	  7.36537	 12.59623	 13.78524	  6.10250	 -0.26543	 19.42740	708.76703	 25.30	
  8.492	112.575	 18.96919	  8.14993	 11.71534	 14.30795	  5.70965	 -0.28499	 19.43450	708.78998	 25.30	
  8.510	101.220	 19.00925	  9.03401	 10.76378	 14.66084	  5.47177	 -0.29292	 19.46374	708.68799	 25.30	
  8.500	 90.000	 19.01344	  9.89015	  9.78914	 14.75284	  5.42005	 -0.28283	 19.45321	708.71600	 25.30	
  8.510	 78.780	 19.04794	 10.83328	  8.84004	 14.69757	  5.49643	 -0.27225	 19.47693	708.75598	 25.30	
  8.492	 67.425	 19.01226	 11.75253	  7.92748	 14.37501	  5.75013	 -0.26034	 19.43784	708.78400	 25.30	
  8.487	 56.277	 19.01274	 12.62823	  7.13423	 13.90199	  6.14631	 -0.25219	 19.44630	708.72699	 25.30	
  8.495	 44.961	 19.00997	 13.42023	  6.42745	 13.25506	  6.69573	 -0.25376	 19.45231	708.68903	 25.30	
  8.494	 33.806	 19.00890	 14.06005	  5.88491	 12.46338	  7.38348	 -0.27204	 19.45198	708.77502	 25.30	
  8.502	 22.507	 19.00270	 14.54461	  5.46827	 11.57082	  8.18510	 -0.29078	 19.46276	708.67102	 25.30	
  8.491	 11.296	 18.99183	 14.82338	  5.22894	 10.61359	  9.07462	 -0.27871	 19.45770	708.85400	 25.30	
  8.500	  0.000	 18.98605	 14.91588	  5.14541	  9.61113	 10.04794	 -0.28719	 19.46063	708.75500	 25.30	
  8.491	-11.296	 18.96194	 14.77662	  5.24073	  8.63019	 11.01166	 -0.30049	 19.44762	708.81500	 25.30	
  8.502	-22.507	 18.95179	 14.47575	  5.48249	  7.72233	 11.95658	 -0.31683	 19.46012	708.65100	 25.30	
  8.494	-33.806	 18.92883	 13.96476	  5.89972	  6.88739	 12.85156	 -0.33160	 19.45367	708.78699	 25.30	
  8.495	-44.961	 18.87842	 13.28363	  6.43395	  6.15913	 13.62287	 -0.35720	 19.43237	708.88501	 25.30	
  8.487	-56.277	 18.87056	 12.48197	  7.14323	  5.59911	 14.26996	 -0.39076	 19.44337	709.01099	 25.30	
  8.492	-67.425	 18.84827	 11.59598	  7.94340	  5.17386	 14.74471	 -0.41729	 19.44721	708.96997	 25.30	
  8.510	-78.780	 18.79513	 10.60057	  8.82967	  4.87519	 15.03892	 -0.42188	 19.42069	708.97601	 25.30	
  8.500	-90.000	 18.78256	  9.61978	  9.78444	  4.77364	 15.13992	 -0.41806	 19.42319	709.03198	 25.30	
  8.510	-101.220	 18.78444	  8.75959	 10.75537	  4.80803	 15.06244	 -0.39245	 19.43978	708.98602	 25.30	
  8.492	-112.575	 18.78918	  7.92568	 11.72093	  5.03888	 14.75030	 -0.35782	 19.45511	708.87701	 25.30	
  8.487	-123.723	 18.80109	  7.17785	 12.61819	  5.41901	 14.26210	 -0.32955	 19.46347	709.07703	 25.30	
  8.495	-135.039	 18.77902	  6.49790	 13.40512	  5.93885	 13.59401	 -0.29159	 19.44390	708.78699	 25.30	
  8.494	-146.194	 18.76219	  5.97379	 14.04611	  6.61988	 12.77511	 -0.27606	 19.41995	708.71301	 25.30	
  8.502	-157.493	 18.80837	  5.59597	 14.57551	  7.45855	 11.88156	 -0.28238	 19.46749	708.93903	 25.30	
  8.491	-168.704	 18.83692	  5.37796	 14.87949	  8.36416	 10.94376	 -0.27290	 19.47095	708.94098	 25.30	
  8.500	180.000	 18.85392	  5.31212	 14.98547	  9.33021	  9.97497	 -0.19426	 19.47744	708.93799	 25.30	
 10.200	180.000	 18.48399	  4.10811	 15.70013	  9.02107	  9.66986	 -0.39317	 19.43871	708.86798	 25.30	
 10.191	-170.497	 18.47998	  4.14799	 15.63227	  8.04727	 10.64473	 -0.42881	 19.45299	708.76599	 25.30	
 10.210	-161.034	 18.41982	  4.28263	 15.34966	  7.09059	 11.58382	 -0.44111	 19.41969	708.86902	 25.30	
 10.194	-151.526	 18.44189	  4.63116	 14.94581	  6.22933	 12.55179	 -0.44433	 19.45035	708.88000	 25.30	
 10.190	-142.105	 18.46178	  5.10583	 14.38725	  5.47799	 13.43414	 -0.42759	 19.47535	708.85699	 25.30	
 10.215	-132.646	 18.43554	  5.66050	 13.67152	  4.82473	 14.19493	 -0.44486	 19.46338	708.94702	 25.30	
 10.203	-123.092	 18.40021	  6.35064	 12.81031	  4.29653	 14.82371	 -0.49091	 19.42733	709.01801	 25.30	
 10.192	-113.678	 18.41954	  7.14127	 11.91373	  3.92201	 15.34970	 -0.52648	 19.43926	708.88300	 25.30	
 10.208	-104.249	 18.43974	  7.98737	 10.96589	  3.66838	 15.72989	 -0.56903	 19.46080	708.88000	 25.30	
 10.210	-94.801	 18.44936	  8.87381	  9.98608	  3.56273	 15.91332	 -0.60481	 19.45630	708.83801	 25.30	
 10.210	-85.199	 18.44535	  9.81077	  8.98850	  3.59718	 15.90275	 -0.62887	 19.44302	709.01801	 25.30	
 10.208	-75.751	 18.48162	 10.80895	  8.06273	  3.75973	 15.74795	 -0.63364	 19.46750	708.96100	 25.30	
 10.192	-66.322	 18.50099	 11.78214	  7.18511	  4.06299	 15.39539	 -0.62078	 19.44772	708.89398	 25.30	
 10.203	-56.908	 18.51803	 12.68954	  6.37194	  4.49433	 14.89611	 -0.58901	 19.44271	708.88000	 25.30	
 10.215	-47.354	 18.57300	 13.54825	  5.65870	  5.06472	 14.26733	 -0.54836	 19.46417	708.87402	 25.30	
 10.190	-37.895	 18.58663	 14.24865	  5.07105	  5.73961	 13.49643	 -0.50903	 19.44873	709.02802	 25.30	
 10.194	-28.474	 18.64070	 14.86018	  4.60815	  6.52604	 12.66041	 -0.48635	 19.47772	708.96997	 25.30	
 10.210	-18.966	 18.65092	 15.31011	  4.23873	  7.39577	 11.71196	 -0.47803	 19.47482	709.06299	 25.30	
 10.191	 -9.503	 18.64585	 15.55518	  4.04308	  8.33275	 10.73161	 -0.45101	 19.44611	708.83502	 25.30	
 10.200	  0.000	 18.66885	 15.66845	  3.96230	  9.31779	  9.75114	 -0.45291	 19.45072	709.00598	 25.30	
 10.191	  9.503	 18.67938	 15.60226	  4.02583	 10.33696	  8.78448	 -0.45432	 19.46256	709.14203	 25.30	
 10.210	 18.966	 18.70392	 15.38969	  4.21524	 11.33085	  7.87932	 -0.47520	 19.47455	708.95203	 25.30	
 10.194	 28.474	 18.70764	 14.96349	  4.57055	 12.26783	  7.02908	 -0.46219	 19.47106	708.89899	 25.30	
 10.190	 37.895	 18.70930	 14.39376	  5.04048	 13.14094	  6.25656	 -0.44149	 19.46098	708.93103	 25.30	
 10.215	 47.354	 18.72690	 13.70474	  5.62565	 13.91681	  5.59766	 -0.40658	 19.47014	708.86798	 25.30	
 10.203	 56.908	 18.72532	 12.88531	  6.34178	 14.54838	  5.07215	 -0.41168	 19.45554	708.89301	 25.30	
 10.192	 66.322	 18.72695	 11.97926	  7.15685	 15.02702	  4.67728	 -0.41973	 19.44887	709.02502	 25.30	
 10.208	 75.751	 18.73891	 11.04289	  8.03403	 15.38402	  4.38550	 -0.44714	 19.46941	708.96698	 25.30	
 10.210	 85.199	 18.73498	 10.08654	  8.98013	 15.53932	  4.25704	 -0.46767	 19.46594	708.98401	 25.30	
 10.210	 94.801	 18.71086	  9.19155	  9.97340	 15.50754	  4.24503	 -0.48987	 19.45198	708.99500	 25.30	
 10.208	104.249	 18.68854	  8.28110	 10.95866	 15.32023	  4.36669	 -0.48604	 19.45283	708.98401	 25.30	
 10.192	113.678	 18.67846	  7.42370	 11.92285	 14.95254	  4.65643	 -0.47907	 19.46076	708.94397	 25.30	
 10.203	123.092	 18.65937	  6.61373	 12.83288	 14.44011	  5.04311	 -0.44890	 19.46859	708.89697	 25.30	
 10.215	132.646	 18.60938	  5.86565	 13.66082	 13.75130	  5.54626	 -0.42454	 19.44827	708.86499	 25.30	
 10.190	142.105	 18.58902	  5.26949	 14.36652	 12.93969	  6.19662	 -0.40788	 19.45779	708.86200	 25.30	
 10.194	151.526	 18.54605	  4.78373	 14.92776	 12.02162	  6.94944	 -0.40810	 19.43695	708.91803	 25.30	
 10.210	161.034	 18.55161	  4.40282	 15.37850	 11.07080	  7.81364	 -0.40937	 19.46245	709.07397	 25.30	
 10.191	170.497	 18.50707	  4.20457	 15.60289	 10.05963	  8.71275	 -0.39691	 19.43959	708.95203	 25.30	
 11.899	171.783	 18.11111	  3.01884	 16.33524	  9.72135	  8.34913	 -0.55046	 19.46186	708.85901	 25.30	
 11.890	163.610	 18.13759	  3.19480	 16.10999	 10.73203	  7.44384	 -0.55733	 19.45874	708.98297	 25.30	
 11.889	155.445	 18.14263	  3.47761	 15.72078	 11.71895	  6.58180	 -0.55060	 19.43511	708.93903	 25.30	
 11.909	147.299	 18.16490	  3.85829	 15.22045	 12.66783	  5.77469	 -0.55260	 19.44305	708.90002	 25.30	
 11.902	139.148	 18.21711	  4.36202	 14.59925	 13.55609	  5.08612	 -0.56578	 19.46097	708.96399	 25.30	
 11.894	130.867	 18.25255	  4.98065	 13.84236	 14.32913	  4.49034	 -0.58514	 19.46150	709.08197	 25.30	
 11.897	122.732	 18.26151	  5.77493	 12.99686	 14.98517	  3.95375	 -0.61663	 19.44753	709.06598	 25.30	
 11.903	114.597	 18.26727	  6.57637	 12.07116	 15.51084	  3.53991	 -0.65341	 19.43428	709.06299	 25.30	
 11.893	106.346	 18.29914	  7.47604	 11.09760	 15.91945	  3.24458	 -0.66848	 19.43987	709.10999	 25.30	
 11.892	 98.155	 18.34145	  8.40128	 10.11797	 16.17150	  3.08668	 -0.67562	 19.45790	708.95599	 25.30	
 11.900	 90.000	 18.35891	  9.33261	  9.13470	 16.26475	  3.05452	 -0.66495	 19.46477	708.89697	 25.30	
 11.892	 81.845	 18.36060	 10.20236	  8.16207	 16.19024	  3.13629	 -0.62442	 19.44952	709.08197	 25.30	
 11.893	 73.654	 18.37994	 11.19600	  7.23746	 15.98384	  3.31742	 -0.58449	 19.47523	708.93298	 25.30	
 11.903	 65.403	 18.34671	 12.14513	  6.34337	 15.60080	  3.59893	 -0.55811	 19.44655	708.91602	 25.30	
 11.897	 57.268	 18.37558	 13.07357	  5.55069	 15.12083	  4.01114	 -0.54858	 19.47167	708.93103	 25.30	
 11.894	 49.133	 18.34982	 13.88724	  4.83688	 14.46943	  4.52412	 -0.54938	 19.45596	709.02802	 25.30	
 11.902	 40.852	 18.34750	 14.64256	  4.20909	 13.74238	  5.13947	 -0.58614	 19.47264	708.96698	 25.30	
 11.909	 32.701	 18.30719	 15.23853	  3.68953	 12.88221	  5.84380	 -0.62044	 19.44087	708.90698	 25.30	
 11.889	 24.555	 18.28633	 15.71024	  3.29777	 11.94620	  6.64511	 -0.64872	 19.42197	708.95203	 25.30	
 11.890	 16.390	 18.30504	 16.08694	  3.01163	 11.00424	  7.51341	 -0.64631	 19.45196	708.92999	 25.30	
 11.899	  8.217	 18.27195	 16.27911	  2.84253	 10.00339	  8.41875	 -0.62565	 19.42485	708.91602	 25.30	
 11.900	  0.000	 18.29135	 16.36297	  2.79368	  8.99705	  9.41268	 -0.62199	 19.45317	708.94702	 25.30	
 11.899	 -8.217	 18.29691	 16.28093	  2.86260	  8.01292	 10.40656	 -0.62264	 19.47291	708.98297	 25.30	
 11.890	-16.390	 18.25866	 16.02341	  3.04364	  7.05939	 11.37308	 -0.62775	 19.45233	709.08197	 25.30	
 11.889	-24.555	 18.23221	 15.64217	  3.32588	  6.14985	 12.33228	 -0.63332	 19.44920	708.89697	 25.30	
 11.909	-32.701	 18.19780	 15.12601	  3.71492	  5.32449	 13.23478	 -0.64976	 19.44657	709.04199	 25.30	
 11.902	-40.852	 18.20686	 14.49177	  4.25092	  4.61549	 14.07991	 -0.67185	 19.47701	708.91400	 25.30	
 11.894	-49.133	 18.14743	 13.69438	  4.87308	  3.95724	 14.81033	 -0.71216	 19.44582	708.95502	 25.30	
 11.897	-57.268	 18.11403	 12.84717	  5.57698	  3.41438	 15.44177	 -0.75921	 19.44453	708.85101	 25.30	
 11.903	-65.403	 18.09521	 11.92599	  6.36711	  2.98531	 15.95600	 -0.78100	 19.45965	708.96997	 25.30	
 11.893	-73.654	 18.07077	 10.94382	  7.24955	  2.70270	 16.31111	 -0.78992	 19.46283	709.04901	 25.30	
 11.892	-81.845	 18.03112	  9.94422	  8.16618	  2.51971	 16.50544	 -0.79512	 19.43376	708.96301	 25.30	
 11.900	-90.000	 18.03173	  8.95649	  9.13875	  2.42627	 16.60472	 -0.78484	 19.46433	708.95502	 25.30	
 11.892	-98.155	 18.00007	  8.05013	 10.10763	  2.40671	 16.51272	 -0.77074	 19.44844	708.97998	 25.30	
 11.893	-106.346	 18.02154	  7.15966	 11.11069	  2.54148	 16.31075	 -0.74499	 19.47773	708.97998	 25.30	
 11.903	-114.597	 17.99352	  6.27544	 12.07059	  2.79075	 15.91109	 -0.70064	 19.46076	709.12799	 25.30	
 11.897	-122.732	 18.00131	  5.48640	 12.98377	  3.18566	 15.39374	 -0.65762	 19.46463	709.14899	 25.30	
 11.894	-130.867	 17.98022	  4.77880	 13.79813	  3.70631	 14.72156	 -0.61755	 19.43164	709.11603	 25.30	
 11.902	-139.148	 18.00068	  4.16219	 14.57125	  4.34435	 13.96480	 -0.59598	 19.45033	709.02502	 25.30	
 11.909	-147.299	 18.01400	  3.70136	 15.21842	  5.02606	 13.13908	 -0.61939	 19.46022	709.00299	 25.30	
 11.889	-155.445	 18.00932	  3.33863	 15.70848	  5.82379	 12.21358	 -0.62919	 19.44187	709.00598	 25.30	
 11.890	-163.610	 18.02265	  3.11346	 16.07939	  6.71921	 11.25353	 -0.62615	 19.44146	709.03198	 25.30	
 11.899	-171.783	 18.05807	  2.99050	 16.32518	  7.67287	 10.29516	 -0.60164	 19.46037	709.01202	 25.30	
 11.900	180.000	 18.10410	  2.94958	 16.41791	  8.68429	  9.32988	 -0.58342	 19.48173	709.09698	 25.30	
 13.600	180.000	 17.60232	  1.73194	 17.02680	  8.29333	  8.91262	 -0.73966	 19.46469	709.08502	 25.30	
 13.608	-172.853	 17.55801	  1.75883	 16.94977	  7.28167	  9.85774	 -0.75799	 19.44089	709.14099	 25.30	
 13.611	-165.583	 17.54202	  1.88446	 16.75682	  6.31921	 10.84647	 -0.77813	 19.45058	709.04797	 25.30	
 13.601	-158.353	 17.54310	  2.11628	 16.43950	  5.40169	 11.83708	 -0.78670	 19.47444	709.13501	 25.30	
 13.609	-151.210	 17.54064	  2.43898	 15.98777	  4.58175	 12.77170	 -0.77937	 19.47799	709.10797	 25.30	
 13.611	-143.999	 17.52482	  2.86002	 15.41429	  3.84816	 13.65335	 -0.75214	 19.47940	709.19098	 25.30	
 13.601	-136.825	 17.49605	  3.37719	 14.71178	  3.17629	 14.45375	 -0.73761	 19.44880	709.21802	 25.30	
 13.596	-129.640	 17.49185	  3.97095	 13.93032	  2.60091	 15.19488	 -0.75349	 19.45608	709.27002	 25.30	
 13.611	-122.431	 17.49707	  4.63572	 13.07951	  2.13312	 15.84132	 -0.79213	 19.46008	709.23401	 25.30	
 13.604	-115.211	 17.51975	  5.43975	 12.18298	  1.73931	 16.38180	 -0.83806	 19.48419	709.23901	 25.30	
 13.595	-108.042	 17.48881	  6.29149	 11.19936	  1.46990	 16.74987	 -0.86887	 19.43634	709.22198	 25.30	
 13.607	-100.793	 17.53219	  7.19914	 10.23215	  1.28908	 17.07495	 -0.89952	 19.48057	709.22601	 25.30	
 13.601	-93.617	 17.53936	  8.11127	  9.23759	  1.22124	 17.20720	 -0.90726	 19.47081	709.22302	 25.30	
 13.601	-86.383	 17.53657	  9.05079	  8.24707	  1.28283	 17.19954	 -0.90348	 19.45965	709.19202	 25.30	
 13.607	-79.207	 17.55779	 10.02587	  7.30313	  1.41320	 17.07888	 -0.88502	 19.45755	709.16901	 25.30	
 13.595	-71.958	 17.60240	 11.03467	  6.40267	  1.63317	 16.83442	 -0.87980	 19.47738	709.08197	 25.30	
 13.604	-64.789	 17.60293	 11.99583	  5.53700	  1.92906	 16.42724	 -0.86446	 19.45188	709.08197	 25.30	
 13.611	-57.569	 17.62983	 12.92700	  4.74911	  2.32693	 15.93142	 -0.85495	 19.44614	709.17999	 25.30	
 13.596	-50.360	 17.67485	 13.80143	  4.05127	  2.84057	 15.32809	 -0.83470	 19.46382	709.19098	 25.30	
 13.601	-43.175	 17.72663	 14.60312	  3.43433	  3.45529	 14.61134	 -0.80514	 19.47448	709.10400	 25.30	
 13.611	-36.001	 17.74359	 15.29281	  2.88556	  4.14624	 13.78214	 -0.77701	 19.45634	709.19800	 25.30	
 13.609	-28.790	 17.76720	 15.87611	  2.44084	  4.91452	 12.89524	 -0.76145	 19.44541	709.18903	 25.30	
 13.601	-21.647	 17.79539	 16.34548	  2.10861	  5.75878	 11.97905	 -0.75084	 19.45699	709.15198	 25.30	
 13.611	-14.417	 17.81144	 16.69318	  1.84553	  6.68025	 10.99668	 -0.75588	 19.45550	709.25897	 25.30	
 13.608	 -7.147	 17.84108	 16.91960	  1.69728	  7.64376	 10.00969	 -0.74805	 19.46750	709.18402	 25.30	
 13.600	  0.000	 17.84934	 16.99795	  1.64810	  8.62258	  9.03428	 -0.75066	 19.46913	709.28699	 25.30	
 13.608	  7.147	 17.84348	 16.94576	  1.67408	  9.61937	  8.04777	 -0.75829	 19.45477	709.32098	 25.30	
 13.611	 14.417	 17.85994	 16.77505	  1.81546	 10.63037	  7.11978	 -0.78956	 19.47049	709.34900	 25.30	
 13.601	 21.647	 17.88166	 16.46163	  2.07127	 11.60662	  6.24644	 -0.79604	 19.47388	709.38599	 25.30	
 13.609	 28.790	 17.86612	 16.01033	  2.40090	 12.54220	  5.42772	 -0.78486	 19.45732	709.35199	 25.30	
 13.611	 36.001	 17.86319	 15.44704	  2.83642	 13.43023	  4.67947	 -0.75004	 19.44669	709.21198	 25.30	
 13.601	 43.175	 17.88835	 14.78330	  3.38331	 14.24244	  4.02340	 -0.71502	 19.45421	709.15601	 25.30	
 13.596	 50.360	 17.92181	 14.02698	  4.01334	 14.99985	  3.42489	 -0.69481	 19.47642	709.26001	 25.30	
 13.611	 57.569	 17.91754	 13.17784	  4.70374	 15.62859	  2.90753	 -0.69423	 19.46923	709.26801	 25.30	
 13.604	 64.789	 17.89683	 12.24312	  5.49062	 16.11749	  2.50909	 -0.69973	 19.44040	709.25098	 25.30	
 13.595	 71.958	 17.91299	 11.30041	  6.35191	 16.50508	  2.22205	 -0.73051	 19.45409	709.30701	 25.30	
 13.607	 79.207	 17.91163	 10.31135	  7.27193	 16.76390	  2.02184	 -0.77496	 19.44817	709.25299	 25.30	
 13.601	 86.383	 17.93625	  9.38760	  8.24213	 16.90342	  1.93541	 -0.82471	 19.47219	709.20599	 25.30	
 13.601	 93.617	 17.90041	  8.46792	  9.22390	 16.87208	  1.90229	 -0.83845	 19.45261	709.33002	 25.30	
 13.607	100.793	 17.90742	  7.54362	 10.22578	 16.75519	  1.97637	 -0.84376	 19.47167	709.11298	 25.30	
 13.595	108.042	 17.86598	  6.61627	 11.21041	 16.46035	  2.17644	 -0.83407	 19.46213	709.20599	 25.30	
 13.604	115.211	 17.82235	  5.71479	 12.16395	 16.03098	  2.47258	 -0.81932	 19.43804	709.15198	 25.30	
 13.611	122.431	 17.82668	  4.86306	 13.10683	 15.51972	  2.88950	 -0.78652	 19.47306	709.19800	 25.30	
 13.596	129.640	 17.78101	  4.16628	 13.94454	 14.83561	  3.37821	 -0.75446	 19.44899	709.16400	 25.30	
 13.601	136.825	 17.77826	  3.55591	 14.74035	 14.09221	  3.96827	 -0.72837	 19.47232	709.17297	 25.30	
 13.611	143.999	 17.74295	  3.00158	 15.41852	 13.24664	  4.61604	 -0.72482	 19.47191	709.17700	 25.30	
 13.609	151.210	 17.70348	  2.53368	 15.99083	 12.31195	  5.35067	 -0.72291	 19.47141	709.24298	 25.30	
 13.601	158.353	 17.66121	  2.18638	 16.42787	 11.32565	  6.16501	 -0.72130	 19.45143	709.20801	 25.30	
 13.611	165.583	 17.65267	  1.90879	 16.77022	 10.33232	  7.04063	 -0.72876	 19.47610	709.23602	 25.30	
 13.608	172.853	 17.63021	  1.78323	 16.96729	  9.31354	  7.95734	 -0.73740	 19.46373	709.30499	 25.30	
 15.298	173.587	 17.05912	  0.58825	 17.48994	  8.84104	  7.48598	 -0.86765	 19.43179	709.25598	 25.30	
 15.291	167.167	 17.11016	  0.72565	 17.34781	  9.85742	  6.59239	 -0.86972	 19.46259	709.26300	 25.30	
 15.307	160.676	 17.12609	  0.95645	 17.04991	 10.87402	  5.70794	 -0.86423	 19.45678	709.17297	 25.30	
 15.300	154.261	 17.19419	  1.29028	 16.67234	 11.89546	  4.90437	 -0.86506	 19.50233	709.11902	 25.30	
 15.288	147.854	 17.20968	  1.68179	 16.14077	 12.83155	  4.15552	 -0.85776	 19.47278	709.27600	 25.30	
 15.293	141.428	 17.25168	  2.15738	 15.53395	 13.73112	  3.47977	 -0.85455	 19.48258	709.25299	 25.30	
 15.299	134.985	 17.23213	  2.68694	 14.78800	 14.53839	  2.83351	 -0.85801	 19.43783	709.44598	 25.30	
 15.305	128.583	 17.28554	  3.31037	 14.01908	 15.31582	  2.27480	 -0.87454	 19.47106	709.21198	 25.30	
 15.309	122.142	 17.30543	  4.03380	 13.14829	 15.94918	  1.81379	 -0.89223	 19.46869	709.30499	 25.30	
 15.304	115.711	 17.32336	  4.80651	 12.21539	 16.46059	  1.46441	 -0.90572	 19.43736	709.34100	 25.30	
 15.297	109.291	 17.39043	  5.64039	 11.28557	 16.92987	  1.18405	 -0.91977	 19.48743	709.38898	 25.30	
 15.293	102.897	 17.39476	  6.60591	 10.28969	 17.23338	  0.94208	 -0.91600	 19.46974	709.54602	 25.30	
 15.293	 96.458	 17.38020	  7.52087	  9.27926	 17.38677	  0.81321	 -0.92404	 19.43773	709.45099	 25.30	
 15.300	 90.000	 17.42364	  8.45005	  8.30028	 17.47754	  0.79153	 -0.92322	 19.45860	709.36298	 25.30	
 15.293	 83.542	 17.42368	  9.42828	  7.32111	 17.41086	  0.85280	 -0.90896	 19.45243	709.47101	 25.30	
 15.293	 77.103	 17.43662	 10.38838	  6.39356	 17.24839	  0.99534	 -0.87169	 19.46327	709.27899	 25.30	
 15.297	 70.709	 17.43262	 11.35988	  5.50497	 16.97182	  1.19923	 -0.83169	 19.46122	709.37799	 25.30	
 15.304	 64.289	 17.42924	 12.31584	  4.66198	 16.57180	  1.48534	 -0.80135	 19.47091	709.36700	 25.30	
 15.309	 57.858	 17.41356	 13.22084	  3.87746	 16.06138	  1.84970	 -0.79237	 19.46543	709.34698	 25.30	
 15.305	 51.417	 17.38341	 14.06042	  3.17416	 15.42537	  2.31398	 -0.79700	 19.44405	709.45001	 25.30	
 15.299	 45.015	 17.38723	 14.85832	  2.55811	 14.71518	  2.88819	 -0.82000	 19.46062	709.43103	 25.30	
 15.293	 38.572	 17.39523	 15.58161	  2.01650	 13.91753	  3.53808	 -0.84266	 19.48160	709.42798	 25.30	
 15.288	 32.146	 17.37213	 16.17475	  1.55580	 13.04458	  4.22270	 -0.86839	 19.46447	709.40002	 25.30	
 15.300	 25.739	 17.38419	 16.70407	  1.18173	 12.15012	  4.97926	 -0.86888	 19.48860	709.40002	 25.30	
 15.307	 19.324	 17.33087	 17.06023	  0.87616	 11.14760	  5.80198	 -0.85868	 19.44567	709.45599	 25.30	
 15.291	 12.833	 17.32630	 17.34019	  0.67420	 10.15837	  6.68657	 -0.83494	 19.44184	709.35999	 25.30	
 15.298	  6.413	 17.31936	 17.49729	  0.55996	  9.17043	  7.60635	 -0.81088	 19.44551	709.33600	 25.30	
 15.300	  0.000	 17.33478	 17.55608	  0.52343	  8.19340	  8.59244	 -0.80074	 19.46464	709.32202	 25.30	
 15.298	 -6.413	 17.32409	 17.48703	  0.56804	  7.21838	  9.57024	 -0.80454	 19.47460	709.26001	 25.30	
 15.291	-12.833	 17.30086	 17.28522	  0.69948	  6.26958	 10.54903	 -0.81148	 19.45885	709.28699	 25.30	
 15.307	-19.324	 17.26667	 16.97194	  0.89935	  5.32423	 11.53611	 -0.82680	 19.44754	709.35199	 25.30	
 15.300	-25.739	 17.26036	 16.55914	  1.20231	  4.48441	 12.49200	 -0.82710	 19.45683	709.34900	 25.30	
 15.288	-32.146	 17.25621	 16.02211	  1.59540	  3.71408	 13.39965	 -0.83655	 19.47433	709.36700	 25.30	
 15.293	-38.572	 17.18349	 15.35601	  2.05079	  2.96360	 14.24416	 -0.83237	 19.43345	709.54602	 25.40	
 15.299	-45.015	 17.17791	 14.65063	  2.59717	  2.31072	 15.06375	 -0.85269	 19.47760	709.48102	 25.40	
 15.305	-51.417	 17.14760	 13.84061	  3.21823	  1.75743	 15.75958	 -0.86413	 19.47556	709.46399	 25.40	
 15.309	-57.858	 17.08844	 12.94841	  3.90782	  1.27634	 16.34199	 -0.86749	 19.44452	709.46997	 25.40	
 15.304	-64.289	 17.07668	 12.02616	  4.67959	  0.88227	 16.86563	 -0.89056	 19.47344	709.50201	 25.40	
 15.297	-70.709	 17.03209	 11.03583	  5.51277	  0.58000	 17.24605	 -0.86321	 19.45387	709.46399	 25.40	
 15.293	-77.103	 16.99111	 10.05316	  6.38314	  0.36568	 17.51788	 -0.87002	 19.43976	709.43298	 25.40	
 15.293	-83.542	 17.00653	  9.07995	  7.32703	  0.21514	 17.73100	 -0.88329	 19.49140	709.45001	 25.40	
 15.300	-90.000	 16.96663	  8.08640	  8.28561	  0.09926	 17.77392	 -0.91076	 19.47455	709.52100	 25.40	
 15.293	-96.458	 16.94988	  7.10030	  9.27011	  0.09964	 17.69829	 -0.95545	 19.46406	709.49500	 25.40	
 15.293	-102.897	 16.95303	  6.17410	 10.26644	  0.22559	 17.50816	 -0.95906	 19.47235	709.60602	 25.40	
 15.297	-109.291	 16.93762	  5.31469	 11.23963	  0.43403	 17.18599	 -0.95405	 19.46022	709.55798	 25.40	
 15.304	-115.711	 16.93453	  4.53238	 12.18986	  0.72285	 16.75878	 -0.94242	 19.44573	709.54901	 25.40	
 15.309	-122.142	 16.95228	  3.81162	 13.11760	  1.08682	 16.24629	 -0.90361	 19.46953	709.55200	 25.40	
 15.305	-128.583	 16.94162	  3.14692	 13.96881	  1.53146	 15.61719	 -0.88856	 19.45551	709.60303	 25.40	
 15.299	-134.985	 16.95216	  2.53746	 14.76528	  2.04833	 14.92267	 -0.88340	 19.47256	707.96503	 25.40	
 15.293	-141.428	 16.94710	  1.99367	 15.47633	  2.67365	 14.10288	 -0.88170	 19.45498	707.47998	 25.40	
 15.288	-147.854	 16.94664	  1.52269	 16.09096	  3.37437	 13.23134	 -0.90543	 19.44440	709.69000	 25.40	
 15.300	-154.261	 16.96447	  1.12156	 16.61661	  4.12419	 12.33742	 -0.92187	 19.45600	707.76202	 25.40	
 15.307	-160.676	 16.97403	  0.83507	 17.02431	  4.95500	 11.39734	 -0.92856	 19.45646	709.58301	 25.40	
 15.291	-167.167	 17.02136	  0.65294	 17.34115	  5.90831	 10.42345	 -0.91861	 19.47787	709.63000	 25.40	
 15.298	-173.587	 17.02915	  0.55457	 17.50308	  6.85634	  9.43826	 -0.90481	 19.45367	709.58301	 25.40	
 15.300	180.000	 17.05934	  0.52089	 17.57149	  7.83839	  8.47241	 -0.89145	 19.46763	709.67902	 25.40	
 17.000	180.000	 16.43052	 -0.55112	 18.05324	  7.31997	  7.96533	 -0.95441	 19.45361	709.65302	 25.40	
 16.990	-174.179	 16.40857	 -0.52612	 17.99729	  6.35810	  8.92653	 -0.95885	 19.45574	709.58502	 25.40	
 17.009	-168.383	 16.39995	 -0.45285	 17.86365	  5.42340	  9.90485	 -0.95979	 19.47605	709.56403	 25.40	
 17.000	-162.596	 16.35972	 -0.29895	 17.57561	  4.49922	 10.86892	 -0.97176	 19.45795	709.52698	 25.40	
 16.990	-156.759	 16.34383	 -0.06278	 17.18915	  3.66401	 11.82511	 -0.98665	 19.44687	709.58099	 25.40	
 16.995	-150.919	 16.33108	  0.25346	 16.71198	  2.87505	 12.76377	 -0.98479	 19.44415	709.46698	 25.40	
 16.988	-145.161	 16.33431	  0.63043	 16.15465	  2.17012	 13.65799	 -0.97638	 19.45521	709.58002	 25.40	
 17.014	-139.343	 16.32261	  1.06299	 15.50705	  1.51915	 14.50636	 -0.97158	 19.46818	707.98798	 25.30	
 17.007	-133.546	 16.31912	  1.60063	 14.76528	  0.94971	 15.26591	 -0.97279	 19.46169	709.50403	 25.30	
 17.001	-127.699	 16.31369	  2.21963	 13.94986	  0.45568	 15.96832	 -0.96744	 19.46048	707.50000	 25.30	
 17.006	-121.937	 16.34951	  2.91389	 13.11069	  0.03398	 16.61843	 -0.98813	 19.50136	709.71503	 25.30	
 17.002	-116.134	 16.30659	  3.64454	 12.15994	 -0.31000	 17.08878	 -0.98196	 19.44242	709.63702	 25.30	
 17.001	-110.310	 16.32033	  4.43432	 11.21902	 -0.59070	 17.54083	 -0.97131	 19.46928	707.62799	 25.30	
 16.988	-104.517	 16.34890	  5.26976	 10.26297	 -0.77849	 17.88270	 -0.94668	 19.48320	707.60101	 25.30	
 17.008	-98.662	 16.32983	  6.16168	  9.26361	 -0.92714	 18.09612	 -0.89137	 19.46186	709.50500	 25.30	
 16.996	-92.909	 16.34651	  7.09876	  8.29145	 -0.98034	 18.21297	 -0.84416	 19.46882	709.53601	 25.30	
 16.996	-87.091	 16.33582	  8.07322	  7.31236	 -0.94564	 18.19744	 -0.81323	 19.43959	708.42102	 25.30	
 17.012	-81.253	 16.33113	  9.00797	  6.35540	 -0.82996	 18.08955	 -0.77496	 19.41975	708.17798	 25.30	
 16.988	-75.483	 16.38934	 10.00684	  5.48097	 -0.67749	 17.91857	 -0.76441	 19.45494	707.48401	 25.30	
 17.001	-69.690	 16.42621	 11.00233	  4.61545	 -0.47331	 17.63687	 -0.77335	 19.47139	707.41400	 25.30	
 17.002	-63.866	 16.47550	 11.98915	  3.81208	 -0.15808	 17.24523	 -0.76726	 19.49229	707.46997	 25.30	
 17.006	-58.063	 16.49080	 12.90718	  3.06389	  0.22618	 16.71848	 -0.78181	 19.46054	709.55701	 25.30	
 17.001	-52.301	 16.52500	 13.78220	  2.38764	  0.67848	 16.11294	 -0.79594	 19.45197	709.49597	 25.20	
 17.007	-46.454	 16.57657	 14.62550	  1.77056	  1.20411	 15.43051	 -0.84239	 19.46909	709.66803	 25.20	
 17.014	-40.657	 16.60592	 15.38245	  1.21697	  1.79178	 14.67442	 -0.81657	 19.47244	709.58899	 25.20	
 16.988	-34.839	 16.62333	 16.03394	  0.76611	  2.48258	 13.81729	 -0.81625	 19.43711	709.65601	 25.20	
 16.995	-29.081	 16.67388	 16.63942	  0.37608	  3.24189	 12.94025	 -0.81749	 19.45203	709.63599	 25.20	
 16.990	-23.241	 16.69596	 17.13032	  0.04484	  4.04677	 11.99976	 -0.81276	 19.44507	709.63300	 25.20	
 17.000	-17.404	 16.71418	 17.52215	 -0.21276	  4.89866	 11.04352	 -0.81454	 19.45197	709.62201	 25.20	
 17.009	-11.617	 16.72125	 17.79461	 -0.39609	  5.81157	 10.05057	 -0.80461	 19.44922	709.65601	 25.20	
 16.990	 -5.821	 16.72594	 17.94883	 -0.50575	  6.74235	  9.06715	 -0.77761	 19.43760	709.19202	 25.20	
 17.000	  0.000	 16.77145	 18.05752	 -0.54974	  7.72195	  8.11241	 -0.77396	 19.47559	707.62097	 25.20	
 16.990	  5.821	 16.77580	 18.01707	 -0.51684	  8.70309	  7.13822	 -0.77416	 19.47609	709.77197	 25.20	
 17.009	 11.617	 16.76905	 17.87403	 -0.42953	  9.67753	  6.21525	 -0.79116	 19.46623	708.12598	 25.10	
 17.000	 17.404	 16.77555	 17.62049	 -0.24748	 10.66091	  5.34054	 -0.80254	 19.45947	708.84198	 25.10	
 16.990	 23.241	 16.78136	 17.25931	  0.00760	 11.64173	  4.49908	 -0.84132	 19.45310	709.50702	 25.10	
 16.995	 29.081	 16.79815	 16.81866	  0.31877	 12.59307	  3.72546	 -0.86207	 19.47164	709.65100	 25.10	
 16.988	 34.839	 16.80231	 16.25368	  0.72751	 13.47725	  3.02606	 -0.87228	 19.45713	709.30103	 25.10	
 17.014	 40.657	 16.78466	 15.59283	  1.17131	 14.31730	  2.34587	 -0.87044	 19.44058	707.65900	 25.10	
 17.007	 46.454	 16.83432	 14.89101	  1.72886	 15.13486	  1.76433	 -0.87300	 19.47833	709.64801	 25.10	
 17.001	 52.301	 16.81376	 14.04804	  2.34140	 15.79149	  1.23779	 -0.86662	 19.43169	709.22601	 25.10	
 17.006	 58.063	 16.83500	 13.21280	  3.01901	 16.41534	  0.79447	 -0.86302	 19.45117	709.71600	 25.10	
 17.002	 63.866	 16.84488	 12.30312	  3.76965	 16.95355	  0.42284	 -0.87736	 19.46351	709.62299	 25.10	
 17.001	 69.690	 16.83187	 11.33927	  4.57259	 17.35683	  0.13770	 -0.89791	 19.44359	709.54602	 25.10	
 16.988	 75.483	 16.86575	 10.38119	  5.46031	 17.68334	 -0.07095	 -0.92082	 19.47123	709.56897	 25.00	
 17.012	 81.253	 16.87276	  9.44596	  6.35520	 17.91299	 -0.23393	 -0.92299	 19.48724	709.26001	 25.00	
 16.996	 87.091	 16.84669	  8.45453	  7.30692	 17.97175	 -0.29854	 -0.91765	 19.44597	708.61700	 25.00	
 16.996	 92.909	 16.86036	  7.47406	  8.30512	 17.99600	 -0.28879	 -0.89448	 19.48112	707.54901	 25.00	
 17.008	 98.662	 16.83044	  6.52091	  9.27218	 17.88177	 -0.23040	 -0.89138	 19.46017	709.75702	 25.00	
 16.988	104.517	 16.80134	  5.62080	 10.26334	 17.62413	 -0.04339	 -0.88603	 19.43763	709.02301	 25.00	
 17.001	110.310	 16.79323	  4.77044	 11.25090	 17.30807	  0.17204	 -0.88930	 19.46464	709.55402	 25.00	
 17.002	116.134	 16.76204	  3.96123	 12.20680	 16.86617	  0.44730	 -0.91744	 19.45304	707.91901	 25.00	
 17.006	121.937	 16.74751	  3.20702	 13.13080	 16.33207	  0.79300	 -0.92788	 19.46123	709.61603	 25.00	
 17.001	127.699	 16.72636	  2.50767	 14.00179	 15.70665	  1.20733	 -0.93637	 19.47705	709.67603	 25.00	
 17.007	133.546	 16.68199	  1.87167	 14.80307	 14.96570	  1.70067	 -0.94613	 19.45362	709.63098	 25.00	
 17.014	139.343	 16.64624	  1.29780	 15.54375	 14.15671	  2.28055	 -0.94896	 19.46303	709.63000	 25.00	
 16.988	145.161	 16.62313	  0.82823	 16.19780	 13.26283	  2.94276	 -0.96381	 19.45424	709.23401	 24.90	
 16.995	150.919	 16.58526	  0.41921	 16.74538	 12.34301	  3.62970	 -0.96223	 19.44905	709.69501	 24.90	
 16.990	156.759	 16.56453	  0.08341	 17.22639	 11.38401	  4.38902	 -0.96584	 19.46144	709.75098	 24.90	
 17.000	162.596	 16.52975	 -0.18656	 17.60159	 10.36692	  5.21736	 -0.95961	 19.46768	708.21301	 24.90	
 17.009	168.383	 16.50739	 -0.39149	 17.87753	  9.35939	  6.07909	 -0.96167	 19.47804	709.78198	 24.90	
 16.990	174.179	 16.47189	 -0.50320	 18.01696	  8.35201	  6.98384	 -0.94043	 19.46572	709.77197	 24.90	
 18.709	174.675	 15.79841	 -1.53327	 18.43979	  7.80365	  6.45651	 -0.96319	 19.46198	709.67102	 24.90	
 18.703	169.441	 15.82448	 -1.42895	 18.29907	  8.78123	  5.56668	 -0.98368	 19.45923	709.85901	 24.90	
 18.691	164.085	 15.86282	 -1.25340	 18.06078	  9.81318	  4.70574	 -0.99605	 19.45915	709.70599	 24.90	
 18.706	158.818	 15.89155	 -1.04599	 17.74524	 10.82005	  3.87467	 -1.01169	 19.47192	709.83398	 24.90	
 18.695	153.537	 15.91894	 -0.74548	 17.32652	 11.79074	  3.07685	 -0.95016	 19.44073	709.69501	 24.90	
 18.704	148.255	 15.93063	 -0.40357	 16.79714	 12.72923	  2.35264	 -0.95300	 19.41545	709.78198	 24.90	
 18.698	142.952	 15.99094	  0.02692	 16.20861	 13.66167	  1.70901	 -0.94077	 19.44242	708.03802	 24.80	
 18.699	137.625	 15.99628	  0.51123	 15.49247	 14.49742	  1.11511	 -0.92657	 19.41457	709.56403	 24.80	
 18.705	132.343	 16.04937	  1.05383	 14.76102	 15.29261	  0.59526	 -0.88387	 19.43230	707.67700	 24.80	
 18.713	127.067	 16.05624	  1.65220	 13.92917	 15.99842	  0.11318	 -0.85922	 19.41561	707.58801	 24.80	
 18.700	121.794	 16.09821	  2.32895	 13.06082	 16.64270	 -0.28541	 -0.81641	 19.42848	709.75500	 24.80	
 18.698	116.504	 16.11291	  3.06658	 12.13502	 17.18211	 -0.61328	 -0.77338	 19.40550	709.52899	 24.80	
 18.707	111.165	 16.15421	  3.87105	 11.20175	 17.65125	 -0.88491	 -0.75894	 19.43974	707.56299	 24.80	
 18.690	105.863	 16.19305	  4.72572	 10.23389	 17.99211	 -1.07501	 -0.72634	 19.43863	709.67798	 24.80	
 18.696	100.583	 16.19573	  5.59059	  9.24355	 18.21836	 -1.23561	 -0.71753	 19.42315	709.03101	 24.80	
 18.700	 95.309	 16.20745	  6.49636	  8.26551	 18.35866	 -1.32789	 -0.72339	 19.40447	709.87299	 24.80	
 18.700	 90.000	 16.23592	  7.47826	  7.29769	 18.42952	 -1.36337	 -0.74969	 19.43089	709.79700	 24.80	
 18.700	 84.691	 16.24130	  8.44967	  6.33804	 18.38299	 -1.34000	 -0.78952	 19.43206	709.75500	 24.80	
 18.696	 79.417	 16.23435	  9.37782	  5.41870	 18.23558	 -1.23944	 -0.83169	 19.42031	709.65100	 24.70	
 18.690	 74.137	 16.23400	 10.33935	  4.54241	 18.00605	 -1.09073	 -0.85622	 19.41994	709.72302	 24.70	
 18.707	 68.835	 16.24337	 11.32148	  3.69010	 17.71594	 -0.90407	 -0.84634	 19.45360	708.13000	 24.70	
 18.698	 63.496	 16.22357	 12.25687	  2.89715	 17.26397	 -0.61990	 -0.84161	 19.43628	708.75000	 24.70	
 18.700	 58.206	 16.21125	 13.16597	  2.16961	 16.73261	 -0.26836	 -0.82857	 19.42558	709.70599	 24.70	
 18.713	 52.933	 16.20980	 14.03385	  1.50146	 16.13502	  0.15093	 -0.84327	 19.43061	707.66699	 24.70	
 18.705	 47.657	 16.19398	 14.84333	  0.91639	 15.43895	  0.64693	 -0.82425	 19.43242	707.61798	 24.70	
 18.699	 42.375	 16.17127	 15.58276	  0.37375	 14.68316	  1.17275	 -0.80157	 19.42177	707.98499	 24.70	
 18.698	 37.048	 16.14956	 16.24784	 -0.09605	 13.84569	  1.77372	 -0.76611	 19.41338	709.71002	 24.70	
 18.704	 31.745	 16.14137	 16.85196	 -0.50513	 12.96114	  2.45400	 -0.71713	 19.41267	708.94397	 24.70	
 18.695	 26.463	 16.15499	 17.37111	 -0.84154	 12.05453	  3.17614	 -0.67959	 19.43287	707.93103	 24.70	
 18.706	 21.182	 16.14575	 17.78836	 -1.11845	 11.11347	  3.95078	 -0.66070	 19.43386	709.82300	 24.50	
 18.691	 15.915	 16.13381	 18.10062	 -1.33012	 10.13434	  4.78058	 -0.63989	 19.43055	709.73700	 24.50	
 18.703	 10.559	 16.12243	 18.32524	 -1.48617	  9.14470	  5.66101	 -0.62193	 19.42816	709.73199	 24.50	
 18.709	  5.325	 16.12211	 18.45941	 -1.57640	  8.18705	  6.55413	 -0.62112	 19.43988	709.86401	 24.50	
 18.700	  0.000	 16.11554	 18.48268	 -1.59834	  7.19335	  7.51817	 -0.63149	 19.43094	709.73199	 24.50	
 18.709	 -5.325	 16.11201	 18.43605	 -1.57063	  6.23077	  8.48909	 -0.62451	 19.44292	709.66101	 24.50	
 18.703	-10.559	 16.08447	 18.25115	 -1.46553	  5.30885	  9.44298	 -0.63774	 19.41143	708.69598	 24.50	
 18.691	-15.915	 16.09797	 18.02131	 -1.29724	  4.43295	 10.45776	 -0.67235	 19.44113	709.76898	 24.50	
 18.706	-21.182	 16.06602	 17.66958	 -1.09372	  3.57918	 11.40439	 -0.67320	 19.43529	709.82501	 24.50	
 18.695	-26.463	 16.04464	 17.21677	 -0.80215	  2.77690	 12.34869	 -0.67070	 19.42239	709.86700	 24.50	
 18.704	-31.745	 16.01447	 16.67936	 -0.47424	  2.00507	 13.26038	 -0.67843	 19.42934	709.76300	 24.50	
 18.698	-37.048	 15.95206	 16.01206	 -0.05411	  1.31793	 14.10260	 -0.66328	 19.39171	709.75800	 24.50	
 18.699	-42.375	 15.95097	 15.33813	  0.41613	  0.69469	 14.93884	 -0.66217	 19.43198	709.74902	 24.50	
 18.705	-47.657	 15.89074	 14.55050	  0.94461	  0.12375	 15.67130	 -0.64656	 19.41644	709.70099	 24.50	
 18.713	-52.933	 15.85687	 13.72691	  1.53721	 -0.36863	 16.35422	 -0.63080	 19.42875	709.78601	 24.50	
 18.700	-58.206	 15.82402	 12.83963	  2.20761	 -0.78338	 16.94405	 -0.60748	 19.42528	708.93103	 24.50	
 18.698	-63.496	 15.80534	 11.92327	  2.93335	 -1.12984	 17.43657	 -0.59736	 19.43759	709.77698	 24.40	
 18.707	-68.835	 15.78928	 10.97009	  3.72464	 -1.43568	 17.87750	 -0.60981	 19.45580	709.77698	 24.40	
 18.690	-74.137	 15.74234	  9.97857	  4.56304	 -1.66121	 18.16431	 -0.59191	 19.42760	709.67102	 24.50	
 18.696	-79.417	 15.69703	  8.98768	  5.41930	 -1.82162	 18.36993	 -0.59641	 19.41282	709.84998	 24.40	
 18.700	-84.691	 15.68932	  8.06084	  6.33783	 -1.95184	 18.53498	 -0.61368	 19.44077	709.74902	 24.40	
 18.700	-90.000	 15.66366	  7.06618	  7.28261	 -2.01326	 18.55654	 -0.63925	 19.42594	709.79700	 24.40	
 18.700	-95.309	 15.64115	  6.10059	  8.25028	 -1.99728	 18.47836	 -0.67692	 19.40829	709.89203	 24.40	
 18.696	-100.583	 15.65275	  5.20976	  9.22805	 -1.90967	 18.34245	 -0.73096	 19.42133	709.87598	 24.40	
 18.690	-105.863	 15.66365	  4.36985	 10.20223	 -1.77513	 18.10108	 -0.78570	 19.43747	709.96100	 24.40	
 18.707	-111.165	 15.65164	  3.52247	 11.16504	 -1.58846	 17.76523	 -0.84791	 19.44508	709.85602	 24.40	
 18.698	-116.504	 15.65172	  2.74868	 12.11759	 -1.29264	 17.32901	 -0.88554	 19.44027	709.84198	 24.40	
 18.700	-121.794	 15.63686	  2.02454	 13.01753	 -0.99486	 16.81435	 -0.88729	 19.43487	709.87598	 24.40	
 18.713	-127.067	 15.61073	  1.38191	 13.86157	 -0.60162	 16.18284	 -0.90164	 19.39848	709.77399	 24.40	
 18.705	-132.343	 15.62747	  0.79177	 14.68904	 -0.15242	 15.50321	 -0.91766	 19.40935	709.75500	 24.40	
 18.699	-137.625	 15.64454	  0.28447	 15.45573	  0.38920	 14.75998	 -0.89989	 19.42743	709.77100	 24.40	
 18.698	-142.952	 15.67105	 -0.17498	 16.16139	  0.98663	 13.96346	 -0.89655	 19.45220	709.90997	 24.40	
 18.704	-148.255	 15.65793	 -0.57313	 16.75222	  1.64344	 13.07466	 -0.86524	 19.42497	709.84003	 24.40	
 18.695	-153.537	 15.66845	 -0.89635	 17.27983	  2.39552	 12.16040	 -0.85604	 19.43042	709.71503	 24.40	
 18.706	-158.818	 15.64653	 -1.15935	 17.68004	  3.15879	 11.18939	 -0.82898	 19.39655	709.82501	 24.40	
 18.691	-164.085	 15.69668	 -1.33738	 18.04400	  4.00396	 10.26066	 -0.81832	 19.42889	709.71002	 24.40	
 18.703	-169.441	 15.71985	 -1.46672	 18.29236	  4.91389	  9.26822	 -0.82512	 19.42650	709.89001	 24.40	
 18.709	-174.675	 15.73450	 -1.54565	 18.42818	  5.82864	  8.31144	 -0.84085	 19.41637	709.68201	 24.40	
 18.700	180.000	 15.77486	 -1.56595	 18.49406	  6.79551	  7.36894	 -0.84880	 19.44238	709.77100	 24.40	
 20.400	180.000	 15.03629	 -2.52860	 18.81820	  6.23142	  6.79587	 -0.79602	 19.42532	709.66400	 24.40	
 20.401	-175.153	 15.02953	 -2.50068	 18.80112	  5.29575	  7.73749	 -0.77451	 19.44408	709.85101	 24.40	
 20.407	-170.264	 14.98244	 -2.43599	 18.64540	  4.36035	  8.68246	 -0.74816	 19.41832	709.75500	 24.30	
 20.410	-165.423	 14.95395	 -2.33646	 18.43172	  3.47211	  9.65602	 -0.75526	 19.42264	709.81299	 24.30	
 20.392	-160.496	 14.94302	 -2.18556	 18.11824	  2.63807	 10.61339	 -0.75068	 19.42384	709.15997	 24.30	
 20.401	-155.705	 14.92723	 -1.97894	 17.73685	  1.85908	 11.54408	 -0.75962	 19.42399	709.83600	 24.30	
 20.405	-150.835	 14.90892	 -1.71648	 17.25510	  1.12266	 12.46554	 -0.78661	 19.41976	709.72601	 24.30	
 20.397	-145.903	 14.91124	 -1.38893	 16.68563	  0.43408	 13.36255	 -0.83538	 19.43357	709.69299	 24.30	
 20.392	-141.062	 14.92375	 -0.98464	 16.07091	 -0.16306	 14.20884	 -0.87474	 19.44815	709.69501	 24.30	
 20.396	-136.227	 14.89605	 -0.53606	 15.34078	 -0.71607	 14.99121	 -0.88845	 19.42684	709.64801	 24.30	
 20.408	-131.372	 14.88679	 -0.03674	 14.57518	 -1.22206	 15.73847	 -0.90941	 19.43278	709.71002	 24.30	
 20.410	-126.511	 14.88321	  0.53835	 13.75262	 -1.61953	 16.39438	 -0.89369	 19.41281	709.67902	 24.30	
 20.400	-121.604	 14.90092	  1.17658	 12.88577	 -2.01907	 17.01203	 -0.85675	 19.42558	709.75800	 24.30	
 20.403	-116.741	 14.91096	  1.86006	 11.98656	 -2.33038	 17.53960	 -0.82837	 19.44155	709.65100	 24.30	
 20.413	-111.900	 14.88979	  2.58763	 11.04054	 -2.58617	 17.96247	 -0.76890	 19.41883	709.62000	 24.30	
 20.398	-107.004	 14.91508	  3.38917	 10.09602	 -2.77619	 18.32698	 -0.71992	 19.43361	709.71301	 24.30	
 20.394	-102.132	 14.90570	  4.22026	  9.12226	 -2.91489	 18.57444	 -0.67062	 19.42267	709.59198	 24.30	
 20.403	-97.332	 14.91148	  5.08415	  8.17429	 -3.01625	 18.77269	 -0.61886	 19.43351	709.59998	 24.30	
 20.392	-92.440	 14.91954	  5.99150	  7.20977	 -3.03426	 18.86936	 -0.59360	 19.42910	709.58099	 24.30	
 20.392	-87.560	 14.91138	  6.92531	  6.24650	 -3.02661	 18.84769	 -0.57816	 19.40055	709.66199	 24.20	
 20.403	-82.668	 14.93490	  7.92562	  5.32457	 -3.01965	 18.80670	 -0.54608	 19.42381	709.50201	 24.20	
 20.394	-77.868	 14.95357	  8.83820	  4.47003	 -2.84798	 18.63872	 -0.55275	 19.40982	709.63300	 24.20	
 20.398	-72.996	 14.98645	  9.81800	  3.61974	 -2.67544	 18.39865	 -0.51935	 19.41286	709.68701	 24.20	
 20.413	-68.100	 15.04182	 10.81083	  2.80617	 -2.44259	 18.09336	 -0.51690	 19.43618	709.63098	 24.20	
 20.403	-63.259	 15.08927	 11.77272	  2.07144	 -2.13741	 17.69090	 -0.53669	 19.45113	709.67499	 24.20	
 20.400	-58.396	 15.11418	 12.70117	  1.36729	 -1.77896	 17.17469	 -0.55305	 19.43844	709.57703	 24.20	
 20.410	-53.489	 15.14379	 13.59059	  0.70532	 -1.39468	 16.59901	 -0.57056	 19.44184	709.58301	 24.20	
 20.408	-48.628	 15.18347	 14.43024	  0.11819	 -0.94841	 15.94273	 -0.57680	 19.44435	709.67603	 24.20	
 20.396	-43.773	 15.22882	 15.21945	 -0.40324	 -0.40828	 15.20894	 -0.60055	 19.43929	709.64001	 24.20	
 20.392	-38.938	 15.28205	 15.95719	 -0.86356	  0.18151	 14.42570	 -0.59560	 19.44865	709.58502	 24.20	
 20.397	-34.097	 15.30228	 16.59872	 -1.27669	  0.81094	 13.58323	 -0.60699	 19.43544	709.74597	 24.20	
 20.405	-29.165	 15.31309	 17.16576	 -1.63435	  1.50949	 12.67714	 -0.60938	 19.40798	709.51202	 24.20	
 20.401	-24.295	 15.36631	 17.69491	 -1.93200	  2.28232	 11.76642	 -0.59718	 19.43386	709.54303	 24.20	
 20.392	-19.504	 15.38168	 18.09551	 -2.17052	  3.08047	 10.81688	 -0.58552	 19.42592	709.57397	 24.20	
 20.410	-14.577	 15.40094	 18.43940	 -2.37853	  3.92293	  9.85285	 -0.57627	 19.44746	709.64502	 24.20	
 20.407	 -9.736	 15.40590	 18.65122	 -2.51491	  4.79102	  8.87029	 -0.56396	 19.42926	709.67603	 24.20	
 20.401	 -4.847	 15.42239	 18.79445	 -2.60068	  5.70839	  7.90161	 -0.56736	 19.43931	709.63898	 24.20	
 20.400	  0.000	 15.43510	 18.86037	 -2.63132	  6.65090	  6.95661	 -0.55360	 19.44372	709.67902	 24.20	
 20.401	  4.847	 15.42151	 18.81471	 -2.60585	  7.61695	  6.00628	 -0.54124	 19.43180	709.76898	 24.20	
 20.407	  9.736	 15.42130	 18.70327	 -2.53144	  8.57770	  5.11534	 -0.53796	 19.42474	709.70203	 24.20	
 20.410	 14.577	 15.42673	 18.50891	 -2.40130	  9.53824	  4.25456	 -0.51726	 19.41741	709.58099	 24.20	
 20.392	 19.504	 15.44194	 18.21423	 -2.20212	 10.53356	  3.43047	 -0.51954	 19.41593	709.60498	 24.20	
 20.401	 24.295	 15.49439	 17.89339	 -1.96476	 11.49871	  2.68094	 -0.55367	 19.46643	709.49298	 24.20	
 20.405	 29.165	 15.47241	 17.40065	 -1.66998	 12.41471	  1.93717	 -0.58571	 19.43692	709.69000	 24.20	
 20.397	 34.097	 15.46928	 16.82978	 -1.31098	 13.32863	  1.24026	 -0.63413	 19.41436	709.66199	 24.20	
 20.392	 38.938	 15.47357	 16.20220	 -0.90381	 14.17007	  0.62546	 -0.70944	 19.41336	709.59497	 24.20	
 20.396	 43.773	 15.51524	 15.53120	 -0.42473	 14.98553	  0.07537	 -0.75182	 19.43929	709.67603	 24.10	
 20.408	 48.628	 15.49494	 14.74723	  0.07833	 15.71028	 -0.45256	 -0.80048	 19.40805	709.57703	 24.10	
 20.410	 53.489	 15.50341	 13.92343	  0.66333	 16.38086	 -0.90858	 -0.79762	 19.41310	709.62799	 24.10	
 20.400	 58.396	 15.52524	 13.06468	  1.31830	 16.98724	 -1.28713	 -0.80901	 19.41309	709.61902	 24.10	
 20.403	 63.259	 15.54794	 12.17195	  2.02228	 17.52783	 -1.62984	 -0.81538	 19.44538	709.59198	 24.10	
 20.413	 68.100	 15.54678	 11.24164	  2.76707	 17.95313	 -1.89857	 -0.80375	 19.43867	709.64697	 24.10	
 20.398	 72.996	 15.54519	 10.27808	  3.58581	 18.28398	 -2.09098	 -0.78387	 19.41708	709.75800	 24.10	
 20.394	 77.868	 15.56148	  9.31440	  4.44466	 18.55359	 -2.25623	 -0.74452	 19.43703	709.58899	 24.10	
 20.403	 82.668	 15.55515	  8.39606	  5.32175	 18.71713	 -2.37622	 -0.69443	 19.42591	709.58002	 24.10	
 20.392	 87.560	 15.55157	  7.41500	  6.26514	 18.77890	 -2.40488	 -0.65577	 19.40839	709.58801	 24.10	
 20.392	 92.440	 15.55627	  6.45113	  7.23015	 18.78639	 -2.38203	 -0.61622	 19.41821	709.51202	 24.10	
 20.403	 97.332	 15.55133	  5.55316	  8.20779	 18.71843	 -2.33845	 -0.59131	 19.43855	709.53802	 24.10	
 20.394	102.132	 15.52340	  4.66262	  9.15906	 18.52735	 -2.22556	 -0.59010	 19.42973	709.46198	 24.10	
 20.398	107.004	 15.48977	  3.79291	 10.11957	 18.25561	 -2.06573	 -0.60166	 19.40923	709.55701	 24.10	
 20.413	111.900	 15.46290	  2.97371	 11.07459	 17.88953	 -1.87279	 -0.61924	 19.41109	709.53601	 24.10	
 20.403	116.741	 15.45179	  2.22925	 12.02250	 17.46642	 -1.62857	 -0.65137	 19.43349	709.58502	 24.10	
 20.400	121.604	 15.41950	  1.50942	 12.92945	 16.92964	 -1.32655	 -0.72150	 19.43687	709.58002	 24.10	
 20.410	126.511	 15.39177	  0.84885	 13.81822	 16.30457	 -0.95842	 -0.76038	 19.44036	709.50201	 24.10	
 20.408	131.372	 15.36128	  0.26001	 14.64855	 15.60895	 -0.50481	 -0.81458	 19.43863	709.42603	 24.10	
 20.396	136.227	 15.33346	 -0.26436	 15.41325	 14.83422	  0.00466	 -0.85868	 19.42819	709.57397	 24.10	
 20.392	141.062	 15.29781	 -0.74510	 16.11347	 14.00738	  0.53785	 -0.88867	 19.42142	709.56000	 24.10	
 20.397	145.903	 15.27631	 -1.16393	 16.76531	 13.14155	  1.12715	 -0.89704	 19.44892	709.56403	 24.10	
 20.405	150.835	 15.20513	 -1.51865	 17.30584	 12.16961	  1.80480	 -0.89979	 19.41778	709.59698	 24.00	
 20.401	155.705	 15.17691	 -1.81253	 17.77374	 11.20769	  2.51932	 -0.88581	 19.41185	709.46698	 24.00	
 20.392	160.496	 15.15928	 -2.04614	 18.16016	 10.25952	  3.26982	 -0.88277	 19.41673	709.56097	 24.00	
 20.410	165.423	 15.14026	 -2.24543	 18.48521	  9.22786	  4.10826	 -0.84881	 19.44450	709.62299	 24.00	
 20.407	170.264	 15.09704	 -2.38259	 18.67601	  8.21944	  4.94881	 -0.83967	 19.43638	709.54401	 24.00	
 20.401	175.153	 15.07903	 -2.48658	 18.80652	  7.23392	  5.83658	 -0.81303	 19.44136	709.56598	 24.00	
  0.141	 45.000	 19.47291	 10.54061	 10.45154	 10.26496	 10.63684	  0.20534	 19.41957	709.57703	 24.00	
  4.001	128.691	 19.41361	  9.05614	 11.81276	 11.88237	  8.77888	  0.14789	 19.42197	709.60498	 24.00	
  4.002	 76.995	 19.45319	 10.90541	  9.82992	 12.39288	  8.39288	  0.13579	 19.43861	709.52197	 24.00	
  4.002	 25.892	 19.43190	 12.43221	  8.33682	 11.14653	  9.52405	  0.14566	 19.42198	709.67902	 24.00	
  4.002	-25.892	 19.41939	 12.38717	  8.35308	  9.11374	 11.52793	  0.09791	 19.42529	709.73700	 24.00	
  4.002	-76.995	 19.41139	 10.81184	  9.84248	  7.86558	 12.83700	  0.09971	 19.45783	709.58301	 24.00	
  4.001	-128.691	 19.36937	  8.99105	 11.82133	  8.25022	 12.33340	  0.09396	 19.42505	709.59198	 24.00	
  4.000	180.000	 19.39179	  8.25415	 12.72708	  9.97300	 10.52078	  0.15749	 19.43780	709.59100	 24.00	
  8.000	180.000	 18.93984	  5.67633	 14.76237	  9.42342	  9.99200	 -0.06127	 19.44265	709.57397	 24.00	
  7.991	-152.370	 18.87950	  6.08025	 14.17186	  7.29980	 12.18085	 -0.14536	 19.41651	709.63702	 24.00	
  7.997	-124.550	 18.87853	  7.39325	 12.58792	  5.76213	 13.98280	 -0.19073	 19.42062	709.49298	 24.00	
  8.006	-96.837	 18.88557	  9.26667	 10.43443	  5.12272	 14.84325	 -0.25957	 19.41453	709.55402	 24.00	
  7.988	-69.228	 18.95061	 11.42436	  8.27979	  5.43896	 14.57914	 -0.27659	 19.44744	709.54303	 24.00	
  7.997	-41.563	 19.00122	 13.38056	  6.54949	  6.62881	 13.24379	 -0.22082	 19.43453	709.53302	 24.00	
  8.008	-13.821	 19.05633	 14.53570	  5.61236	  8.56859	 11.18498	 -0.17458	 19.44312	709.56702	 24.00	
  8.008	 13.821	 19.07349	 14.57851	  5.59820	 10.83972	  8.95705	 -0.14811	 19.43790	709.51898	 24.00	
  7.997	 41.563	 19.06761	 13.47912	  6.52156	 12.89050	  7.08491	 -0.13503	 19.40353	709.62799	 24.00	
  7.988	 69.228	 19.07507	 11.57156	  8.23853	 14.22696	  5.94606	 -0.13827	 19.40428	709.48700	 24.00	
  8.006	 96.837	 19.08911	  9.50031	 10.41992	 14.50634	  5.70801	 -0.16244	 19.44050	709.59198	 24.00	
  7.997	124.550	 19.02853	  7.56780	 12.57091	 13.58787	  6.38450	 -0.13883	 19.41879	709.58801	 24.00	
  7.991	152.370	 18.98903	  6.20167	 14.17453	 11.71623	  7.91281	 -0.11236	 19.43560	709.61902	 23.90	
 12.009	161.059	 18.12700	  3.21356	 16.05732	 11.05749	  7.05772	 -0.45903	 19.42663	709.62799	 24.00	
 12.013	142.081	 18.17312	  4.11272	 14.87025	 13.27219	  5.18355	 -0.45579	 19.42369	709.60602	 23.90	
 12.006	123.113	 18.26798	  5.70716	 13.08048	 15.02774	  3.83094	 -0.52792	 19.44820	709.54602	 23.90	
 12.007	104.200	 18.29085	  7.69825	 10.84313	 16.06488	  3.03148	 -0.58275	 19.41880	709.57202	 23.90	
 11.989	 85.301	 18.34157	  9.82108	  8.55386	 16.28588	  2.94667	 -0.54652	 19.42153	709.62799	 23.90	
 12.013	 66.294	 18.35200	 12.07916	  6.40507	 15.71909	  3.41809	 -0.45711	 19.43352	709.62500	 23.90	
 12.012	 47.388	 18.33654	 14.10037	  4.64181	 14.36582	  4.51991	 -0.44684	 19.42870	709.62799	 23.90	
 11.990	 28.440	 18.30138	 15.57780	  3.41724	 12.43725	  6.14702	 -0.53142	 19.42219	709.58899	 23.90	
 11.991	  9.464	 18.29777	 16.35390	  2.79920	 10.18116	  8.18380	 -0.53578	 19.44145	709.43298	 23.90	
 11.991	 -9.464	 18.27579	 16.31928	  2.81874	  7.84972	 10.47579	 -0.51982	 19.44587	709.53003	 23.90	
 11.990	-28.440	 18.22271	 15.47634	  3.44303	  5.71201	 12.72128	 -0.53310	 19.43364	709.50702	 23.90	
 12.012	-47.388	 18.14009	 13.92460	  4.67251	  4.02444	 14.63347	 -0.59041	 19.42681	709.45697	 23.90	
 12.013	-66.294	 18.03877	 11.82258	  6.40900	  2.87724	 15.94967	 -0.67186	 19.39865	709.45099	 23.90	
 11.989	-85.301	 18.01183	  9.54138	  8.55437	  2.41184	 16.52415	 -0.67826	 19.41035	709.50702	 23.90	
 12.007	-104.200	 17.97264	  7.41376	 10.83732	  2.42666	 16.32722	 -0.64584	 19.41271	709.48102	 23.90	
 12.006	-123.113	 17.97718	  5.47671	 13.04852	  3.14076	 15.32504	 -0.54537	 19.43513	709.57703	 23.90	
 12.013	-142.081	 17.98317	  3.99987	 14.86398	  4.52394	 13.61710	 -0.48570	 19.42536	709.52899	 23.90	
 12.009	-161.059	 18.01181	  3.12963	 16.05264	  6.39335	 11.48794	 -0.51411	 19.41498	709.58301	 23.90	
 16.000	180.000	 16.81101	  0.09507	 17.78968	  7.64418	  8.16187	 -0.77779	 19.41283	709.48102	 23.90	
 15.990	-165.604	 16.75353	  0.25462	 17.48558	  5.40162	 10.44038	 -0.80138	 19.42037	709.48499	 23.90	
 16.002	-151.165	 16.72639	  0.84916	 16.56695	  3.41888	 12.68508	 -0.81587	 19.42688	709.58099	 23.90	
 16.002	-136.836	 16.71891	  1.95225	 15.10900	  1.83409	 14.69822	 -0.76485	 19.45203	709.46997	 23.90	
 15.995	-122.439	 16.72510	  3.44597	 13.19690	  0.69111	 16.29199	 -0.79969	 19.45444	709.57501	 23.90	
 15.993	-107.966	 16.70353	  5.21909	 10.97816	 -0.05478	 17.37472	 -0.82399	 19.42584	709.47400	 23.90	
 16.005	-93.629	 16.69350	  7.31298	  8.66985	 -0.38493	 17.86449	 -0.75937	 19.41607	709.47101	 23.90	
 15.992	-79.234	 16.76407	  9.61365	  6.43990	 -0.16322	 17.75319	 -0.68161	 19.44238	709.59497	 23.90	
 16.009	-64.774	 16.79837	 11.90946	  4.40441	  0.38766	 16.98739	 -0.68397	 19.40576	709.51501	 23.90	
 15.997	-50.364	 16.91126	 14.04875	  2.73700	  1.43371	 15.68344	 -0.70733	 19.42000	709.50403	 23.80	
 15.997	-36.045	 17.02525	 15.82885	  1.44889	  2.88063	 13.92748	 -0.69779	 19.46813	709.57501	 23.80	
 16.000	-21.597	 17.06062	 17.04560	  0.58401	  4.72666	 11.76239	 -0.68270	 19.42392	709.45898	 23.80	
 16.003	 -7.169	 17.09819	 17.70750	  0.13448	  6.87980	  9.45100	 -0.65664	 19.42684	709.54901	 23.80	
 16.003	  7.169	 17.12381	 17.75622	  0.12001	  9.16633	  7.18172	 -0.67035	 19.44411	709.51202	 23.80	
 16.000	 21.597	 17.13665	 17.17254	  0.52891	 11.47925	  5.09658	 -0.71516	 19.43563	709.46399	 23.80	
 15.997	 36.045	 17.15838	 15.99950	  1.40033	 13.63504	  3.32836	 -0.72725	 19.43458	709.50500	 23.80	
 15.997	 50.364	 17.19867	 14.32402	  2.68468	 15.48349	  1.89408	 -0.69430	 19.45140	709.40802	 23.80	
 16.009	 64.774	 17.19853	 12.24981	  4.37614	 16.81318	  0.90394	 -0.70171	 19.42894	709.48499	 23.80	
 15.992	 79.234	 17.21295	  9.97151	  6.41971	 17.57066	  0.36416	 -0.77646	 19.42826	709.48999	 23.80	
 16.005	 93.629	 17.17774	  7.73752	  8.67311	 17.71009	  0.21364	 -0.77803	 19.42933	709.47302	 23.80	
 15.993	107.966	 17.16351	  5.54904	 11.00258	 17.22088	  0.59523	 -0.77272	 19.43379	709.53497	 23.80	
 15.995	122.439	 17.06836	  3.65608	 13.19951	 16.07264	  1.32706	 -0.77625	 19.39715	709.41998	 23.80	
 16.002	136.836	 17.03549	  2.15139	 15.13939	 14.44332	  2.51052	 -0.75802	 19.44813	709.54303	 23.80	
 16.002	151.165	 16.95497	  1.00364	 16.59121	 12.35236	  4.06678	 -0.76487	 19.43345	709.38898	 23.80	
 15.990	165.604	 16.90663	  0.33470	 17.51018	 10.02225	  6.00827	 -0.76968	 19.43646	709.38098	 23.80	
 20.003	168.362	 15.28590	 -2.11729	 18.52264	  8.69822	  4.76050	 -0.83663	 19.41064	709.36700	 23.80	
 20.008	156.764	 15.37490	 -1.66484	 17.84301	 11.07565	  2.86324	 -0.87970	 19.43184	709.33801	 23.80	
 20.000	145.147	 15.44774	 -0.89050	 16.63171	 13.29182	  1.22868	 -0.88985	 19.43499	709.51501	 23.80	
 19.995	133.545	 15.53387	  0.23301	 15.00711	 15.23444	 -0.05837	 -0.83272	 19.43711	709.44202	 23.80	
 20.009	121.926	 15.59571	  1.66369	 13.03942	 16.85182	 -1.08841	 -0.71402	 19.44519	709.37799	 23.80	
 20.005	110.327	 15.68432	  3.42622	 10.87347	 17.99166	 -1.70939	 -0.61309	 19.46008	709.36902	 23.80	
 19.989	 98.733	 15.70536	  5.43252	  8.60042	 18.57544	 -2.08586	 -0.58699	 19.41078	709.41101	 23.80	
 19.999	 87.075	 15.71360	  7.63233	  6.32102	 18.68993	 -2.18077	 -0.64094	 19.39828	709.43597	 23.80	
 19.992	 75.457	 15.75061	  9.88981	  4.22421	 18.36931	 -1.93512	 -0.74803	 19.43398	709.47803	 23.80	
 20.009	 63.844	 15.74210	 12.11427	  2.33474	 17.54088	 -1.42476	 -0.79849	 19.44915	709.62799	 23.80	
 19.989	 52.269	 15.72493	 14.18364	  0.75144	 16.21990	 -0.55698	 -0.77850	 19.44750	709.50702	 23.80	
 19.999	 40.602	 15.68174	 15.98027	 -0.51100	 14.48378	  0.62352	 -0.69706	 19.44620	709.27600	 23.80	
 20.004	 29.051	 15.63905	 17.35076	 -1.44342	 12.42818	  2.13059	 -0.59777	 19.42366	709.33301	 23.80	
 20.005	 17.433	 15.61447	 18.28516	 -2.04618	 10.20536	  3.92980	 -0.52793	 19.42136	709.33899	 23.80	
 20.006	  5.780	 15.60253	 18.73963	 -2.35073	  7.92619	  5.96107	 -0.53653	 19.43402	709.30701	 23.80	
 20.006	 -5.780	 15.57224	 18.69402	 -2.35011	  5.67960	  8.17401	 -0.55004	 19.41760	709.38800	 23.80	
 20.005	-17.433	 15.56418	 18.19439	 -2.02802	  3.58944	 10.46958	 -0.56224	 19.43697	709.45001	 23.80	
 20.004	-29.051	 15.51178	 17.17089	 -1.41297	  1.73839	 12.68509	 -0.59372	 19.43076	709.37201	 23.80	
 19.999	-40.602	 15.44097	 15.69559	 -0.47866	  0.19226	 14.68363	 -0.58302	 19.43533	709.41199	 23.80	
 19.989	-52.269	 15.34355	 13.82823	  0.77463	 -1.04982	 16.38423	 -0.56300	 19.43509	709.47101	 23.80	
 20.009	-63.844	 15.24798	 11.71629	  2.35325	 -1.91537	 17.63359	 -0.50562	 19.41282	709.34698	 23.80	
 19.992	-75.457	 15.18953	  9.45383	  4.23121	 -2.51353	 18.46003	 -0.50821	 19.42956	709.38898	 23.80	
 19.999	-87.075	 15.11002	  7.21275	  6.30336	 -2.76683	 18.76568	 -0.55172	 19.40987	709.31000	 23.80	
 19.989	-98.733	 15.10892	  5.01510	  8.56799	 -2.73513	 18.64144	 -0.59732	 19.42647	709.41699	 23.80	
 20.005	-110.327	 15.08509	  3.03896	 10.81727	 -2.39839	 18.01001	 -0.73174	 19.42085	709.32202	 23.80	
 20.009	-121.926	 15.09799	  1.36088	 12.98509	 -1.73279	 16.93392	 -0.83323	 19.43333	709.36902	 23.80	
 19.995	-133.545	 15.08618	 -0.02902	 14.92468	 -0.77133	 15.38883	 -0.87484	 19.41933	709.45697	 23.70	
 20.000	-145.147	 15.08753	 -1.09447	 16.54962	  0.54871	 13.49819	 -0.80971	 19.40962	709.33197	 23.80	
 20.008	-156.764	 15.13824	 -1.80310	 17.79531	  2.22366	 11.38831	 -0.73767	 19.43643	709.34601	 23.80	
 20.003	-168.362	 15.17916	 -2.16405	 18.52796	  4.18966	  9.15687	 -0.72358	 19.42788	709.42297	 23.80	
 20.000	180.000	 15.25694	 -2.29606	 18.78961	  6.38209	  6.91707	 -0.77408	 19.45078	709.43402	 23.80	
