FileType=PCF
NHL=14
Date=08/25/17	17:09:10
Facility=APL
Serial=16328-7
Customer=NASA
NP=6
Mach=0.100000
Calibration=1:1
CalPts=490
TstPts=95
PortNumbering=AP Standard
Units=Torr C m/s kg/m^3 deg mm 
Theta[deg]	Phi[deg]	P1[Torr]	P2[Torr]	P3[Torr]	P4[Torr]	P5[Torr]	P6[Torr]	Pt[Torr]	Ps[Abs,Torr]	Ts[C]	
  0.000	  0.000	  4.93492	  2.67882	  2.70854	  2.63791	  2.76674	  0.03161	  4.92994	707.40002	 22.30	
  1.691	128.401	  4.92965	  2.53304	  2.83072	  2.79485	  2.58402	  0.02915	  4.92631	707.21600	 22.30	
  1.692	 77.194	  4.93868	  2.72702	  2.64866	  2.84274	  2.54459	  0.02880	  4.93590	707.30402	 22.30	
  1.699	 26.182	  4.93486	  2.88095	  2.49802	  2.73816	  2.65601	  0.02810	  4.93136	707.45203	 22.30	
  1.699	-26.182	  4.93871	  2.87750	  2.50195	  2.53785	  2.85452	  0.02825	  4.93602	707.44897	 22.30	
  1.692	-77.194	  4.93475	  2.71049	  2.65116	  2.41890	  2.96223	  0.02247	  4.93441	707.38800	 22.30	
  1.691	-128.401	  4.92770	  2.52605	  2.82622	  2.45007	  2.91343	  0.02515	  4.92676	707.40802	 22.30	
  1.700	180.000	  4.94136	  2.45592	  2.92422	  2.63522	  2.74663	  0.03014	  4.94022	707.40802	 22.30	
  3.400	180.000	  4.93916	  2.19431	  3.16511	  2.59627	  2.72187	  0.01891	  4.94693	707.40698	 22.30	
  3.388	-152.325	  4.90899	  2.22194	  3.08484	  2.36379	  2.92604	  0.01010	  4.91710	707.47803	 22.30	
  3.397	-124.529	  4.92286	  2.36481	  2.93804	  2.21432	  3.11111	  0.00738	  4.93459	707.51801	 22.30	
  3.399	-96.763	  4.92002	  2.56826	  2.71635	  2.14197	  3.19722	  0.00193	  4.93186	707.43799	 22.30	
  3.394	-69.283	  4.92191	  2.79178	  2.49951	  2.16887	  3.17024	  0.00360	  4.93210	707.57098	 22.30	
  3.400	-41.398	  4.91085	  2.98413	  2.31782	  2.28852	  3.02709	  0.00688	  4.91626	707.49500	 22.30	
  3.401	-14.021	  4.93013	  3.10842	  2.23130	  2.49076	  2.83513	  0.01023	  4.93254	707.49200	 22.30	
  3.401	 14.021	  4.92933	  3.11372	  2.23293	  2.72638	  2.60678	  0.01403	  4.92975	707.45898	 22.30	
  3.400	 41.398	  4.93808	  3.00787	  2.33551	  2.93068	  2.42606	  0.01575	  4.93703	707.42102	 22.30	
  3.394	 69.283	  4.93248	  2.82261	  2.50200	  3.05543	  2.31404	  0.01960	  4.93070	707.48700	 22.30	
  3.399	 96.763	  4.92362	  2.58828	  2.72002	  3.07823	  2.28190	  0.01552	  4.92439	707.47601	 22.30	
  3.397	124.529	  4.92530	  2.38940	  2.93290	  2.99188	  2.35123	  0.01802	  4.92568	707.54602	 22.30	
  3.388	152.325	  4.92688	  2.24562	  3.09452	  2.81554	  2.50478	  0.01638	  4.93442	707.50598	 22.30	
  5.099	161.165	  4.89098	  1.94469	  3.33876	  2.78256	  2.44137	  0.00004	  4.92291	707.45898	 22.30	
  5.109	142.013	  4.90337	  2.06254	  3.21864	  3.01381	  2.25006	  0.00046	  4.93215	707.38300	 22.30	
  5.095	123.033	  4.90299	  2.23185	  3.02811	  3.18321	  2.10958	  0.00092	  4.92693	707.46100	 22.30	
  5.105	104.191	  4.92368	  2.44216	  2.81490	  3.30398	  2.02739	 -0.00500	  4.94359	707.51703	 22.30	
  5.093	 85.207	  4.92093	  2.67835	  2.57391	  3.32329	  2.01358	 -0.00596	  4.93651	707.49402	 22.30	
  5.104	 66.290	  4.92555	  2.91479	  2.35045	  3.26709	  2.06490	 -0.00189	  4.94325	707.50000	 22.30	
  5.094	 47.331	  4.91651	  3.11261	  2.16080	  3.12348	  2.17589	 -0.00198	  4.93105	707.48999	 22.30	
  5.089	 28.397	  4.91935	  3.26785	  2.02925	  2.93088	  2.35045	 -0.00483	  4.93670	707.44501	 22.30	
  5.096	  9.576	  4.91305	  3.34844	  1.95225	  2.69257	  2.56843	 -0.00641	  4.93207	707.29797	 22.30	
  5.096	 -9.576	  4.91140	  3.34233	  1.95398	  2.44878	  2.80762	 -0.01136	  4.93454	707.48999	 22.30	
  5.089	-28.397	  4.90271	  3.24983	  2.01961	  2.22623	  3.03189	 -0.01623	  4.92921	707.42798	 22.30	
  5.094	-47.331	  4.89403	  3.09010	  2.15194	  2.04377	  3.22680	 -0.01868	  4.92655	707.43298	 22.30	
  5.104	-66.290	  4.89448	  2.88092	  2.34136	  1.91683	  3.37134	 -0.02104	  4.93136	707.34601	 22.30	
  5.093	-85.207	  4.89818	  2.64725	  2.57025	  1.86348	  3.43666	 -0.02338	  4.93864	707.33801	 22.30	
  5.105	-104.191	  4.89115	  2.40896	  2.80847	  1.87469	  3.41157	 -0.01861	  4.93369	707.41400	 22.30	
  5.095	-123.033	  4.89029	  2.20451	  3.03302	  1.96222	  3.30467	 -0.01128	  4.93232	707.53998	 22.30	
  5.109	-142.013	  4.89910	  2.04419	  3.22415	  2.11292	  3.13673	 -0.00510	  4.94053	707.43903	 22.30	
  5.099	-161.165	  4.89101	  1.94313	  3.33881	  2.31122	  2.90985	 -0.00229	  4.93152	707.34100	 22.30	
  5.100	180.000	  4.89220	  1.91341	  3.37974	  2.54139	  2.67637	  0.00193	  4.92659	707.44501	 22.30	
  6.800	180.000	  4.84230	  1.62217	  3.59984	  2.48496	  2.61953	 -0.02253	  4.92740	707.35400	 22.30	
  6.796	-166.229	  4.84419	  1.64620	  3.57274	  2.25428	  2.85774	 -0.03194	  4.93483	707.47498	 22.30	
  6.808	-152.311	  4.82659	  1.71212	  3.47363	  2.03677	  3.07619	 -0.03074	  4.91638	707.39301	 22.30	
  6.795	-138.383	  4.83968	  1.83065	  3.33984	  1.85639	  3.29140	 -0.03896	  4.93591	707.43799	 22.30	
  6.792	-124.591	  4.83266	  1.99112	  3.14641	  1.71236	  3.45744	 -0.04656	  4.92819	707.32800	 22.30	
  6.787	-110.754	  4.82344	  2.18040	  2.92422	  1.61381	  3.56834	 -0.05649	  4.91736	707.44702	 22.30	
  6.800	-96.985	  4.82835	  2.40320	  2.69280	  1.56783	  3.63624	 -0.05902	  4.92208	707.51501	 22.30	
  6.800	-83.015	  4.85433	  2.65742	  2.46183	  1.57632	  3.65697	 -0.06405	  4.94466	707.39001	 22.30	
  6.787	-69.246	  4.83322	  2.87321	  2.23180	  1.62462	  3.57728	 -0.06581	  4.91999	707.51099	 22.30	
  6.792	-55.409	  4.84989	  3.10171	  2.03876	  1.73213	  3.46925	 -0.05922	  4.93026	707.43799	 22.30	
  6.795	-41.617	  4.85196	  3.29438	  1.87524	  1.88077	  3.30295	 -0.04926	  4.92658	707.45300	 22.30	
  6.808	-27.689	  4.86829	  3.45208	  1.75661	  2.07563	  3.10166	 -0.04642	  4.93684	707.42102	 22.30	
  6.796	-13.771	  4.86044	  3.53816	  1.67816	  2.28738	  2.86921	 -0.03993	  4.92619	707.34601	 22.30	
  6.800	  0.000	  4.86810	  3.57676	  1.65511	  2.52170	  2.63718	 -0.03395	  4.92793	707.42401	 22.30	
  6.796	 13.771	  4.87673	  3.54990	  1.68351	  2.76472	  2.40717	 -0.03653	  4.93303	707.32599	 22.30	
  6.808	 27.689	  4.87480	  3.46740	  1.75567	  2.99525	  2.19650	 -0.02954	  4.93125	707.34302	 22.30	
  6.795	 41.617	  4.87216	  3.31683	  1.88050	  3.19477	  2.01588	 -0.02829	  4.92153	707.55103	 22.30	
  6.792	 55.409	  4.87676	  3.13391	  2.04483	  3.36386	  1.87377	 -0.03200	  4.92851	707.44397	 22.20	
  6.787	 69.246	  4.86501	  2.91189	  2.23447	  3.47281	  1.77401	 -0.02713	  4.91706	707.49402	 22.20	
  6.800	 83.015	  4.87439	  2.68990	  2.45967	  3.54264	  1.72525	 -0.02679	  4.92733	707.45300	 22.20	
  6.800	 96.985	  4.88126	  2.45311	  2.70101	  3.54588	  1.72513	 -0.03079	  4.93643	707.53400	 22.20	
  6.787	110.754	  4.86882	  2.22749	  2.92605	  3.47046	  1.77537	 -0.03391	  4.92818	707.54797	 22.20	
  6.792	124.591	  4.85074	  2.02275	  3.13788	  3.34004	  1.86405	 -0.03075	  4.91392	707.40802	 22.20	
  6.795	138.383	  4.84072	  1.85060	  3.32492	  3.16620	  1.99588	 -0.02738	  4.90898	707.56201	 22.20	
  6.808	152.311	  4.84326	  1.72991	  3.47378	  2.96011	  2.17684	 -0.02191	  4.91733	707.45502	 22.20	
  6.796	166.229	  4.84362	  1.65415	  3.56591	  2.72689	  2.39141	 -0.02106	  4.92157	707.59003	 22.20	
  8.491	168.704	  4.77320	  1.35814	  3.77171	  2.66839	  2.31501	 -0.05448	  4.91842	707.57397	 22.20	
  8.502	157.493	  4.78814	  1.41925	  3.70869	  2.91536	  2.09646	 -0.06055	  4.93210	707.51099	 22.20	
  8.494	146.194	  4.79677	  1.53154	  3.58350	  3.14834	  1.90488	 -0.05792	  4.93339	707.46198	 22.20	
  8.495	135.039	  4.79338	  1.66573	  3.41576	  3.34822	  1.73458	 -0.05853	  4.92224	707.32098	 22.20	
  8.487	123.723	  4.80634	  1.84571	  3.21806	  3.52445	  1.59954	 -0.06918	  4.93030	707.41602	 22.20	
  8.492	112.575	  4.81631	  2.04676	  3.00071	  3.65457	  1.50756	 -0.07264	  4.93248	707.34900	 22.20	
  8.510	101.220	  4.80263	  2.26434	  2.75070	  3.72102	  1.44112	 -0.07145	  4.91436	707.44702	 22.20	
  8.500	 90.000	  4.82050	  2.50958	  2.51555	  3.75951	  1.42806	 -0.06620	  4.92856	707.61298	 22.20	
  8.510	 78.780	  4.81921	  2.75135	  2.27470	  3.73596	  1.44557	 -0.06352	  4.92508	707.57300	 22.20	
  8.492	 67.425	  4.82293	  2.99211	  2.05381	  3.66193	  1.51070	 -0.06485	  4.92873	707.54797	 22.20	
  8.487	 56.277	  4.81897	  3.21119	  1.85402	  3.54019	  1.60703	 -0.05905	  4.92588	707.49799	 22.20	
  8.495	 44.961	  4.80827	  3.40227	  1.67472	  3.36920	  1.73862	 -0.05989	  4.91741	707.41302	 22.20	
  8.494	 33.806	  4.82032	  3.57171	  1.54666	  3.17978	  1.91584	 -0.06569	  4.93208	707.32001	 22.20	
  8.502	 22.507	  4.81056	  3.68716	  1.44171	  2.94998	  2.11340	 -0.07202	  4.92365	707.45898	 22.20	
  8.491	 11.296	  4.79720	  3.74916	  1.37915	  2.70514	  2.32837	 -0.06953	  4.91338	707.33398	 22.20	
  8.500	  0.000	  4.79461	  3.77211	  1.35506	  2.45385	  2.56670	 -0.06950	  4.91398	707.39001	 22.20	
  8.491	-11.296	  4.80863	  3.75286	  1.38391	  2.22356	  2.81679	 -0.07506	  4.92797	707.41302	 22.20	
  8.502	-22.507	  4.80630	  3.67831	  1.44383	  1.99824	  3.05570	 -0.08053	  4.93350	707.38800	 22.20	
  8.494	-33.806	  4.79821	  3.54539	  1.54527	  1.78591	  3.28048	 -0.08293	  4.93319	707.37299	 22.20	
  8.495	-44.961	  4.78780	  3.37322	  1.68265	  1.60977	  3.47456	 -0.08888	  4.93015	707.46997	 22.20	
  8.487	-56.277	  4.77733	  3.16894	  1.85358	  1.46729	  3.63076	 -0.09772	  4.92172	707.48602	 22.20	
  8.492	-67.425	  4.77721	  2.94715	  2.05220	  1.36493	  3.75407	 -0.10559	  4.92852	707.52502	 22.20	
  8.510	-78.780	  4.77221	  2.70297	  2.27630	  1.29348	  3.83172	 -0.11084	  4.92980	707.42999	 22.20	
  8.500	-90.000	  4.76445	  2.45658	  2.51091	  1.26726	  3.85150	 -0.10871	  4.92872	707.46100	 22.20	
  8.510	-101.220	  4.76355	  2.21947	  2.75585	  1.28457	  3.82437	 -0.10148	  4.92836	707.40399	 22.20	
  8.492	-112.575	  4.75877	  1.99926	  2.99235	  1.34529	  3.73999	 -0.09059	  4.92518	707.42401	 22.20	
  8.487	-123.723	  4.76498	  1.80517	  3.21858	  1.44446	  3.62055	 -0.08034	  4.93099	707.45502	 22.20	
  8.495	-135.039	  4.75252	  1.62669	  3.41005	  1.56895	  3.44983	 -0.07592	  4.91912	707.38202	 22.20	
  8.494	-146.194	  4.76912	  1.50529	  3.58376	  1.74935	  3.26176	 -0.06490	  4.93489	707.31500	 22.20	
  8.502	-157.493	  4.78069	  1.40800	  3.71647	  1.95610	  3.04040	 -0.07093	  4.94473	707.35101	 22.20	
  8.491	-168.704	  4.76394	  1.34718	  3.77413	  2.17340	  2.79142	 -0.06365	  4.92022	707.42200	 22.30	
  8.500	180.000	  4.78327	  1.33519	  3.81218	  2.42272	  2.55980	 -0.05493	  4.93517	707.36798	 22.20	
 10.200	180.000	  4.68658	  1.03743	  3.99723	  2.34121	  2.47718	 -0.09186	  4.92712	707.39697	 22.30	
 10.191	-170.497	  4.68421	  1.04925	  3.97593	  2.09646	  2.71953	 -0.10228	  4.92898	707.34900	 22.30	
 10.210	-161.034	  4.67414	  1.09441	  3.90818	  1.86242	  2.95861	 -0.10843	  4.92787	707.52100	 22.20	
 10.194	-151.526	  4.67603	  1.17552	  3.80333	  1.64580	  3.19556	 -0.11060	  4.93099	707.40802	 22.20	
 10.190	-142.105	  4.67829	  1.28917	  3.66003	  1.45887	  3.41351	 -0.10815	  4.93297	707.44897	 22.20	
 10.215	-132.646	  4.66893	  1.43201	  3.47748	  1.29521	  3.60227	 -0.10983	  4.92674	707.38800	 22.20	
 10.203	-123.092	  4.67802	  1.60540	  3.27796	  1.16550	  3.77373	 -0.12337	  4.93724	707.29498	 22.20	
 10.192	-113.678	  4.67933	  1.80442	  3.04991	  1.06830	  3.90172	 -0.13823	  4.93564	707.51099	 22.20	
 10.208	-104.249	  4.66088	  2.01486	  2.79868	  0.99756	  3.98013	 -0.14432	  4.91574	707.41901	 22.20	
 10.210	-94.801	  4.66959	  2.25194	  2.55880	  0.96878	  4.03171	 -0.14981	  4.92159	707.55103	 22.20	
 10.210	-85.199	  4.68158	  2.50543	  2.31439	  0.97671	  4.04131	 -0.15693	  4.93527	707.53998	 22.20	
 10.208	-75.751	  4.68502	  2.75351	  2.08005	  1.01720	  3.99865	 -0.15429	  4.93050	707.57703	 22.20	
 10.192	-66.322	  4.69832	  2.99843	  1.86551	  1.09511	  3.91947	 -0.14889	  4.93889	707.46899	 22.20	
 10.203	-56.908	  4.69140	  3.22086	  1.65941	  1.19576	  3.78612	 -0.14051	  4.92428	707.42401	 22.20	
 10.215	-47.354	  4.70799	  3.44193	  1.48291	  1.33848	  3.63271	 -0.13345	  4.93488	707.35999	 22.20	
 10.190	-37.895	  4.71188	  3.61880	  1.33703	  1.50413	  3.43921	 -0.12326	  4.93066	707.39301	 22.20	
 10.194	-28.474	  4.71262	  3.76023	  1.21993	  1.69353	  3.22017	 -0.12041	  4.92345	707.34601	 22.20	
 10.210	-18.966	  4.72303	  3.87763	  1.13507	  1.91623	  2.98678	 -0.11648	  4.92655	707.38800	 22.20	
 10.191	 -9.503	  4.74392	  3.95913	  1.09024	  2.15675	  2.75510	 -0.11418	  4.94116	707.39697	 22.20	
 10.200	  0.000	  4.72658	  3.97262	  1.06446	  2.38991	  2.49931	 -0.10737	  4.92459	707.41400	 22.20	
 10.191	  9.503	  4.72938	  3.95447	  1.08145	  2.64136	  2.25640	 -0.10818	  4.92263	707.38501	 22.20	
 10.210	 18.966	  4.74238	  3.90352	  1.13160	  2.89354	  2.03362	 -0.10914	  4.93511	707.47601	 22.20	
 10.194	 28.474	  4.74931	  3.80054	  1.22180	  3.13249	  1.82661	 -0.10548	  4.93947	707.50299	 22.30	
 10.190	 37.895	  4.74710	  3.65553	  1.33783	  3.34959	  1.63502	 -0.09756	  4.93232	707.52899	 22.20	
 10.215	 47.354	  4.74316	  3.47797	  1.48039	  3.53999	  1.46787	 -0.09478	  4.92683	707.44897	 22.30	
 10.203	 56.908	  4.73369	  3.26421	  1.65613	  3.69234	  1.33619	 -0.09104	  4.91499	707.31000	 22.20	
 10.192	 66.322	  4.75340	  3.05076	  1.86408	  3.82618	  1.24467	 -0.09859	  4.93206	707.36798	 22.20	
 10.208	 75.751	  4.75533	  2.81216	  2.08293	  3.91853	  1.17073	 -0.10586	  4.93694	707.45599	 22.20	
 10.210	 85.199	  4.75290	  2.56911	  2.31974	  3.95718	  1.14082	 -0.10571	  4.93459	707.29999	 22.20	
 10.210	 94.801	  4.74050	  2.31396	  2.56255	  3.94915	  1.13375	 -0.11057	  4.92669	707.37701	 22.30	
 10.208	104.249	  4.76128	  2.09149	  2.82179	  3.92091	  1.17678	 -0.11443	  4.95168	707.50098	 22.20	
 10.192	113.678	  4.73087	  1.86203	  3.04660	  3.80900	  1.24041	 -0.10994	  4.92530	707.39600	 22.30	
 10.203	123.092	  4.72477	  1.65839	  3.27332	  3.68160	  1.33250	 -0.10309	  4.92552	707.55103	 22.30	
 10.215	132.646	  4.72261	  1.47974	  3.48286	  3.51644	  1.45906	 -0.09375	  4.93028	707.54797	 22.30	
 10.190	142.105	  4.70334	  1.32386	  3.65237	  3.30751	  1.61239	 -0.09389	  4.92085	707.58502	 22.30	
 10.194	151.526	  4.70625	  1.20942	  3.80089	  3.08655	  1.80534	 -0.09342	  4.92761	707.44501	 22.30	
 10.210	161.034	  4.69139	  1.11530	  3.90336	  2.84278	  2.00790	 -0.09300	  4.91792	707.33698	 22.30	
 10.191	170.497	  4.69040	  1.05922	  3.97318	  2.59467	  2.23159	 -0.09753	  4.92368	707.17102	 22.20	
 11.899	171.783	  4.58316	  0.76615	  4.14901	  2.50563	  2.14123	 -0.13310	  4.92057	707.46899	 22.30	
 11.890	163.610	  4.59641	  0.81869	  4.09584	  2.75919	  1.91974	 -0.12989	  4.92681	707.44397	 22.30	
 11.889	155.445	  4.59436	  0.88604	  3.99853	  3.00114	  1.70013	 -0.13946	  4.92209	707.47998	 22.30	
 11.909	147.299	  4.61056	  0.99354	  3.87768	  3.24608	  1.50625	 -0.13016	  4.92800	707.47198	 22.30	
 11.902	139.148	  4.61259	  1.12321	  3.71661	  3.46077	  1.33128	 -0.13259	  4.92520	707.53198	 22.30	
 11.894	130.867	  4.62067	  1.28628	  3.52484	  3.65087	  1.19005	 -0.13192	  4.92431	707.44897	 22.30	
 11.897	122.732	  4.64304	  1.46978	  3.32555	  3.83182	  1.06688	 -0.14291	  4.93938	707.43103	 22.30	
 11.903	114.597	  4.64131	  1.66455	  3.09157	  3.95741	  0.96709	 -0.15245	  4.93158	707.48602	 22.30	
 11.893	106.346	  4.65289	  1.88926	  2.84996	  4.06444	  0.89648	 -0.15996	  4.93694	707.42798	 22.30	
 11.892	 98.155	  4.64929	  2.11801	  2.59926	  4.11567	  0.85499	 -0.15913	  4.92616	707.46100	 22.20	
 11.900	 90.000	  4.64950	  2.35943	  2.34981	  4.13408	  0.83915	 -0.14940	  4.92404	707.41602	 22.30	
 11.892	 81.845	  4.65816	  2.60885	  2.11192	  4.12290	  0.85501	 -0.14391	  4.92978	707.47998	 22.30	
 11.893	 73.654	  4.65379	  2.85007	  1.87997	  4.06315	  0.89785	 -0.13638	  4.92516	707.49500	 22.30	
 11.903	 65.403	  4.66099	  3.09725	  1.65968	  3.97682	  0.97020	 -0.13313	  4.93189	707.41901	 22.30	
 11.897	 57.268	  4.66731	  3.32757	  1.46263	  3.85429	  1.07208	 -0.13350	  4.94119	707.35400	 22.30	
 11.894	 49.133	  4.65920	  3.53275	  1.28839	  3.68867	  1.20147	 -0.12735	  4.93351	707.42798	 22.30	
 11.902	 40.852	  4.64805	  3.71307	  1.12897	  3.49605	  1.34980	 -0.13260	  4.92728	707.39001	 22.30	
 11.909	 32.701	  4.63875	  3.86494	  0.99957	  3.28103	  1.52187	 -0.14348	  4.92088	707.45300	 22.30	
 11.889	 24.555	  4.64015	  3.98980	  0.90252	  3.04997	  1.72700	 -0.14722	  4.92347	707.44897	 22.30	
 11.890	 16.390	  4.63697	  4.07850	  0.83202	  2.80864	  1.94115	 -0.14642	  4.92014	707.44397	 22.30	
 11.899	  8.217	  4.63191	  4.12822	  0.78573	  2.56013	  2.16889	 -0.14625	  4.91998	707.33698	 22.30	
 11.900	  0.000	  4.64382	  4.15714	  0.77449	  2.31221	  2.42228	 -0.14897	  4.93754	707.34497	 22.30	
 11.899	 -8.217	  4.63296	  4.12707	  0.78831	  2.06274	  2.66390	 -0.14989	  4.92604	707.43597	 22.30	
 11.890	-16.390	  4.62503	  4.06292	  0.83280	  1.82917	  2.90512	 -0.14781	  4.92466	707.34497	 22.30	
 11.889	-24.555	  4.61896	  3.96270	  0.90483	  1.60667	  3.14555	 -0.15262	  4.92357	707.46899	 22.30	
 11.909	-32.701	  4.61188	  3.83276	  1.00304	  1.40075	  3.37061	 -0.15412	  4.92435	707.41101	 22.30	
 11.902	-40.852	  4.60608	  3.66841	  1.13081	  1.22309	  3.57633	 -0.16411	  4.92375	707.48297	 22.30	
 11.894	-49.133	  4.59565	  3.46886	  1.28607	  1.06115	  3.76122	 -0.17323	  4.91957	707.36798	 22.30	
 11.897	-57.268	  4.59380	  3.26130	  1.46451	  0.93099	  3.92590	 -0.18016	  4.92720	707.38300	 22.30	
 11.903	-65.403	  4.58406	  3.02790	  1.65974	  0.82046	  4.05210	 -0.18494	  4.92622	707.36200	 22.30	
 11.893	-73.654	  4.57216	  2.77855	  1.87821	  0.74578	  4.13450	 -0.19302	  4.92160	707.33502	 22.30	
 11.892	-81.845	  4.58317	  2.53856	  2.11733	  0.70315	  4.19950	 -0.19473	  4.93657	707.21698	 22.30	
 11.900	-90.000	  4.56694	  2.28343	  2.35251	  0.67914	  4.20687	 -0.19608	  4.92514	707.34100	 22.30	
 11.892	-98.155	  4.55957	  2.04138	  2.59536	  0.69087	  4.17898	 -0.19098	  4.91941	707.34100	 22.30	
 11.893	-106.346	  4.57320	  1.81902	  2.84836	  0.72795	  4.13609	 -0.18045	  4.93738	707.46198	 22.30	
 11.903	-114.597	  4.57225	  1.60105	  3.09129	  0.79329	  4.04234	 -0.16882	  4.93802	707.36902	 22.30	
 11.897	-122.732	  4.57254	  1.40869	  3.31887	  0.89373	  3.91072	 -0.15724	  4.93741	707.47198	 22.30	
 11.894	-130.867	  4.55878	  1.23382	  3.51638	  1.01785	  3.73703	 -0.14685	  4.92105	707.38300	 22.30	
 11.902	-139.148	  4.56395	  1.08266	  3.71224	  1.17313	  3.54982	 -0.14245	  4.92683	707.40002	 22.30	
 11.909	-147.299	  4.56319	  0.95768	  3.87237	  1.34664	  3.33912	 -0.14583	  4.92382	707.35901	 22.30	
 11.889	-155.445	  4.56932	  0.86878	  3.99970	  1.54953	  3.11491	 -0.14800	  4.92941	707.33502	 22.30	
 11.890	-163.610	  4.56488	  0.80046	  4.08643	  1.76876	  2.86940	 -0.14383	  4.91970	707.27197	 22.30	
 11.899	-171.783	  4.58056	  0.76082	  4.15423	  2.00731	  2.63325	 -0.13856	  4.93221	707.36603	 22.30	
 11.900	180.000	  4.57952	  0.74984	  4.16785	  2.25053	  2.38481	 -0.13040	  4.92222	707.35999	 22.30	
 13.600	180.000	  4.46101	  0.46421	  4.32728	  2.15178	  2.28361	 -0.17162	  4.92719	707.40503	 22.30	
 13.608	-172.853	  4.46186	  0.47136	  4.31954	  1.91051	  2.52884	 -0.17976	  4.93767	707.43903	 22.30	
 13.611	-165.583	  4.44585	  0.50085	  4.26154	  1.66836	  2.76954	 -0.18571	  4.92698	707.55603	 22.30	
 13.601	-158.353	  4.43954	  0.56116	  4.17085	  1.44043	  3.01270	 -0.18633	  4.92283	707.45599	 22.30	
 13.609	-151.210	  4.44377	  0.64126	  4.06544	  1.23762	  3.24909	 -0.18437	  4.92932	707.42798	 22.30	
 13.611	-143.999	  4.43885	  0.74652	  3.91868	  1.05015	  3.46904	 -0.17945	  4.92792	707.42999	 22.30	
 13.601	-136.825	  4.44148	  0.87620	  3.74920	  0.88286	  3.67737	 -0.17741	  4.93292	707.31500	 22.30	
 13.596	-129.640	  4.43617	  1.02531	  3.54917	  0.73676	  3.85800	 -0.18142	  4.92356	707.46399	 22.30	
 13.611	-122.431	  4.44746	  1.20015	  3.34494	  0.61869	  4.02834	 -0.19121	  4.93860	707.41400	 22.30	
 13.604	-115.211	  4.44768	  1.39374	  3.11357	  0.52540	  4.15638	 -0.19883	  4.93911	707.35199	 22.30	
 13.595	-108.042	  4.43928	  1.60116	  2.86819	  0.45691	  4.24834	 -0.21175	  4.92650	707.33099	 22.40	
 13.607	-100.793	  4.44535	  1.82608	  2.62365	  0.40937	  4.32455	 -0.21895	  4.93161	707.27301	 22.30	
 13.601	-93.617	  4.45318	  2.06486	  2.38007	  0.39223	  4.36596	 -0.22139	  4.93730	707.38000	 22.40	
 13.601	-86.383	  4.45939	  2.31164	  2.13481	  0.39679	  4.37171	 -0.22098	  4.94265	707.28998	 22.40	
 13.607	-79.207	  4.45719	  2.55749	  1.89743	  0.42428	  4.33581	 -0.21580	  4.93561	707.35901	 22.40	
 13.595	-71.958	  4.46387	  2.80942	  1.66919	  0.48149	  4.26979	 -0.20790	  4.93571	707.23102	 22.40	
 13.604	-64.789	  4.46963	  3.05333	  1.45695	  0.55740	  4.17658	 -0.20712	  4.93453	707.31500	 22.40	
 13.611	-57.569	  4.48003	  3.29033	  1.26020	  0.66075	  4.05381	 -0.20057	  4.93663	707.25897	 22.40	
 13.596	-50.360	  4.48590	  3.50523	  1.08398	  0.78795	  3.89570	 -0.19772	  4.93325	707.33099	 22.40	
 13.601	-43.175	  4.48056	  3.69647	  0.92674	  0.93709	  3.70361	 -0.18912	  4.91792	707.45203	 22.40	
 13.611	-36.001	  4.50706	  3.89005	  0.79464	  1.11116	  3.51629	 -0.18435	  4.94001	707.28302	 22.40	
 13.609	-28.790	  4.52027	  4.04444	  0.68479	  1.30563	  3.30061	 -0.18185	  4.94605	707.35999	 22.40	
 13.601	-21.647	  4.51012	  4.14936	  0.59770	  1.50691	  3.05781	 -0.17682	  4.93051	707.41901	 22.40	
 13.611	-14.417	  4.51523	  4.23685	  0.53485	  1.73575	  2.81284	 -0.17388	  4.92981	707.37701	 22.40	
 13.608	 -7.147	  4.52991	  4.30081	  0.49872	  1.97703	  2.57041	 -0.17056	  4.93778	707.39099	 22.40	
 13.600	  0.000	  4.52505	  4.31320	  0.48669	  2.21734	  2.32238	 -0.16781	  4.92933	707.29303	 22.40	
 13.608	  7.147	  4.52615	  4.29925	  0.49600	  2.46706	  2.07885	 -0.17279	  4.92928	707.30402	 22.40	
 13.611	 14.417	  4.53174	  4.25936	  0.53233	  2.72009	  1.84816	 -0.17789	  4.93310	707.28302	 22.40	
 13.601	 21.647	  4.54230	  4.18485	  0.59850	  2.97133	  1.63068	 -0.17766	  4.93910	707.33502	 22.40	
 13.609	 28.790	  4.54139	  4.07382	  0.68041	  3.20899	  1.42079	 -0.17286	  4.93872	707.43799	 22.40	
 13.611	 36.001	  4.53195	  3.92270	  0.79048	  3.42371	  1.23212	 -0.16799	  4.92701	707.41101	 22.40	
 13.601	 43.175	  4.53305	  3.75371	  0.92399	  3.62646	  1.06898	 -0.16249	  4.92489	707.21997	 22.40	
 13.596	 50.360	  4.54936	  3.57147	  1.08203	  3.82264	  0.92507	 -0.15945	  4.93825	707.21899	 22.40	
 13.611	 57.569	  4.54618	  3.35627	  1.25610	  3.97791	  0.79904	 -0.15995	  4.93311	707.17401	 22.40	
 13.604	 64.789	  4.54544	  3.12613	  1.45162	  4.10526	  0.70072	 -0.16230	  4.93133	707.23102	 22.40	
 13.595	 71.958	  4.55456	  2.89040	  1.66915	  4.20697	  0.62990	 -0.17072	  4.93695	707.32800	 22.40	
 13.607	 79.207	  4.54694	  2.63899	  1.89573	  4.26576	  0.57830	 -0.17601	  4.92648	707.20300	 22.40	
 13.601	 86.383	  4.55395	  2.39873	  2.13677	  4.30376	  0.55662	 -0.18460	  4.94022	707.35400	 22.40	
 13.601	 93.617	  4.54444	  2.14640	  2.38205	  4.29634	  0.55586	 -0.19023	  4.93063	707.38800	 22.40	
 13.607	100.793	  4.53289	  1.90479	  2.62427	  4.25619	  0.57673	 -0.19595	  4.92437	707.38202	 22.40	
 13.595	108.042	  4.54322	  1.68284	  2.88182	  4.19938	  0.62942	 -0.19530	  4.94071	707.44098	 22.40	
 13.604	115.211	  4.54035	  1.46795	  3.12629	  4.10297	  0.69775	 -0.18836	  4.94566	707.32800	 22.40	
 13.611	122.431	  4.51942	  1.26617	  3.34612	  3.95475	  0.79099	 -0.18104	  4.92920	707.45300	 22.50	
 13.596	129.640	  4.51024	  1.08926	  3.55897	  3.78653	  0.91382	 -0.17214	  4.92686	707.40503	 22.50	
 13.601	136.825	  4.50570	  0.92694	  3.75594	  3.59694	  1.05379	 -0.16618	  4.92999	707.42102	 22.50	
 13.611	143.999	  4.50344	  0.79103	  3.93243	  3.39366	  1.21441	 -0.16823	  4.93759	707.32098	 22.50	
 13.609	151.210	  4.48913	  0.67665	  4.06913	  3.15923	  1.39493	 -0.16741	  4.93164	707.37402	 22.50	
 13.601	158.353	  4.48831	  0.58878	  4.18745	  2.91824	  1.60065	 -0.16787	  4.93603	707.43103	 22.50	
 13.611	165.583	  4.48967	  0.52270	  4.27930	  2.67208	  1.81999	 -0.16797	  4.94634	707.32800	 22.50	
 13.608	172.853	  4.47784	  0.48199	  4.32230	  2.41351	  2.04792	 -0.16779	  4.94101	707.36798	 22.50	
 15.298	173.587	  4.33123	  0.19798	  4.45720	  2.29660	  1.93068	 -0.19970	  4.93159	707.42499	 22.50	
 15.291	167.167	  4.33025	  0.23195	  4.40561	  2.54431	  1.70227	 -0.20236	  4.92252	707.47803	 22.50	
 15.307	160.676	  4.34722	  0.29123	  4.34257	  2.80592	  1.48641	 -0.20251	  4.93387	707.39001	 22.50	
 15.300	154.261	  4.36173	  0.37135	  4.24569	  3.05890	  1.28309	 -0.20312	  4.94142	707.46899	 22.50	
 15.288	147.854	  4.34765	  0.46836	  4.09572	  3.27764	  1.09264	 -0.19877	  4.91523	707.35901	 22.50	
 15.293	141.428	  4.36263	  0.58883	  3.94786	  3.50468	  0.92403	 -0.19901	  4.92222	707.23297	 22.50	
 15.299	134.985	  4.37912	  0.72821	  3.77872	  3.72194	  0.77015	 -0.19946	  4.93653	707.43597	 22.50	
 15.305	128.583	  4.39661	  0.88793	  3.58777	  3.91794	  0.63857	 -0.20609	  4.94640	707.34601	 22.50	
 15.309	122.142	  4.38027	  1.06021	  3.35115	  4.05757	  0.52072	 -0.20995	  4.91911	707.29999	 22.50	
 15.304	115.711	  4.40726	  1.25986	  3.13583	  4.20837	  0.43407	 -0.21510	  4.94138	707.28601	 22.50	
 15.297	109.291	  4.40018	  1.46428	  2.88609	  4.30038	  0.36331	 -0.21569	  4.92491	707.24103	 22.50	
 15.293	102.897	  4.40886	  1.68565	  2.64302	  4.38064	  0.31053	 -0.21671	  4.92832	707.19299	 22.50	
 15.293	 96.458	  4.41510	  1.91867	  2.39601	  4.42970	  0.27975	 -0.21747	  4.92930	707.32898	 22.50	
 15.300	 90.000	  4.42278	  2.16482	  2.15033	  4.45198	  0.26677	 -0.21335	  4.93769	707.26501	 22.60	
 15.293	 83.542	  4.42151	  2.41168	  1.90648	  4.43312	  0.27928	 -0.20862	  4.93150	707.38000	 22.60	
 15.293	 77.103	  4.42782	  2.66177	  1.67610	  4.39367	  0.31302	 -0.20353	  4.93660	707.37402	 22.60	
 15.297	 70.709	  4.42904	  2.90522	  1.45368	  4.32366	  0.36477	 -0.19534	  4.93945	707.54303	 22.60	
 15.304	 64.289	  4.42910	  3.14593	  1.24338	  4.22401	  0.43803	 -0.19163	  4.94037	707.39001	 22.60	
 15.309	 57.858	  4.42602	  3.37520	  1.04952	  4.09354	  0.53260	 -0.19044	  4.93802	707.34100	 22.60	
 15.305	 51.417	  4.42049	  3.58752	  0.87436	  3.93657	  0.64735	 -0.18655	  4.93610	707.41602	 22.60	
 15.299	 45.015	  4.40136	  3.77007	  0.71509	  3.74075	  0.78234	 -0.18582	  4.91931	707.40002	 22.60	
 15.293	 38.572	  4.41014	  3.95752	  0.58141	  3.54655	  0.94542	 -0.18972	  4.93041	707.34900	 22.60	
 15.288	 32.146	  4.40995	  4.10945	  0.46780	  3.33319	  1.12086	 -0.19297	  4.93397	707.34900	 22.60	
 15.300	 25.739	  4.40651	  4.23635	  0.37126	  3.10320	  1.30921	 -0.19202	  4.93429	707.36902	 22.60	
 15.307	 19.324	  4.40338	  4.33549	  0.29477	  2.85868	  1.51900	 -0.19098	  4.93319	707.38300	 22.60	
 15.291	 12.833	  4.40973	  4.41133	  0.24390	  2.61218	  1.74539	 -0.19227	  4.94057	707.39001	 22.60	
 15.298	  6.413	  4.39648	  4.44062	  0.21441	  2.36062	  1.97085	 -0.18737	  4.92926	707.29498	 22.60	
 15.300	  0.000	  4.40056	  4.45833	  0.20160	  2.11222	  2.21819	 -0.18835	  4.93754	707.37402	 22.60	
 15.298	 -6.413	  4.39605	  4.43874	  0.21276	  1.87026	  2.45948	 -0.18159	  4.93469	707.30402	 22.60	
 15.291	-12.833	  4.38843	  4.38500	  0.24741	  1.63519	  2.70234	 -0.18657	  4.93141	707.23602	 22.60	
 15.307	-19.324	  4.38080	  4.30546	  0.29861	  1.40277	  2.94787	 -0.19027	  4.92887	707.17700	 22.60	
 15.300	-25.739	  4.38374	  4.20616	  0.37393	  1.19751	  3.18962	 -0.19596	  4.93770	707.17102	 22.60	
 15.288	-32.146	  4.36747	  4.06051	  0.47006	  1.00323	  3.40728	 -0.19492	  4.92377	707.29797	 22.60	
 15.293	-38.572	  4.36544	  3.90353	  0.58510	  0.81956	  3.62904	 -0.19652	  4.93259	707.35699	 22.60	
 15.299	-45.015	  4.35787	  3.72057	  0.72195	  0.65656	  3.82889	 -0.20446	  4.93568	707.38800	 22.60	
 15.305	-51.417	  4.34297	  3.50871	  0.87771	  0.51852	  3.99406	 -0.20605	  4.92603	707.35999	 22.60	
 15.309	-57.858	  4.33342	  3.28864	  1.05263	  0.39709	  4.14663	 -0.20766	  4.92567	707.31403	 22.60	
 15.304	-64.289	  4.33704	  3.06212	  1.24450	  0.29500	  4.28438	 -0.21009	  4.93949	707.42401	 22.60	
 15.297	-70.709	  4.32462	  2.81350	  1.45159	  0.21756	  4.37732	 -0.21130	  4.93160	707.49500	 22.60	
 15.293	-77.103	  4.32037	  2.56791	  1.67209	  0.15809	  4.45252	 -0.21448	  4.93596	707.35199	 22.60	
 15.293	-83.542	  4.30859	  2.31400	  1.90135	  0.11899	  4.48955	 -0.22181	  4.92931	707.34900	 22.70	
 15.300	-90.000	  4.30377	  2.06538	  2.14153	  0.10368	  4.49979	 -0.22651	  4.92993	707.27301	 22.70	
 15.293	-96.458	  4.30359	  1.82748	  2.38844	  0.10876	  4.48463	 -0.23422	  4.93139	707.39697	 22.60	
 15.293	-102.897	  4.28865	  1.59259	  2.62789	  0.13535	  4.42385	 -0.23282	  4.91609	707.27197	 22.70	
 15.297	-109.291	  4.30320	  1.38153	  2.88298	  0.18799	  4.36270	 -0.22764	  4.93522	707.40698	 22.60	
 15.304	-115.711	  4.29656	  1.17588	  3.11780	  0.25586	  4.25293	 -0.22300	  4.93361	707.33099	 22.70	
 15.309	-122.142	  4.29016	  0.98755	  3.34107	  0.34595	  4.11408	 -0.21831	  4.92173	707.35101	 22.70	
 15.305	-128.583	  4.29716	  0.81807	  3.56294	  0.45990	  3.96323	 -0.21255	  4.93055	707.43103	 22.70	
 15.299	-134.985	  4.29671	  0.66744	  3.76167	  0.59282	  3.78698	 -0.21070	  4.93372	707.45203	 22.70	
 15.293	-141.428	  4.29666	  0.53698	  3.93924	  0.75172	  3.58471	 -0.21141	  4.93067	707.34302	 22.70	
 15.288	-147.854	  4.30331	  0.42664	  4.10049	  0.93300	  3.36992	 -0.21486	  4.93298	707.30298	 22.70	
 15.300	-154.261	  4.30681	  0.33645	  4.23324	  1.12442	  3.14404	 -0.21967	  4.93582	707.42102	 22.70	
 15.307	-160.676	  4.30407	  0.26401	  4.33136	  1.33132	  2.90394	 -0.21952	  4.92822	707.33698	 22.70	
 15.291	-167.167	  4.32304	  0.21998	  4.41965	  1.56749	  2.66420	 -0.21997	  4.94361	707.55701	 22.70	
 15.298	-173.587	  4.31523	  0.19086	  4.45152	  1.79796	  2.41192	 -0.21196	  4.92560	707.47198	 22.70	
 15.300	180.000	  4.32419	  0.18448	  4.46868	  2.04252	  2.17218	 -0.20444	  4.93022	707.40802	 22.70	
 17.000	180.000	  4.17591	 -0.08429	  4.59818	  1.92507	  2.05367	 -0.22855	  4.93543	707.41901	 22.70	
 16.990	-174.179	  4.16093	 -0.08125	  4.57378	  1.68030	  2.28766	 -0.23353	  4.92962	707.48700	 22.70	
 17.009	-168.383	  4.15737	 -0.05972	  4.53957	  1.44603	  2.53185	 -0.23941	  4.93474	707.32300	 22.70	
 17.000	-162.596	  4.15056	 -0.01736	  4.46886	  1.22035	  2.77606	 -0.24004	  4.92996	707.46698	 22.70	
 16.990	-156.759	  4.14520	  0.04416	  4.37311	  1.01035	  3.01420	 -0.23837	  4.92805	707.36200	 22.70	
 16.995	-150.919	  4.14114	  0.12381	  4.25054	  0.81340	  3.24713	 -0.24031	  4.92666	707.30402	 22.70	
 16.988	-145.161	  4.13297	  0.21654	  4.10197	  0.62907	  3.46452	 -0.23930	  4.91645	707.44897	 22.70	
 17.014	-139.343	  4.13896	  0.32925	  3.94837	  0.46350	  3.68306	 -0.24026	  4.92973	707.34497	 22.70	
 17.007	-133.546	  4.12881	  0.46201	  3.75355	  0.32101	  3.86510	 -0.23976	  4.91561	707.42102	 22.70	
 17.001	-127.699	  4.14284	  0.61333	  3.56175	  0.19400	  4.05340	 -0.23878	  4.93268	707.37402	 22.70	
 17.006	-121.937	  4.13643	  0.77868	  3.34006	  0.08594	  4.20239	 -0.23973	  4.92383	707.42798	 22.70	
 17.002	-116.134	  4.12865	  0.95776	  3.10689	 -0.00381	  4.32895	 -0.23629	  4.91741	707.40399	 22.70	
 17.001	-110.310	  4.12964	  1.15455	  2.86905	 -0.07402	  4.43605	 -0.23943	  4.91922	707.33698	 22.70	
 16.988	-104.517	  4.14898	  1.37116	  2.64028	 -0.12034	  4.53399	 -0.23747	  4.93643	707.33801	 22.70	
 17.008	-98.662	  4.15038	  1.59275	  2.39163	 -0.15547	  4.59161	 -0.22552	  4.93626	707.42798	 22.70	
 16.996	-92.909	  4.15241	  1.82418	  2.14894	 -0.16625	  4.61722	 -0.22080	  4.93607	707.40002	 22.70	
 16.996	-87.091	  4.15328	  2.06523	  1.90595	 -0.16185	  4.61826	 -0.21142	  4.93358	707.31201	 22.70	
 17.012	-81.253	  4.14821	  2.30622	  1.66706	 -0.14141	  4.58794	 -0.20343	  4.92471	707.39301	 22.70	
 16.988	-75.483	  4.16559	  2.55810	  1.44853	 -0.09802	  4.54952	 -0.19924	  4.93469	707.41602	 22.70	
 17.001	-69.690	  4.16515	  2.79982	  1.22895	 -0.04544	  4.46938	 -0.19719	  4.92824	707.31799	 22.80	
 17.002	-63.866	  4.18198	  3.04864	  1.03327	  0.03653	  4.37637	 -0.19599	  4.93856	707.44897	 22.70	
 17.006	-58.063	  4.18639	  3.28193	  0.84400	  0.13353	  4.24523	 -0.19806	  4.93319	707.50098	 22.80	
 17.001	-52.301	  4.18793	  3.49741	  0.67420	  0.24955	  4.08571	 -0.20452	  4.92510	707.40503	 22.80	
 17.007	-46.454	  4.19520	  3.70636	  0.51728	  0.38367	  3.91154	 -0.20093	  4.91986	707.40399	 22.80	
 17.014	-40.657	  4.20852	  3.90154	  0.38040	  0.53275	  3.73103	 -0.19520	  4.93130	707.34900	 22.70	
 16.988	-34.839	  4.22158	  4.07439	  0.26495	  0.70515	  3.52443	 -0.19407	  4.93199	707.50000	 22.80	
 16.995	-29.081	  4.22696	  4.22008	  0.16239	  0.88611	  3.30177	 -0.19426	  4.92876	707.36499	 22.80	
 16.990	-23.241	  4.23379	  4.34780	  0.08213	  1.08808	  3.07025	 -0.19558	  4.93136	707.44501	 22.80	
 17.000	-17.404	  4.23342	  4.43919	  0.01493	  1.29782	  2.82556	 -0.19254	  4.92363	707.37299	 22.80	
 17.009	-11.617	  4.24108	  4.51377	 -0.03248	  1.52084	  2.58310	 -0.18395	  4.92927	707.22400	 22.80	
 16.990	 -5.821	  4.25048	  4.56033	 -0.05773	  1.75588	  2.34271	 -0.18069	  4.93196	707.36200	 22.80	
 17.000	  0.000	  4.25456	  4.57984	 -0.06923	  1.99659	  2.10158	 -0.18105	  4.93562	707.30603	 22.80	
 16.990	  5.821	  4.25615	  4.57042	 -0.06073	  2.24540	  1.85968	 -0.18140	  4.93376	707.40802	 22.80	
 17.009	 11.617	  4.25326	  4.53417	 -0.03683	  2.48906	  1.62738	 -0.18631	  4.93152	707.47198	 22.80	
 17.000	 17.404	  4.26243	  4.47754	  0.01049	  2.73923	  1.41035	 -0.19053	  4.93833	707.35199	 22.80	
 16.990	 23.241	  4.25884	  4.38113	  0.07512	  2.98227	  1.19657	 -0.19502	  4.92984	707.39001	 22.80	
 16.995	 29.081	  4.26174	  4.26765	  0.16027	  3.21915	  1.00206	 -0.19884	  4.93247	707.38800	 22.80	
 16.988	 34.839	  4.26360	  4.12926	  0.25802	  3.44053	  0.82406	 -0.20285	  4.93026	707.40802	 22.80	
 17.014	 40.657	  4.25537	  3.96063	  0.37135	  3.64938	  0.65303	 -0.20545	  4.92018	707.45502	 22.80	
 17.007	 46.454	  4.27095	  3.78905	  0.51090	  3.85482	  0.50687	 -0.20739	  4.93631	707.44501	 22.80	
 17.001	 52.301	  4.26783	  3.58147	  0.66589	  4.02367	  0.37794	 -0.20943	  4.92724	707.32300	 22.80	
 17.006	 58.063	  4.26553	  3.36383	  0.83608	  4.17134	  0.26860	 -0.20948	  4.92006	707.45898	 22.80	
 17.002	 63.866	  4.26827	  3.13288	  1.02255	  4.30459	  0.17257	 -0.21177	  4.92493	707.37402	 22.80	
 17.001	 69.690	  4.26880	  2.89887	  1.22346	  4.41070	  0.09803	 -0.21543	  4.92315	707.47601	 22.80	
 16.988	 75.483	  4.27436	  2.65786	  1.44330	  4.49209	  0.04527	 -0.21908	  4.92871	707.45203	 22.80	
 17.012	 81.253	  4.27330	  2.41344	  1.66848	  4.54803	  0.00654	 -0.22283	  4.93179	707.53802	 22.80	
 16.996	 87.091	  4.27671	  2.17045	  1.90632	  4.57295	 -0.00834	 -0.22063	  4.93309	707.37402	 22.80	
 16.996	 92.909	  4.26341	  1.92118	  2.14627	  4.56145	 -0.00722	 -0.21917	  4.91952	707.54901	 22.80	
 17.008	 98.662	  4.26348	  1.69202	  2.39113	  4.54159	  0.00878	 -0.22112	  4.92646	707.53699	 22.80	
 16.988	104.517	  4.26507	  1.46649	  2.64264	  4.48800	  0.04886	 -0.22202	  4.92979	707.57001	 22.80	
 17.001	110.310	  4.26468	  1.25010	  2.89047	  4.41380	  0.09752	 -0.22590	  4.93876	707.48297	 22.80	
 17.002	116.134	  4.24837	  1.04535	  3.12326	  4.29297	  0.17226	 -0.22466	  4.92832	707.57703	 22.80	
 17.006	121.937	  4.24726	  0.85888	  3.35735	  4.16242	  0.26082	 -0.22542	  4.93146	707.50897	 22.80	
 17.001	127.699	  4.24371	  0.68520	  3.57821	  4.00778	  0.36714	 -0.22577	  4.93648	707.45898	 22.80	
 17.007	133.546	  4.23367	  0.52554	  3.78032	  3.82631	  0.49082	 -0.22504	  4.93661	707.54797	 22.80	
 17.014	139.343	  4.21616	  0.38487	  3.95806	  3.61683	  0.63362	 -0.22399	  4.92490	707.48999	 22.80	
 16.988	145.161	  4.21445	  0.26713	  4.12466	  3.40007	  0.79768	 -0.22509	  4.92819	707.41302	 22.80	
 16.995	150.919	  4.21480	  0.16301	  4.27433	  3.17797	  0.97322	 -0.22910	  4.94136	707.42999	 22.80	
 16.990	156.759	  4.20591	  0.07943	  4.39011	  2.93601	  1.16381	 -0.23273	  4.93792	707.45300	 22.80	
 17.000	162.596	  4.18764	  0.00923	  4.47163	  2.67565	  1.36849	 -0.22886	  4.92582	707.49200	 22.80	
 17.009	168.383	  4.18507	 -0.04214	  4.54399	  2.42580	  1.58573	 -0.22725	  4.93303	707.32599	 22.80	
 16.990	174.179	  4.18422	 -0.06992	  4.58492	  2.18043	  1.81561	 -0.22454	  4.93878	707.46698	 22.80	
 18.709	174.675	  4.01139	 -0.33412	  4.69021	  2.04909	  1.68604	 -0.23563	  4.93649	707.39600	 22.80	
 18.703	169.441	  4.00997	 -0.30531	  4.64556	  2.28928	  1.46217	 -0.24123	  4.92630	707.48297	 22.80	
 18.691	164.085	  4.01298	 -0.26109	  4.58126	  2.53887	  1.24366	 -0.24385	  4.91973	707.45300	 22.80	
 18.706	158.818	  4.03637	 -0.20701	  4.51981	  2.79995	  1.03914	 -0.24633	  4.94154	707.58002	 22.80	
 18.695	153.537	  4.03884	 -0.12678	  4.40512	  3.03649	  0.85162	 -0.24346	  4.93031	707.48700	 22.90	
 18.704	148.255	  4.04365	 -0.03962	  4.27603	  3.26980	  0.67104	 -0.24367	  4.92771	707.51501	 22.80	
 18.698	142.952	  4.04919	  0.06691	  4.12087	  3.49482	  0.50529	 -0.24118	  4.92569	707.53101	 22.90	
 18.699	137.625	  4.07127	  0.19222	  3.96155	  3.71950	  0.35785	 -0.23978	  4.94018	707.51501	 22.90	
 18.705	132.343	  4.07845	  0.33457	  3.77296	  3.91265	  0.22900	 -0.23878	  4.94045	707.46100	 22.90	
 18.713	127.067	  4.08404	  0.48200	  3.56774	  4.09149	  0.10645	 -0.23045	  4.93946	707.49500	 22.90	
 18.700	121.794	  4.08498	  0.65176	  3.34260	  4.24123	  0.00456	 -0.22457	  4.93113	707.41101	 22.90	
 18.698	116.504	  4.08567	  0.83473	  3.10897	  4.36968	 -0.07913	 -0.21920	  4.92233	707.47601	 22.90	
 18.707	111.165	  4.10298	  1.03411	  2.87857	  4.49457	 -0.15079	 -0.21249	  4.93985	707.48700	 22.90	
 18.690	105.863	  4.11874	  1.24763	  2.64146	  4.58720	 -0.20017	 -0.20930	  4.94784	707.46698	 22.90	
 18.696	100.583	  4.10541	  1.46222	  2.38646	  4.62735	 -0.23514	 -0.20343	  4.92288	707.52600	 22.90	
 18.700	 95.309	  4.12238	  1.69314	  2.15141	  4.67648	 -0.26171	 -0.20557	  4.93790	707.55103	 22.90	
 18.700	 90.000	  4.11631	  1.92605	  1.90542	  4.67819	 -0.26772	 -0.20990	  4.92691	707.41400	 22.90	
 18.700	 84.691	  4.13954	  2.17911	  1.67565	  4.69164	 -0.26073	 -0.21452	  4.95426	707.53998	 22.90	
 18.696	 79.417	  4.12840	  2.41530	  1.44281	  4.64196	 -0.23506	 -0.22169	  4.93973	707.47198	 22.90	
 18.690	 74.137	  4.11397	  2.64863	  1.21785	  4.56897	 -0.19882	 -0.22262	  4.92296	707.53101	 22.90	
 18.707	 68.835	  4.11924	  2.89551	  1.00827	  4.49766	 -0.14666	 -0.22182	  4.93203	707.53198	 22.90	
 18.698	 63.496	  4.10924	  3.12597	  0.80983	  4.38043	 -0.07355	 -0.21999	  4.92196	707.53998	 22.90	
 18.700	 58.206	  4.12335	  3.36299	  0.63024	  4.26181	  0.01560	 -0.22113	  4.93295	707.57001	 22.90	
 18.713	 52.933	  4.11723	  3.57839	  0.46310	  4.10552	  0.12339	 -0.22099	  4.92689	707.62500	 22.90	
 18.705	 47.657	  4.11614	  3.77961	  0.31459	  3.93410	  0.24658	 -0.21773	  4.93108	707.66901	 22.90	
 18.699	 42.375	  4.11858	  3.96968	  0.17843	  3.74946	  0.38323	 -0.21309	  4.93651	707.60400	 22.90	
 18.698	 37.048	  4.10512	  4.12861	  0.05914	  3.53289	  0.53732	 -0.20325	  4.92242	707.58502	 22.90	
 18.704	 31.745	  4.10300	  4.27802	 -0.04691	  3.31243	  0.70478	 -0.19081	  4.92258	707.68103	 22.90	
 18.695	 26.463	  4.11110	  4.41420	 -0.13170	  3.09066	  0.89226	 -0.17895	  4.93673	707.61603	 22.90	
 18.706	 21.182	  4.09881	  4.50638	 -0.20556	  2.84986	  1.08088	 -0.17394	  4.92420	707.57001	 22.90	
 18.691	 15.915	  4.09637	  4.58418	 -0.25885	  2.60542	  1.28737	 -0.17647	  4.92138	707.59302	 22.90	
 18.703	 10.559	  4.09425	  4.64306	 -0.30223	  2.35782	  1.50854	 -0.16790	  4.92466	707.58801	 22.90	
 18.709	  5.325	  4.08874	  4.67043	 -0.32723	  2.11432	  1.72981	 -0.16967	  4.92178	707.59302	 22.90	
 18.700	  0.000	  4.09596	  4.68607	 -0.33289	  1.87275	  1.97393	 -0.17186	  4.93221	707.67999	 22.90	
 18.709	 -5.325	  4.09384	  4.67105	 -0.32203	  1.63795	  2.21545	 -0.17570	  4.93061	707.60400	 22.90	
 18.703	-10.559	  4.09677	  4.63901	 -0.29616	  1.41410	  2.45855	 -0.17987	  4.93962	707.61798	 22.90	
 18.691	-15.915	  4.08179	  4.56219	 -0.25775	  1.18449	  2.69849	 -0.18108	  4.92495	707.69202	 22.90	
 18.706	-21.182	  4.08238	  4.48183	 -0.20417	  0.97851	  2.93999	 -0.18743	  4.93342	707.53400	 22.90	
 18.695	-26.463	  4.07720	  4.36745	 -0.13307	  0.77751	  3.17142	 -0.18584	  4.93256	707.58002	 22.90	
 18.704	-31.745	  4.06548	  4.22814	 -0.04744	  0.58761	  3.39775	 -0.18686	  4.93101	707.70398	 22.90	
 18.698	-37.048	  4.05427	  4.06582	  0.05876	  0.41628	  3.61017	 -0.18805	  4.92343	707.70801	 22.90	
 18.699	-42.375	  4.05364	  3.89384	  0.17880	  0.26060	  3.81588	 -0.19078	  4.93415	707.68103	 22.90	
 18.705	-47.657	  4.04540	  3.70209	  0.31364	  0.11657	  4.00448	 -0.19313	  4.93727	707.61798	 22.90	
 18.713	-52.933	  4.03020	  3.48523	  0.46493	 -0.01106	  4.16797	 -0.19106	  4.93468	707.64697	 22.90	
 18.700	-58.206	  4.03349	  3.26977	  0.63325	 -0.11851	  4.32746	 -0.18697	  4.94709	707.64203	 22.90	
 18.698	-63.496	  4.02368	  3.03546	  0.81679	 -0.20929	  4.44826	 -0.18377	  4.94015	707.55701	 22.90	
 18.707	-68.835	  4.00961	  2.78957	  1.01196	 -0.28447	  4.54454	 -0.18157	  4.93189	707.60797	 22.90	
 18.690	-74.137	  4.00669	  2.54624	  1.22162	 -0.34269	  4.62499	 -0.18592	  4.93442	707.64899	 22.90	
 18.696	-79.417	  3.99501	  2.29843	  1.43801	 -0.38665	  4.67515	 -0.19083	  4.92699	707.57898	 22.90	
 18.700	-84.691	  3.99856	  2.05972	  1.66606	 -0.42028	  4.71972	 -0.19361	  4.94263	707.64697	 22.90	
 18.700	-90.000	  3.99165	  1.81621	  1.90237	 -0.43292	  4.72647	 -0.19464	  4.94054	707.76501	 22.90	
 18.700	-95.309	  3.97277	  1.57487	  2.13430	 -0.42880	  4.69327	 -0.20542	  4.92287	707.76501	 22.90	
 18.696	-100.583	  3.98252	  1.35492	  2.38060	 -0.41182	  4.66852	 -0.21969	  4.93481	707.73499	 22.90	
 18.690	-105.863	  3.97736	  1.14014	  2.62309	 -0.37462	  4.60063	 -0.22745	  4.93062	707.59003	 22.90	
 18.707	-111.165	  3.97194	  0.93447	  2.86058	 -0.32350	  4.51432	 -0.23658	  4.93125	707.63300	 22.90	
 18.698	-116.504	  3.98326	  0.74568	  3.10705	 -0.25633	  4.41793	 -0.24255	  4.94112	707.66699	 23.00	
 18.700	-121.794	  3.97228	  0.56673	  3.32702	 -0.17444	  4.27989	 -0.24705	  4.93398	707.63898	 23.00	
 18.713	-127.067	  3.96728	  0.40364	  3.54115	 -0.07424	  4.12321	 -0.25183	  4.92856	707.61298	 23.00	
 18.705	-132.343	  3.97412	  0.25936	  3.74901	  0.04883	  3.95521	 -0.25822	  4.93308	707.61902	 23.00	
 18.699	-137.625	  3.95928	  0.12941	  3.92308	  0.18714	  3.75037	 -0.25589	  4.91459	707.64398	 23.00	
 18.698	-142.952	  3.96959	  0.01221	  4.10505	  0.33762	  3.55435	 -0.25007	  4.92444	707.61902	 23.00	
 18.704	-148.255	  3.97904	 -0.08620	  4.26713	  0.51058	  3.34626	 -0.24828	  4.93830	707.68701	 23.00	
 18.695	-153.537	  3.97850	 -0.16719	  4.39240	  0.69643	  3.11387	 -0.24235	  4.92950	707.65503	 23.00	
 18.706	-158.818	  3.96863	 -0.23506	  4.48788	  0.88870	  2.87049	 -0.23824	  4.91664	707.63202	 23.00	
 18.691	-164.085	  3.97613	 -0.28257	  4.57340	  1.09837	  2.63852	 -0.24054	  4.91864	707.53101	 23.00	
 18.703	-169.441	  3.97237	 -0.32012	  4.62416	  1.32004	  2.38498	 -0.23635	  4.90560	707.60400	 23.00	
 18.709	-174.675	  3.99134	 -0.34108	  4.67633	  1.55192	  2.15555	 -0.23369	  4.92442	707.69501	 23.00	
 18.700	180.000	  4.00657	 -0.34490	  4.69717	  1.79639	  1.92104	 -0.23094	  4.93264	707.55103	 23.00	
 20.400	180.000	  3.81460	 -0.62442	  4.78082	  1.64902	  1.77208	 -0.22832	  4.92997	707.58698	 23.00	
 20.401	-175.153	  3.81162	 -0.62288	  4.77666	  1.41336	  2.00607	 -0.22495	  4.93794	707.71503	 23.00	
 20.407	-170.264	  3.80787	 -0.61096	  4.74762	  1.18244	  2.24626	 -0.22646	  4.94096	707.64203	 23.00	
 20.410	-165.423	  3.78035	 -0.57824	  4.66611	  0.95304	  2.47420	 -0.22450	  4.91214	707.67700	 23.00	
 20.392	-160.496	  3.78652	 -0.53072	  4.60088	  0.75006	  2.72108	 -0.22655	  4.92547	707.58801	 23.00	
 20.401	-155.705	  3.79263	 -0.47670	  4.51412	  0.55537	  2.95922	 -0.22712	  4.93655	707.55902	 23.00	
 20.405	-150.835	  3.78609	 -0.40518	  4.38940	  0.36625	  3.18898	 -0.23735	  4.93346	707.61603	 23.00	
 20.397	-145.903	  3.78648	 -0.31348	  4.24868	  0.19379	  3.41554	 -0.24626	  4.93391	707.61298	 23.00	
 20.392	-141.062	  3.77688	 -0.21172	  4.08052	  0.03728	  3.61738	 -0.25340	  4.92329	707.58197	 23.00	
 20.396	-136.227	  3.77875	 -0.10007	  3.90753	 -0.10871	  3.82058	 -0.25885	  4.92806	707.56299	 23.00	
 20.408	-131.372	  3.77472	  0.02411	  3.71394	 -0.24549	  4.00885	 -0.25646	  4.92870	707.73499	 23.00	
 20.410	-126.511	  3.78311	  0.17051	  3.51461	 -0.35518	  4.18596	 -0.25242	  4.93843	707.65802	 23.00	
 20.400	-121.604	  3.78325	  0.33391	  3.29178	 -0.44904	  4.33245	 -0.24373	  4.93180	707.61798	 23.00	
 20.403	-116.741	  3.78973	  0.50713	  3.06899	 -0.53186	  4.47164	 -0.23465	  4.94235	707.65601	 23.00	
 20.413	-111.900	  3.78390	  0.68644	  2.83011	 -0.60191	  4.57644	 -0.22527	  4.93643	707.75702	 23.00	
 20.398	-107.004	  3.78004	  0.88369	  2.58693	 -0.65059	  4.65840	 -0.20966	  4.92855	707.73700	 23.00	
 20.394	-102.132	  3.79674	  1.09695	  2.35465	 -0.69354	  4.74330	 -0.20125	  4.94785	707.73700	 23.00	
 20.403	-97.332	  3.78336	  1.30753	  2.10683	 -0.71675	  4.77098	 -0.19341	  4.93073	707.72900	 23.00	
 20.392	-92.440	  3.78425	  1.53578	  1.86684	 -0.72431	  4.79289	 -0.18158	  4.92704	707.73401	 23.00	
 20.392	-87.560	  3.78656	  1.77026	  1.62899	 -0.72044	  4.79424	 -0.17438	  4.92560	707.78699	 23.00	
 20.403	-82.668	  3.79264	  2.01041	  1.39942	 -0.70362	  4.78016	 -0.17543	  4.92739	707.68298	 23.00	
 20.394	-77.868	  3.80792	  2.25558	  1.18549	 -0.67159	  4.75396	 -0.16859	  4.93934	707.62402	 23.00	
 20.398	-72.996	  3.80442	  2.49610	  0.96883	 -0.62260	  4.68001	 -0.17141	  4.92456	707.68298	 23.00	
 20.413	-68.100	  3.81469	  2.74441	  0.76680	 -0.56153	  4.60051	 -0.16874	  4.92942	707.63898	 23.00	
 20.403	-63.259	  3.82462	  2.98188	  0.57980	 -0.48279	  4.49464	 -0.17073	  4.92973	707.63599	 23.00	
 20.400	-58.396	  3.83498	  3.21699	  0.40575	 -0.39124	  4.37029	 -0.17633	  4.92841	707.66901	 23.00	
 20.410	-53.489	  3.84407	  3.44309	  0.23804	 -0.29029	  4.22829	 -0.17440	  4.93040	707.68903	 23.00	
 20.408	-48.628	  3.85364	  3.65890	  0.08602	 -0.17211	  4.06642	 -0.17540	  4.93476	707.75403	 23.00	
 20.396	-43.773	  3.86619	  3.85808	 -0.04308	 -0.03420	  3.88434	 -0.17768	  4.93213	707.68298	 23.00	
 20.392	-38.938	  3.87090	  4.03593	 -0.16128	  0.11732	  3.68069	 -0.18281	  4.92494	707.81500	 23.00	
 20.397	-34.097	  3.86748	  4.18954	 -0.26764	  0.27314	  3.46341	 -0.17541	  4.91074	707.76001	 23.00	
 20.405	-29.165	  3.88807	  4.35640	 -0.36415	  0.44923	  3.25378	 -0.17758	  4.93094	707.72900	 23.00	
 20.401	-24.295	  3.88956	  4.47612	 -0.43773	  0.63909	  3.01813	 -0.17402	  4.92389	707.81000	 23.00	
 20.392	-19.504	  3.90129	  4.58304	 -0.49932	  0.83963	  2.79039	 -0.17760	  4.92923	707.80701	 23.00	
 20.410	-14.577	  3.90809	  4.67225	 -0.55339	  1.04662	  2.55033	 -0.16986	  4.93623	707.84399	 23.00	
 20.407	 -9.736	  3.90925	  4.72601	 -0.58705	  1.26607	  2.30427	 -0.16748	  4.92985	707.77600	 23.00	
 20.401	 -4.847	  3.91404	  4.76311	 -0.60753	  1.49679	  2.06536	 -0.16434	  4.93212	707.67200	 23.00	
 20.400	  0.000	  3.91095	  4.77187	 -0.61561	  1.72505	  1.82628	 -0.16192	  4.92799	707.76202	 23.10	
 20.401	  4.847	  3.91850	  4.77209	 -0.60978	  1.96850	  1.59455	 -0.15392	  4.93478	707.67297	 23.00	
 20.407	  9.736	  3.91328	  4.73695	 -0.58701	  2.20716	  1.36892	 -0.15315	  4.92551	707.67200	 23.10	
 20.410	 14.577	  3.92295	  4.69492	 -0.55415	  2.45314	  1.15358	 -0.15625	  4.93304	707.89398	 23.10	
 20.392	 19.504	  3.92952	  4.62515	 -0.49999	  2.70537	  0.94351	 -0.16221	  4.93649	707.77301	 23.10	
 20.401	 24.295	  3.91937	  4.51896	 -0.43637	  2.93019	  0.75082	 -0.15917	  4.92329	707.87201	 23.10	
 20.405	 29.165	  3.92414	  4.40810	 -0.36135	  3.16669	  0.56743	 -0.16570	  4.92587	707.90002	 23.10	
 20.397	 34.097	  3.93064	  4.27453	 -0.26730	  3.40080	  0.39211	 -0.17664	  4.93236	707.85498	 23.10	
 20.392	 38.938	  3.93387	  4.11982	 -0.16187	  3.61234	  0.23754	 -0.19365	  4.93188	707.73499	 23.10	
 20.396	 43.773	  3.94673	  3.95566	 -0.04032	  3.82034	  0.09732	 -0.20594	  4.94211	707.87000	 23.10	
 20.408	 48.628	  3.93646	  3.75594	  0.08626	  3.99900	 -0.03890	 -0.21592	  4.93247	707.88397	 23.10	
 20.410	 53.489	  3.93614	  3.54913	  0.23851	  4.16625	 -0.15474	 -0.21984	  4.92677	707.86700	 23.10	
 20.400	 58.396	  3.94984	  3.33843	  0.40457	  4.32931	 -0.25637	 -0.21867	  4.94079	707.87000	 23.10	
 20.403	 63.259	  3.94043	  3.10225	  0.58063	  4.44728	 -0.33987	 -0.21748	  4.92615	707.83600	 23.10	
 20.413	 68.100	  3.94239	  2.87221	  0.76772	  4.55592	 -0.40893	 -0.21566	  4.92581	707.81598	 23.10	
 20.398	 72.996	  3.95207	  2.63654	  0.97466	  4.65060	 -0.46512	 -0.21809	  4.93290	707.76001	 23.10	
 20.394	 77.868	  3.95164	  2.39343	  1.18845	  4.71419	 -0.50752	 -0.21000	  4.93499	707.78400	 23.10	
 20.403	 82.668	  3.94495	  2.15308	  1.40477	  4.75118	 -0.53503	 -0.20126	  4.92932	707.82098	 23.10	
 20.392	 87.560	  3.94945	  1.91339	  1.63928	  4.77489	 -0.54363	 -0.18841	  4.93326	707.86902	 23.10	
 20.392	 92.440	  3.95295	  1.67697	  1.88278	  4.78035	 -0.54350	 -0.18292	  4.94238	707.74902	 23.10	
 20.403	 97.332	  3.95037	  1.44361	  2.12539	  4.76408	 -0.53236	 -0.17860	  4.94317	707.75897	 23.10	
 20.394	102.132	  3.93753	  1.22290	  2.36031	  4.70719	 -0.50407	 -0.18179	  4.93087	707.79102	 23.10	
 20.398	107.004	  3.93019	  1.00641	  2.60219	  4.63922	 -0.46544	 -0.18866	  4.92835	707.72601	 23.10	
 20.413	111.900	  3.92492	  0.80228	  2.84497	  4.55328	 -0.41569	 -0.19480	  4.93247	707.76202	 23.10	
 20.403	116.741	  3.92760	  0.61266	  3.08716	  4.45223	 -0.34898	 -0.20340	  4.94128	707.78998	 23.10	
 20.400	121.604	  3.91228	  0.43340	  3.30888	  4.30836	 -0.26782	 -0.21283	  4.93214	707.78400	 23.10	
 20.410	126.511	  3.90885	  0.26591	  3.53492	  4.15962	 -0.17356	 -0.22113	  4.94008	707.89203	 23.10	
 20.408	131.372	  3.89393	  0.11476	  3.73641	  3.97709	 -0.06002	 -0.23036	  4.93179	707.84900	 23.10	
 20.396	136.227	  3.89247	 -0.02100	  3.93470	  3.78749	  0.07005	 -0.23653	  4.93718	707.72900	 23.10	
 20.392	141.062	  3.88700	 -0.14545	  4.11268	  3.58690	  0.20627	 -0.24278	  4.94083	707.69800	 23.10	
 20.397	145.903	  3.87589	 -0.25490	  4.26857	  3.36510	  0.35454	 -0.24074	  4.93589	707.79102	 23.10	
 20.405	150.835	  3.86149	 -0.34990	  4.40425	  3.12440	  0.52357	 -0.24042	  4.93143	707.68298	 23.10	
 20.401	155.705	  3.85317	 -0.43171	  4.52129	  2.88522	  0.70658	 -0.24125	  4.93084	707.65900	 23.10	
 20.392	160.496	  3.84984	 -0.49729	  4.62102	  2.64858	  0.89475	 -0.24448	  4.93591	707.74200	 23.10	
 20.410	165.423	  3.83959	 -0.55289	  4.69520	  2.39156	  1.10257	 -0.24245	  4.93558	707.81799	 23.10	
 20.407	170.264	  3.83165	 -0.59314	  4.74753	  2.14331	  1.31750	 -0.23755	  4.93319	707.71503	 23.10	
 20.401	175.153	  3.82307	 -0.61273	  4.77222	  1.89509	  1.54010	 -0.22775	  4.93272	707.73901	 23.10	
  0.141	 45.000	  4.93590	  2.69778	  2.69907	  2.65551	  2.75257	  0.03733	  4.92835	707.75897	 23.10	
  4.001	128.691	  4.91892	  2.30064	  3.00821	  3.03318	  2.29173	  0.01500	  4.92626	707.78003	 23.10	
  4.002	 76.995	  4.92090	  2.76335	  2.52697	  3.15002	  2.20185	  0.01374	  4.92352	707.70001	 23.10	
  4.002	 25.892	  4.91861	  3.14879	  2.17251	  2.84127	  2.47031	  0.01169	  4.92250	707.76703	 23.10	
  4.002	-25.892	  4.92848	  3.14914	  2.17389	  2.35632	  2.96031	  0.00406	  4.93823	707.84601	 23.10	
  4.002	-76.995	  4.91079	  2.73868	  2.52686	  2.05449	  3.27180	 -0.00117	  4.92702	707.86700	 23.10	
  4.001	-128.691	  4.89956	  2.26851	  3.00641	  2.14815	  3.14470	  0.00583	  4.91846	707.81000	 23.10	
  4.000	180.000	  4.91526	  2.09559	  3.23880	  2.57389	  2.70339	  0.01698	  4.93269	707.70398	 23.10	
  8.000	180.000	  4.79739	  1.42169	  3.74851	  2.43943	  2.57940	 -0.04269	  4.92879	707.80499	 23.10	
  7.991	-152.370	  4.79189	  1.52755	  3.60791	  1.91371	  3.12637	 -0.05466	  4.93110	708.03497	 23.10	
  7.997	-124.550	  4.78724	  1.85325	  3.20931	  1.52911	  3.56850	 -0.06742	  4.93078	707.93201	 23.10	
  8.006	-96.837	  4.79231	  2.34694	  2.67560	  1.36362	  3.78957	 -0.08298	  4.93199	707.88397	 23.10	
  7.988	-69.228	  4.79399	  2.90251	  2.13229	  1.43346	  3.71603	 -0.08986	  4.92401	707.89502	 23.10	
  7.997	-41.563	  4.81553	  3.39825	  1.70777	  1.72619	  3.39148	 -0.07208	  4.93417	707.76801	 23.10	
  8.008	-13.821	  4.82027	  3.68397	  1.47263	  2.20162	  2.87198	 -0.06646	  4.92600	707.78198	 23.10	
  8.008	 13.821	  4.83207	  3.69600	  1.47497	  2.76788	  2.32127	 -0.05727	  4.92908	707.86298	 23.10	
  7.997	 41.563	  4.83425	  3.42367	  1.70611	  3.28209	  1.85893	 -0.04810	  4.92358	707.92603	 23.10	
  7.988	 69.228	  4.84760	  2.95380	  2.13608	  3.62773	  1.58266	 -0.05022	  4.93745	707.74298	 23.10	
  8.006	 96.837	  4.83664	  2.39484	  2.67172	  3.69231	  1.51681	 -0.05474	  4.92880	707.79401	 23.10	
  7.997	124.550	  4.82848	  1.89760	  3.20995	  3.46938	  1.68871	 -0.04881	  4.93128	707.81299	 23.10	
  7.991	152.370	  4.81101	  1.55221	  3.60461	  3.00603	  2.06452	 -0.04461	  4.92944	707.80701	 23.10	
 12.009	161.059	  4.59635	  0.82357	  4.08328	  2.83897	  1.84298	 -0.13302	  4.93100	707.83197	 23.10	
 12.013	142.081	  4.61072	  1.06548	  3.78507	  3.39261	  1.38142	 -0.13065	  4.92877	707.85999	 23.10	
 12.006	123.113	  4.63722	  1.45012	  3.33830	  3.83197	  1.05768	 -0.14398	  4.93911	707.88599	 23.10	
 12.007	104.200	  4.65025	  1.94157	  2.78606	  4.09460	  0.86502	 -0.15871	  4.93779	707.87201	 23.10	
 11.989	 85.301	  4.63712	  2.49318	  2.20028	  4.12879	  0.82711	 -0.14598	  4.91346	707.78699	 23.10	
 12.013	 66.294	  4.63941	  3.06430	  1.66621	  3.98280	  0.94300	 -0.13198	  4.91658	708.02698	 23.10	
 12.012	 47.388	  4.65057	  3.57884	  1.23656	  3.65429	  1.21670	 -0.12917	  4.93037	707.85999	 23.10	
 11.990	 28.440	  4.64401	  3.95281	  0.93208	  3.17055	  1.62004	 -0.14541	  4.92901	707.89398	 23.10	
 11.991	  9.464	  4.64512	  4.15116	  0.77699	  2.60452	  2.13302	 -0.14715	  4.93770	707.84399	 23.10	
 11.991	 -9.464	  4.64187	  4.14354	  0.78098	  2.02801	  2.70676	 -0.14572	  4.94192	707.91498	 23.10	
 11.990	-28.440	  4.62179	  3.92449	  0.93691	  1.49862	  3.26572	 -0.15048	  4.93282	707.87500	 23.10	
 12.012	-47.388	  4.59672	  3.52816	  1.23701	  1.07829	  3.73851	 -0.16785	  4.92756	707.96503	 23.10	
 12.013	-66.294	  4.57871	  3.00523	  1.67272	  0.79622	  4.07270	 -0.18361	  4.92738	707.87701	 23.10	
 11.989	-85.301	  4.57583	  2.43404	  2.20904	  0.67628	  4.22098	 -0.19168	  4.93652	707.87701	 23.10	
 12.007	-104.200	  4.57409	  1.87434	  2.78638	  0.69874	  4.17368	 -0.18258	  4.94358	707.92798	 23.10	
 12.006	-123.113	  4.56648	  1.38895	  3.33180	  0.88108	  3.91311	 -0.15570	  4.93853	708.01599	 23.10	
 12.013	-142.081	  4.57094	  1.02559	  3.78942	  1.22292	  3.49007	 -0.14107	  4.93808	707.95001	 23.10	
 12.009	-161.059	  4.56919	  0.80261	  4.08232	  1.68962	  2.95267	 -0.14663	  4.93025	708.04102	 23.20	
 16.000	180.000	  4.27124	  0.07356	  4.52822	  1.99694	  2.12597	 -0.21413	  4.93698	707.95001	 23.10	
 15.990	-165.604	  4.26205	  0.11478	  4.45559	  1.43986	  2.69844	 -0.23233	  4.94493	708.03003	 23.20	
 16.002	-151.165	  4.24297	  0.26840	  4.21254	  0.94395	  3.25039	 -0.22835	  4.93453	708.07703	 23.20	
 16.002	-136.836	  4.22759	  0.52612	  3.83319	  0.53612	  3.74255	 -0.22050	  4.91986	707.99298	 23.20	
 15.995	-122.439	  4.24503	  0.89589	  3.36686	  0.24795	  4.15422	 -0.22381	  4.93790	707.95697	 23.20	
 15.993	-107.966	  4.24529	  1.35333	  2.81480	  0.06039	  4.43018	 -0.23155	  4.93722	707.88800	 23.20	
 16.005	-93.629	  4.23638	  1.87253	  2.23450	 -0.01279	  4.54335	 -0.22492	  4.92354	707.97699	 23.20	
 15.992	-79.234	  4.25570	  2.45001	  1.68199	  0.02798	  4.51993	 -0.21097	  4.93208	707.99500	 23.20	
 16.009	-64.774	  4.26996	  3.02768	  1.17807	  0.17372	  4.33579	 -0.20600	  4.93233	707.93597	 23.20	
 15.997	-50.364	  4.30395	  3.57137	  0.76045	  0.43750	  4.01596	 -0.20533	  4.94630	708.03802	 23.20	
 15.997	-36.045	  4.31780	  4.01112	  0.43287	  0.79680	  3.56380	 -0.20053	  4.93958	707.97400	 23.20	
 16.000	-21.597	  4.33430	  4.32770	  0.21305	  1.25328	  3.03208	 -0.19554	  4.93921	708.16400	 23.20	
 16.003	 -7.169	  4.33652	  4.48636	  0.10091	  1.78253	  2.45053	 -0.18120	  4.93059	708.11902	 23.20	
 16.003	  7.169	  4.33264	  4.48251	  0.10005	  2.34859	  1.88069	 -0.19066	  4.91677	708.03802	 23.20	
 16.000	 21.597	  4.35264	  4.35453	  0.20804	  2.93618	  1.36638	 -0.19606	  4.93480	708.09998	 23.20	
 15.997	 36.045	  4.36416	  4.06619	  0.42794	  3.48279	  0.92171	 -0.19765	  4.94161	708.08099	 23.20	
 15.997	 50.364	  4.36264	  3.63715	  0.75029	  3.93579	  0.56627	 -0.19748	  4.93387	708.11200	 23.20	
 16.009	 64.774	  4.36764	  3.12233	  1.16951	  4.27338	  0.31355	 -0.20145	  4.93449	707.97699	 23.20	
 15.992	 79.234	  4.37233	  2.55234	  1.68284	  4.46834	  0.17724	 -0.21330	  4.93978	707.95099	 23.20	
 16.005	 93.629	  4.35708	  1.97232	  2.24032	  4.49301	  0.15311	 -0.21972	  4.92465	708.07501	 23.20	
 15.993	107.966	  4.34881	  1.43855	  2.81627	  4.37104	  0.23551	 -0.22271	  4.92425	708.13098	 23.20	
 15.995	122.439	  4.33266	  0.96762	  3.37058	  4.09461	  0.41999	 -0.21769	  4.92783	708.08099	 23.20	
 16.002	136.836	  4.32076	  0.58645	  3.85585	  3.68647	  0.70992	 -0.21015	  4.93521	708.05798	 23.20	
 16.002	151.165	  4.29708	  0.30896	  4.21661	  3.16632	  1.10029	 -0.21189	  4.92868	708.03497	 23.20	
 15.990	165.604	  4.28880	  0.13657	  4.45497	  2.58852	  1.58646	 -0.21569	  4.93891	707.99500	 23.20	
 20.003	168.362	  3.87518	 -0.50656	  4.70218	  2.26328	  1.27970	 -0.24010	  4.92550	708.07703	 23.20	
 20.008	156.764	  3.90853	 -0.38312	  4.54484	  2.85687	  0.80164	 -0.24174	  4.94886	708.15002	 23.20	
 20.000	145.147	  3.91653	 -0.17379	  4.23054	  3.39955	  0.38892	 -0.24062	  4.93084	708.09802	 23.20	
 19.995	133.545	  3.93155	  0.11531	  3.81661	  3.87901	  0.06575	 -0.23843	  4.92216	708.03302	 23.20	
 20.009	121.926	  3.94652	  0.47365	  3.32472	  4.27837	 -0.19641	 -0.21264	  4.92372	708.07202	 23.20	
 20.005	110.327	  3.97403	  0.91766	  2.78942	  4.56844	 -0.36194	 -0.20056	  4.93498	708.12799	 23.20	
 19.989	 98.733	  3.98511	  1.41826	  2.22030	  4.71830	 -0.45244	 -0.18948	  4.92828	708.05798	 23.20	
 19.999	 87.075	  3.99416	  1.96833	  1.65696	  4.75174	 -0.47396	 -0.19497	  4.93292	708.12299	 23.20	
 19.992	 75.457	  3.99840	  2.53554	  1.13512	  4.66227	 -0.41098	 -0.21553	  4.93338	708.07202	 23.20	
 20.009	 63.844	  3.99827	  3.09729	  0.65809	  4.46019	 -0.28073	 -0.21979	  4.94233	708.04999	 23.20	
 19.989	 52.269	  3.98565	  3.60397	  0.26359	  4.11677	 -0.05649	 -0.22070	  4.93069	708.06000	 23.20	
 19.999	 40.602	  3.97888	  4.05446	 -0.05882	  3.68329	  0.24793	 -0.20429	  4.93276	708.01300	 23.20	
 20.004	 29.051	  3.96857	  4.39806	 -0.29525	  3.17127	  0.62739	 -0.17511	  4.92624	708.20898	 23.20	
 20.005	 17.433	  3.96121	  4.62916	 -0.45555	  2.61537	  1.07612	 -0.15974	  4.92594	708.19501	 23.20	
 20.006	  5.780	  3.96729	  4.75229	 -0.53791	  2.04658	  1.59251	 -0.16307	  4.93813	708.09198	 23.20	
 20.006	 -5.780	  3.96360	  4.74658	 -0.53805	  1.49457	  2.14420	 -0.16417	  4.94050	708.05200	 23.20	
 20.005	-17.433	  3.94901	  4.60942	 -0.45656	  0.97366	  2.71154	 -0.17613	  4.93626	708.05701	 23.20	
 20.004	-29.051	  3.92893	  4.34205	 -0.29842	  0.50960	  3.25597	 -0.17997	  4.92761	708.14203	 23.30	
 19.999	-40.602	  3.90622	  3.96534	 -0.05794	  0.12480	  3.74474	 -0.18320	  4.91836	708.21503	 23.20	
 19.989	-52.269	  3.89402	  3.50497	  0.26210	 -0.19331	  4.18091	 -0.18489	  4.93285	708.05798	 23.30	
 20.009	-63.844	  3.87502	  2.97608	  0.65657	 -0.42453	  4.50208	 -0.17073	  4.93660	708.11401	 23.30	
 19.992	-75.457	  3.84970	  2.40316	  1.12660	 -0.57047	  4.69302	 -0.17007	  4.92559	708.08002	 23.30	
 19.999	-87.075	  3.84250	  1.83808	  1.64867	 -0.64318	  4.78137	 -0.18347	  4.93285	708.17401	 23.30	
 19.989	-98.733	  3.82799	  1.29320	  2.20571	 -0.63502	  4.73721	 -0.19893	  4.92529	708.01599	 23.30	
 20.005	-110.327	  3.83479	  0.80725	  2.77465	 -0.54895	  4.59573	 -0.22448	  4.93909	708.15601	 23.30	
 20.009	-121.926	  3.81825	  0.38022	  3.30512	 -0.37402	  4.30263	 -0.24325	  4.91930	708.24402	 23.30	
 19.995	-133.545	  3.82145	  0.03451	  3.79673	 -0.11846	  3.92332	 -0.25619	  4.92358	708.14502	 23.30	
 20.000	-145.147	  3.82633	 -0.23204	  4.20801	  0.22754	  3.45396	 -0.24715	  4.92753	708.16803	 23.30	
 20.008	-156.764	  3.83695	 -0.42091	  4.51898	  0.65022	  2.92541	 -0.23088	  4.93312	708.18500	 23.30	
 20.003	-168.362	  3.84997	 -0.52715	  4.70497	  1.13931	  2.36972	 -0.22740	  4.93541	708.05701	 23.30	
 20.000	180.000	  3.86180	 -0.55619	  4.76319	  1.68311	  1.80721	 -0.22646	  4.93344	708.03302	 23.30	
