FileType=PCF
NHL=14
Date=08/30/17	11:04:57
Facility=APL
Serial=16328-18
Customer=NASA
NP=6
Mach=0.150000
Calibration=1:1
CalPts=490
TstPts=95
PortNumbering=AP Standard
Units=Torr C m/s kg/m^3 deg mm 
Theta[deg]	Phi[deg]	P1[Torr]	P2[Torr]	P3[Torr]	P4[Torr]	P5[Torr]	P6[Torr]	Pt[Torr]	Ps[Abs,Torr]	Ts[C]	
  0.000	  0.000	 11.17739	  5.77333	  5.55968	  5.64587	  5.77030	  0.10299	 11.16222	706.37799	 24.10	
  1.691	128.401	 11.15939	  5.40677	  5.89157	  6.06584	  5.31372	  0.10533	 11.14720	706.55499	 24.10	
  1.692	 77.194	 11.19292	  5.90979	  5.40583	  6.16352	  5.23595	  0.10591	 11.18069	706.62598	 24.10	
  1.699	 26.182	 11.18661	  6.28968	  5.03777	  5.87164	  5.51582	  0.10097	 11.17382	706.61401	 24.10	
  1.699	-26.182	 11.18876	  6.27907	  5.04941	  5.39793	  6.00296	  0.09287	 11.17737	706.53198	 24.10	
  1.692	-77.194	 11.17473	  5.86139	  5.43001	  5.11452	  6.27904	  0.08368	 11.16338	706.42297	 24.10	
  1.691	-128.401	 11.19595	  5.42318	  5.91419	  5.21951	  6.20988	  0.09276	 11.18198	706.54401	 24.10	
  1.700	180.000	 11.18855	  5.20856	  6.12822	  5.64932	  5.76204	  0.09883	 11.17302	706.42200	 24.10	
  3.400	180.000	 11.18067	  4.62214	  6.67322	  5.58841	  5.72343	  0.06517	 11.17713	706.48798	 24.10	
  3.388	-152.325	 11.18467	  4.74102	  6.53693	  5.07958	  6.24830	  0.06033	 11.17977	706.52698	 24.10	
  3.397	-124.529	 11.16468	  5.05178	  6.14833	  4.68066	  6.65639	  0.04917	 11.16500	706.54901	 24.10	
  3.399	-96.763	 11.17053	  5.55897	  5.63209	  4.49864	  6.88139	  0.05950	 11.17871	706.57202	 24.00	
  3.394	-69.283	 11.15804	  6.09518	  5.07496	  4.55170	  6.78120	  0.04039	 11.16812	706.48102	 24.00	
  3.400	-41.398	 11.14505	  6.56943	  4.64023	  4.81727	  6.45104	  0.05382	 11.16231	706.54401	 24.00	
  3.401	-14.021	 11.17562	  6.86425	  4.40150	  5.29840	  5.96310	  0.04875	 11.19295	706.44000	 24.00	
  3.401	 14.021	 11.16621	  6.87215	  4.39807	  5.84266	  5.40540	  0.06799	 11.18037	706.35999	 24.00	
  3.400	 41.398	 11.15662	  6.59397	  4.62436	  6.34344	  4.93406	  0.06809	 11.16901	706.56702	 24.00	
  3.394	 69.283	 11.15691	  6.13013	  5.05171	  6.66701	  4.66560	  0.08701	 11.16554	706.45001	 24.00	
  3.399	 96.763	 11.18008	  5.58990	  5.60050	  6.75669	  4.61445	  0.08826	 11.17956	706.38702	 24.00	
  3.397	124.529	 11.17820	  5.08861	  6.13964	  6.55249	  4.79907	  0.06872	 11.17445	706.52698	 24.00	
  3.388	152.325	 11.17575	  4.75475	  6.53157	  6.14515	  5.19076	  0.07921	 11.17217	706.45398	 24.00	
  5.099	161.165	 11.13873	  4.06092	  7.12156	  6.09085	  5.05254	  0.02375	 11.17510	706.58801	 24.00	
  5.109	142.013	 11.14193	  4.31390	  6.82801	  6.62385	  4.56646	  0.02423	 11.17901	706.54303	 24.00	
  5.095	123.033	 11.12423	  4.71574	  6.35554	  7.01811	  4.20956	  0.02819	 11.16625	706.64203	 24.00	
  5.105	104.191	 11.11473	  5.21967	  5.80826	  7.26053	  3.99296	  0.02880	 11.16734	706.61200	 24.00	
  5.093	 85.207	 11.11840	  5.79769	  5.22772	  7.30915	  3.94813	  0.02824	 11.17828	706.57703	 24.00	
  5.104	 66.290	 11.10236	  6.36117	  4.67643	  7.14959	  4.06120	  0.02978	 11.17111	706.65698	 24.00	
  5.094	 47.331	 11.12132	  6.87475	  4.22882	  6.82030	  4.35749	  0.02448	 11.19610	706.43701	 24.00	
  5.089	 28.397	 11.10323	  7.23225	  3.89739	  6.33543	  4.77257	  0.02071	 11.18099	706.54999	 24.00	
  5.096	  9.576	 11.08480	  7.41702	  3.72432	  5.76597	  5.29301	  0.00756	 11.16939	706.50098	 23.90	
  5.096	 -9.576	 11.09652	  7.42088	  3.73256	  5.18526	  5.89235	  0.00056	 11.18214	706.61401	 23.90	
  5.089	-28.397	 11.08803	  7.20485	  3.91239	  4.66131	  6.44223	 -0.00701	 11.17363	706.54401	 23.90	
  5.094	-47.331	 11.07768	  6.81739	  4.23234	  4.22546	  6.91684	 -0.01206	 11.15722	706.54700	 23.90	
  5.104	-66.290	 11.09303	  6.31678	  4.69756	  3.93340	  7.27144	 -0.01931	 11.16684	706.56598	 23.90	
  5.093	-85.207	 11.09016	  5.73541	  5.24388	  3.80844	  7.41885	 -0.01752	 11.15603	706.51599	 23.90	
  5.105	-104.191	 11.10332	  5.16283	  5.83466	  3.85414	  7.38212	 -0.01153	 11.16385	706.54901	 23.90	
  5.095	-123.033	 11.12348	  4.66376	  6.39041	  4.08254	  7.13764	 -0.00018	 11.17414	706.44598	 23.90	
  5.109	-142.013	 11.14299	  4.27560	  6.85320	  4.45542	  6.73220	  0.00937	 11.18633	706.60498	 23.90	
  5.099	-161.165	 11.13550	  4.03696	  7.13635	  4.94644	  6.19341	  0.01424	 11.17836	706.46503	 23.90	
  5.100	180.000	 11.13502	  3.96400	  7.23098	  5.50763	  5.61737	  0.02145	 11.17097	706.55200	 23.90	
  6.800	180.000	 11.04192	  3.28760	  7.76307	  5.40568	  5.51240	 -0.03763	 11.16294	706.68201	 23.90	
  6.796	-166.229	 11.04673	  3.33783	  7.70288	  4.85200	  6.08394	 -0.05097	 11.17216	706.65002	 23.90	
  6.808	-152.311	 11.02861	  3.50022	  7.48416	  4.32720	  6.62394	 -0.05774	 11.15991	706.59497	 23.90	
  6.795	-138.383	 11.01960	  3.79019	  7.13283	  3.87604	  7.12071	 -0.05739	 11.15985	706.66998	 23.90	
  6.792	-124.591	 11.03412	  4.18964	  6.69223	  3.52893	  7.53309	 -0.07137	 11.18031	706.62903	 23.90	
  6.787	-110.754	 11.01089	  4.66072	  6.15530	  3.28546	  7.79635	 -0.08810	 11.16539	706.67603	 23.90	
  6.800	-96.985	 11.00569	  5.19546	  5.59283	  3.15729	  7.94186	 -0.09260	 11.16846	706.68500	 23.90	
  6.800	-83.015	 11.02137	  5.78771	  5.01904	  3.16068	  7.95431	 -0.09868	 11.19388	706.58099	 23.90	
  6.787	-69.246	 11.00184	  6.34235	  4.47271	  3.27351	  7.79681	 -0.10382	 11.18403	706.59802	 23.90	
  6.792	-55.409	 11.00419	  6.87585	  3.98904	  3.50713	  7.52256	 -0.10186	 11.19265	706.47699	 23.90	
  6.795	-41.617	 10.98985	  7.32572	  3.58415	  3.84931	  7.10951	 -0.08649	 11.18183	706.53998	 23.90	
  6.808	-27.689	 10.99616	  7.68743	  3.27829	  4.29981	  6.61559	 -0.07904	 11.19232	706.65997	 23.90	
  6.796	-13.771	 10.97884	  7.89632	  3.08969	  4.80601	  6.05354	 -0.07420	 11.17373	706.66803	 23.90	
  6.800	  0.000	 10.96558	  7.96290	  3.02187	  5.35281	  5.47786	 -0.06222	 11.16359	706.67401	 23.90	
  6.796	 13.771	 10.96872	  7.90032	  3.07491	  5.92924	  4.91475	 -0.05690	 11.16449	706.53998	 23.90	
  6.808	 27.689	 10.97217	  7.69350	  3.25219	  6.48007	  4.40000	 -0.04974	 11.16265	706.72900	 23.90	
  6.795	 41.617	 10.99208	  7.35733	  3.55873	  6.98063	  3.96988	 -0.03767	 11.17439	706.49500	 23.80	
  6.792	 55.409	 11.01314	  6.92267	  3.96561	  7.39376	  3.63518	 -0.03198	 11.18994	706.65997	 23.80	
  6.787	 69.246	 11.00504	  6.39536	  4.43726	  7.67146	  3.39910	 -0.03441	 11.17163	706.69897	 23.80	
  6.800	 83.015	 10.99821	  5.83365	  4.96489	  7.81916	  3.27440	 -0.03887	 11.15853	706.72998	 23.80	
  6.800	 96.985	 11.01920	  5.26482	  5.54996	  7.83730	  3.27892	 -0.03830	 11.16760	706.70203	 23.80	
  6.787	110.754	 11.03825	  4.73937	  6.12066	  7.69911	  3.41590	 -0.04256	 11.17605	706.69299	 23.80	
  6.792	124.591	 11.05627	  4.26506	  6.65715	  7.42932	  3.66033	 -0.03890	 11.18416	706.65900	 23.80	
  6.795	138.383	 11.06916	  3.86562	  7.11864	  7.03583	  4.00945	 -0.03372	 11.18984	706.65100	 23.80	
  6.808	152.311	 11.05770	  3.54891	  7.47090	  6.54342	  4.43960	 -0.03822	 11.17803	706.59802	 23.80	
  6.796	166.229	 11.04873	  3.35974	  7.68656	  5.98556	  4.95224	 -0.03791	 11.16930	706.82800	 23.80	
  8.491	168.704	 10.92564	  2.66839	  8.20578	  5.88353	  4.80360	 -0.11976	 11.17608	706.62799	 23.80	
  8.502	157.493	 10.93062	  2.81939	  8.02726	  6.45094	  4.27284	 -0.12086	 11.17906	706.75201	 23.80	
  8.494	146.194	 10.92099	  3.07488	  7.71634	  6.97868	  3.78647	 -0.11802	 11.16884	706.66998	 23.80	
  8.495	135.039	 10.92591	  3.41887	  7.32346	  7.45835	  3.37303	 -0.11586	 11.18033	706.63098	 23.80	
  8.487	123.723	 10.90583	  3.84005	  6.82243	  7.83692	  3.03485	 -0.12897	 11.17163	706.73700	 23.80	
  8.492	112.575	 10.89848	  4.31866	  6.28977	  8.12151	  2.78935	 -0.13434	 11.16932	706.73297	 23.80	
  8.510	101.220	 10.87972	  4.85190	  5.70133	  8.29221	  2.62945	 -0.13301	 11.15827	706.81598	 23.80	
  8.500	 90.000	 10.87189	  5.42704	  5.11439	  8.34073	  2.58408	 -0.12179	 11.16457	706.74597	 23.80	
  8.510	 78.780	 10.86226	  6.00726	  4.53753	  8.27976	  2.62191	 -0.12337	 11.16647	706.73999	 23.80	
  8.492	 67.425	 10.86367	  6.58127	  4.00319	  8.09112	  2.77508	 -0.11529	 11.17840	706.67798	 23.80	
  8.487	 56.277	 10.84568	  7.09645	  3.51768	  7.78892	  3.00442	 -0.10413	 11.16700	706.80902	 23.80	
  8.495	 44.961	 10.83108	  7.56720	  3.09178	  7.38800	  3.32984	 -0.10849	 11.16683	706.73798	 23.80	
  8.494	 33.806	 10.84370	  7.95998	  2.76551	  6.92018	  3.75129	 -0.12688	 11.18331	706.76099	 23.80	
  8.502	 22.507	 10.83499	  8.24816	  2.51685	  6.38232	  4.23195	 -0.13792	 11.18205	706.69897	 23.80	
  8.491	 11.296	 10.82810	  8.41207	  2.37376	  5.81004	  4.76678	 -0.13943	 11.17758	706.78497	 23.80	
  8.500	  0.000	 10.80536	  8.45233	  2.32320	  5.20733	  5.33474	 -0.14508	 11.15599	706.76001	 23.80	
  8.491	-11.296	 10.80695	  8.38831	  2.38142	  4.63803	  5.92413	 -0.15332	 11.15880	706.73798	 23.80	
  8.502	-22.507	 10.82074	  8.21394	  2.53461	  4.10988	  6.49679	 -0.16155	 11.17363	706.69299	 23.80	
  8.494	-33.806	 10.81870	  7.91012	  2.78641	  3.61722	  7.04038	 -0.16516	 11.16489	706.78003	 23.80	
  8.495	-44.961	 10.83202	  7.52489	  3.12822	  3.20499	  7.52491	 -0.17983	 11.17621	706.66699	 23.80	
  8.487	-56.277	 10.81848	  7.02592	  3.55004	  2.87412	  7.89689	 -0.19140	 11.15033	706.59497	 23.80	
  8.492	-67.425	 10.84145	  6.50704	  4.04039	  2.63978	  8.20366	 -0.19889	 11.16914	706.66199	 23.80	
  8.510	-78.780	 10.86459	  5.93599	  4.59461	  2.49098	  8.40567	 -0.19832	 11.18298	706.51599	 23.80	
  8.500	-90.000	 10.84921	  5.33619	  5.16758	  2.44738	  8.44941	 -0.18914	 11.16326	706.40900	 23.80	
  8.510	-101.220	 10.86959	  4.76948	  5.76171	  2.50122	  8.40302	 -0.18375	 11.17197	706.48499	 23.80	
  8.492	-112.575	 10.86012	  4.22333	  6.33083	  2.65804	  8.20325	 -0.17041	 11.15399	706.56897	 23.80	
  8.487	-123.723	 10.88699	  3.75441	  6.87385	  2.91076	  7.93099	 -0.15152	 11.17116	706.55499	 23.80	
  8.495	-135.039	 10.87748	  3.33197	  7.34291	  3.23793	  7.53499	 -0.13544	 11.15409	706.61603	 23.80	
  8.494	-146.194	 10.88617	  3.01327	  7.73092	  3.66209	  7.06229	 -0.13624	 11.15557	706.55499	 23.80	
  8.502	-157.493	 10.90248	  2.78036	  8.03394	  4.16458	  6.52497	 -0.14090	 11.16390	706.65302	 23.80	
  8.491	-168.704	 10.93019	  2.65363	  8.22277	  4.71330	  5.97286	 -0.13273	 11.18539	706.52698	 23.80	
  8.500	180.000	 10.91338	  2.60579	  8.26566	  5.28129	  5.37639	 -0.11944	 11.16377	706.32397	 23.80	
 10.200	180.000	 10.75129	  1.91230	  8.74380	  5.13399	  5.21977	 -0.21055	 11.17278	706.53198	 23.80	
 10.191	-170.497	 10.73291	  1.93174	  8.69237	  4.54404	  5.79706	 -0.22892	 11.16364	706.58301	 23.80	
 10.210	-161.034	 10.73840	  2.04901	  8.55141	  3.98991	  6.38687	 -0.23431	 11.17564	706.55701	 23.80	
 10.194	-151.526	 10.71004	  2.24707	  8.27657	  3.45932	  6.93849	 -0.22968	 11.15354	706.48102	 23.80	
 10.190	-142.105	 10.70051	  2.52016	  7.93182	  2.99644	  7.45204	 -0.22307	 11.15142	706.54401	 23.80	
 10.215	-132.646	 10.71428	  2.87119	  7.53259	  2.60241	  7.92276	 -0.22449	 11.17662	706.49298	 23.80	
 10.203	-123.092	 10.69010	  3.28895	  7.02516	  2.26712	  8.29658	 -0.23688	 11.16203	706.61902	 23.80	
 10.192	-113.678	 10.68613	  3.77531	  6.48217	  2.02177	  8.59419	 -0.25457	 11.16519	706.43201	 23.80	
 10.208	-104.249	 10.65388	  4.29124	  5.89523	  1.83950	  8.78265	 -0.27728	 11.14334	706.52698	 23.80	
 10.210	-94.801	 10.67526	  4.87158	  5.31705	  1.75279	  8.91307	 -0.28938	 11.17625	706.50201	 23.90	
 10.210	-85.199	 10.67260	  5.47308	  4.71355	  1.74657	  8.91637	 -0.30000	 11.18313	706.69000	 23.90	
 10.208	-75.751	 10.63995	  6.04993	  4.13045	  1.82056	  8.78832	 -0.30206	 11.15698	706.60797	 23.90	
 10.192	-66.322	 10.63045	  6.62155	  3.59599	  1.99116	  8.57297	 -0.29806	 11.15140	706.59998	 23.90	
 10.203	-56.908	 10.62765	  7.17137	  3.10514	  2.23435	  8.27716	 -0.28866	 11.16002	706.72900	 23.90	
 10.215	-47.354	 10.61203	  7.66569	  2.66049	  2.55196	  7.88126	 -0.27344	 11.15049	706.52899	 23.90	
 10.190	-37.895	 10.61206	  8.08758	  2.30464	  2.94272	  7.42642	 -0.26126	 11.15545	706.62000	 23.90	
 10.194	-28.474	 10.60794	  8.42945	  2.01889	  3.39809	  6.90842	 -0.24574	 11.15511	706.65997	 23.90	
 10.210	-18.966	 10.60600	  8.69323	  1.80243	  3.91085	  6.34141	 -0.25065	 11.15391	706.56702	 23.90	
 10.191	 -9.503	 10.61781	  8.85810	  1.67855	  4.46552	  5.76902	 -0.24089	 11.16799	706.65002	 23.90	
 10.200	  0.000	 10.60737	  8.90896	  1.62538	  5.03835	  5.16939	 -0.23315	 11.15679	706.60498	 23.80	
 10.191	  9.503	 10.61007	  8.86718	  1.66149	  5.63764	  4.58435	 -0.22851	 11.16016	706.48798	 23.80	
 10.210	 18.966	 10.61279	  8.72669	  1.77574	  6.21685	  4.03537	 -0.23095	 11.15930	706.52600	 23.90	
 10.194	 28.474	 10.61449	  8.46879	  1.98819	  6.77246	  3.52942	 -0.22429	 11.15344	706.53998	 23.90	
 10.190	 37.895	 10.62542	  8.14206	  2.26968	  7.30102	  3.07568	 -0.20614	 11.15860	706.51300	 23.90	
 10.215	 47.354	 10.61649	  7.72275	  2.61530	  7.75821	  2.67184	 -0.18559	 11.14464	706.51202	 23.90	
 10.203	 56.908	 10.66071	  7.26060	  3.05814	  8.16736	  2.37023	 -0.18623	 11.17619	706.52600	 23.90	
 10.192	 66.322	 10.67390	  6.72769	  3.54946	  8.46544	  2.14349	 -0.19508	 11.17604	706.51599	 23.90	
 10.208	 75.751	 10.66228	  6.15202	  4.07123	  8.66846	  1.96978	 -0.20410	 11.15750	706.71002	 23.90	
 10.210	 85.199	 10.69116	  5.57958	  4.64526	  8.79663	  1.89192	 -0.21523	 11.17537	706.56702	 23.90	
 10.210	 94.801	 10.70023	  4.98095	  5.24826	  8.80287	  1.89564	 -0.22573	 11.17132	706.48102	 23.90	
 10.208	104.249	 10.70456	  4.41407	  5.83831	  8.70268	  1.98054	 -0.23514	 11.16150	706.56403	 23.90	
 10.192	113.678	 10.71180	  3.88542	  6.41342	  8.49539	  2.15972	 -0.22974	 11.15469	706.58301	 23.90	
 10.203	123.092	 10.72796	  3.39953	  6.96708	  8.21845	  2.39792	 -0.22381	 11.16234	706.55701	 23.90	
 10.215	132.646	 10.72453	  2.96107	  7.46495	  7.83887	  2.71134	 -0.20964	 11.15482	706.59802	 23.90	
 10.190	142.105	 10.73649	  2.60466	  7.89520	  7.38541	  3.11399	 -0.19600	 11.16014	706.61102	 23.90	
 10.194	151.526	 10.75613	  2.31376	  8.26288	  6.88207	  3.57619	 -0.20081	 11.17509	706.54401	 23.90	
 10.210	161.034	 10.74075	  2.08824	  8.51793	  6.31313	  4.07831	 -0.20590	 11.16216	706.71802	 23.90	
 10.191	170.497	 10.74542	  1.96421	  8.67446	  5.73126	  4.63105	 -0.20736	 11.16246	706.47400	 23.90	
 11.899	171.783	 10.51968	  1.25995	  9.10964	  5.55135	  4.42844	 -0.30215	 11.15420	706.46698	 23.80	
 11.890	163.610	 10.52243	  1.37254	  8.97375	  6.14051	  3.87765	 -0.30078	 11.15733	706.62299	 23.80	
 11.889	155.445	 10.52037	  1.55787	  8.74352	  6.70932	  3.35637	 -0.29377	 11.15349	706.62201	 23.80	
 11.909	147.299	 10.52135	  1.80395	  8.44228	  7.26060	  2.86845	 -0.29015	 11.16099	706.52698	 23.80	
 11.902	139.148	 10.52598	  2.12702	  8.05460	  7.75828	  2.45005	 -0.29044	 11.17110	706.53601	 23.80	
 11.894	130.867	 10.51344	  2.51491	  7.58423	  8.18471	  2.08247	 -0.30435	 11.15620	706.65900	 23.80	
 11.897	122.732	 10.52280	  2.94569	  7.08937	  8.57121	  1.77015	 -0.32307	 11.17280	706.69897	 23.80	
 11.903	114.597	 10.48529	  3.41757	  6.52058	  8.84804	  1.51270	 -0.33121	 11.14962	706.61902	 23.80	
 11.893	106.346	 10.50485	  3.96494	  5.94705	  9.08475	  1.34140	 -0.33408	 11.17735	706.56897	 23.80	
 11.892	 98.155	 10.48273	  4.51803	  5.34569	  9.20125	  1.23294	 -0.33309	 11.17125	706.57501	 23.80	
 11.900	 90.000	 10.46162	  5.08905	  4.74572	  9.23497	  1.18595	 -0.32343	 11.16459	706.54303	 23.80	
 11.892	 81.845	 10.44308	  5.67083	  4.15725	  9.16974	  1.22295	 -0.30962	 11.15318	706.49298	 23.90	
 11.893	 73.654	 10.44602	  6.26306	  3.60193	  9.03681	  1.32620	 -0.29224	 11.16657	706.53198	 23.90	
 11.903	 65.403	 10.43739	  6.83782	  3.07126	  8.80597	  1.50228	 -0.27999	 11.17146	706.51801	 23.90	
 11.897	 57.268	 10.42972	  7.37768	  2.59323	  8.49715	  1.74650	 -0.26735	 11.17679	706.62201	 23.90	
 11.894	 49.133	 10.40107	  7.85430	  2.16309	  8.09548	  2.05117	 -0.26208	 11.15545	706.54401	 23.90	
 11.902	 40.852	 10.39210	  8.29093	  1.78661	  7.65132	  2.40877	 -0.27980	 11.15673	706.45599	 23.90	
 11.909	 32.701	 10.39184	  8.66624	  1.48116	  7.15620	  2.83357	 -0.30625	 11.16604	706.61401	 23.90	
 11.889	 24.555	 10.38307	  8.95120	  1.24555	  6.60162	  3.32110	 -0.31964	 11.16068	706.49799	 23.90	
 11.890	 16.390	 10.36688	  9.15474	  1.07034	  6.02246	  3.83569	 -0.32708	 11.15090	706.59802	 23.90	
 11.899	  8.217	 10.37381	  9.28909	  0.96777	  5.44312	  4.39301	 -0.32125	 11.16091	706.60602	 23.90	
 11.900	  0.000	 10.36625	  9.32394	  0.93674	  4.84147	  4.97996	 -0.31719	 11.15554	706.55701	 23.90	
 11.899	 -8.217	 10.36922	  9.27601	  0.97820	  4.26205	  5.57102	 -0.32702	 11.15855	706.64697	 23.90	
 11.890	-16.390	 10.37203	  9.13640	  1.09345	  3.71048	  6.16079	 -0.32741	 11.15986	706.61603	 23.90	
 11.889	-24.555	 10.37886	  8.91797	  1.27252	  3.18441	  6.74084	 -0.33305	 11.16491	706.67401	 23.90	
 11.909	-32.701	 10.37406	  8.61189	  1.51202	  2.70340	  7.28107	 -0.33389	 11.15526	706.57397	 23.90	
 11.902	-40.852	 10.38555	  8.23465	  1.83083	  2.28631	  7.77971	 -0.34818	 11.16165	706.61200	 23.90	
 11.894	-49.133	 10.38092	  7.77491	  2.21054	  1.90714	  8.22374	 -0.36133	 11.15021	706.68103	 23.90	
 11.897	-57.268	 10.38287	  7.27056	  2.64115	  1.59703	  8.60085	 -0.37475	 11.14624	706.77502	 23.90	
 11.903	-65.403	 10.41120	  6.73569	  3.13551	  1.35653	  8.92767	 -0.38379	 11.17180	706.71503	 23.90	
 11.893	-73.654	 10.41664	  6.15032	  3.67242	  1.18666	  9.14629	 -0.38947	 11.17188	706.72998	 23.90	
 11.892	-81.845	 10.43761	  5.56903	  4.24328	  1.08976	  9.29052	 -0.39529	 11.17866	706.70203	 23.90	
 11.900	-90.000	 10.41206	  4.95593	  4.81831	  1.05616	  9.30685	 -0.39040	 11.14061	706.68701	 23.90	
 11.892	-98.155	 10.42470	  4.37961	  5.41335	  1.09938	  9.26695	 -0.38016	 11.14528	706.66199	 23.90	
 11.893	-106.346	 10.43747	  3.82476	  6.00767	  1.20146	  9.14275	 -0.36209	 11.14767	706.57501	 23.90	
 11.903	-114.597	 10.45332	  3.29428	  6.59829	  1.37618	  8.93467	 -0.33908	 11.16086	706.65100	 23.90	
 11.897	-122.732	 10.47672	  2.82607	  7.15215	  1.63260	  8.64191	 -0.32151	 11.17380	706.68201	 23.90	
 11.894	-130.867	 10.45512	  2.40180	  7.62685	  1.94828	  8.24153	 -0.30447	 11.13562	706.61200	 23.90	
 11.902	-139.148	 10.47905	  2.03434	  8.09087	  2.33892	  7.80387	 -0.30542	 11.15284	706.71600	 23.90	
 11.909	-147.299	 10.49232	  1.72965	  8.47394	  2.76785	  7.31580	 -0.31920	 11.15697	706.79999	 23.90	
 11.889	-155.445	 10.51877	  1.50940	  8.78351	  3.26665	  6.78594	 -0.33096	 11.17377	706.65900	 23.90	
 11.890	-163.610	 10.51896	  1.34221	  8.99711	  3.80419	  6.20439	 -0.32756	 11.16660	706.66199	 23.90	
 11.899	-171.783	 10.51462	  1.23970	  9.12430	  4.35777	  5.61460	 -0.31960	 11.15875	706.69299	 23.90	
 11.900	180.000	 10.52901	  1.21614	  9.17226	  4.95245	  5.02497	 -0.31375	 11.16803	706.61401	 23.90	
 13.600	180.000	 10.25560	  0.52900	  9.55107	  4.73834	  4.80111	 -0.40915	 11.14884	706.65002	 23.90	
 13.608	-172.853	 10.25169	  0.54192	  9.52274	  4.15780	  5.38230	 -0.41970	 11.15425	706.61200	 23.90	
 13.611	-165.583	 10.26576	  0.62413	  9.42334	  3.59078	  5.98997	 -0.42190	 11.17713	706.58899	 23.90	
 13.601	-158.353	 10.26435	  0.77004	  9.23150	  3.04401	  6.58137	 -0.42736	 11.18293	706.54700	 23.90	
 13.609	-151.210	 10.25373	  0.96623	  8.96312	  2.54224	  7.13467	 -0.41726	 11.17695	706.67798	 23.90	
 13.611	-143.999	 10.22051	  1.22130	  8.60651	  2.07689	  7.64114	 -0.40714	 11.15485	706.72101	 23.90	
 13.601	-136.825	 10.20272	  1.53825	  8.19092	  1.65933	  8.11743	 -0.38329	 11.14296	706.64301	 23.90	
 13.596	-129.640	 10.20111	  1.91294	  7.73437	  1.29712	  8.55772	 -0.38048	 11.15668	706.62598	 23.90	
 13.611	-122.431	 10.19830	  2.33660	  7.23003	  0.99212	  8.93368	 -0.39092	 11.16147	706.68103	 23.90	
 13.604	-115.211	 10.21337	  2.81710	  6.69623	  0.75596	  9.25166	 -0.41340	 11.18724	706.69897	 23.90	
 13.595	-108.042	 10.18156	  3.32412	  6.10607	  0.57934	  9.45372	 -0.43337	 11.15404	706.71503	 23.90	
 13.607	-100.793	 10.17236	  3.87205	  5.50731	  0.44434	  9.61573	 -0.44632	 11.16224	706.78003	 23.90	
 13.601	-93.617	 10.16718	  4.44178	  4.91290	  0.38313	  9.69544	 -0.45332	 11.16626	706.84399	 23.90	
 13.601	-86.383	 10.16123	  5.03801	  4.31417	  0.37794	  9.69789	 -0.45439	 11.16814	706.72302	 23.90	
 13.607	-79.207	 10.14333	  5.62391	  3.73756	  0.43394	  9.61031	 -0.45149	 11.16367	706.67401	 23.90	
 13.595	-71.958	 10.12259	  6.21081	  3.17686	  0.55419	  9.43396	 -0.43946	 11.14542	706.62799	 23.90	
 13.604	-64.789	 10.11785	  6.78631	  2.65570	  0.72342	  9.20882	 -0.44172	 11.15115	706.59497	 23.90	
 13.611	-57.569	 10.12328	  7.34640	  2.17636	  0.95537	  8.92078	 -0.42781	 11.16707	706.62903	 23.90	
 13.596	-50.360	 10.11395	  7.85539	  1.73872	  1.24980	  8.54311	 -0.41963	 11.16585	706.65399	 23.90	
 13.601	-43.175	 10.10062	  8.31194	  1.35553	  1.60175	  8.10111	 -0.41038	 11.15326	706.66998	 23.90	
 13.611	-36.001	 10.10106	  8.72867	  1.02301	  2.00470	  7.61455	 -0.40352	 11.16285	706.61902	 23.90	
 13.609	-28.790	 10.09697	  9.06995	  0.74944	  2.45060	  7.09066	 -0.39586	 11.16127	706.65399	 23.90	
 13.601	-21.647	 10.09234	  9.33783	  0.53971	  2.94050	  6.53610	 -0.39702	 11.16131	706.65399	 23.90	
 13.611	-14.417	 10.10612	  9.55548	  0.38343	  3.48319	  5.95417	 -0.39013	 11.18098	706.61902	 23.90	
 13.608	 -7.147	 10.08040	  9.65174	  0.28674	  4.03805	  5.34399	 -0.38421	 11.14813	706.59998	 23.90	
 13.600	  0.000	 10.08288	  9.69583	  0.25755	  4.61167	  4.76256	 -0.37912	 11.15224	706.60498	 23.90	
 13.608	  7.147	 10.06935	  9.65563	  0.27567	  5.19613	  4.17183	 -0.38420	 11.13781	706.55200	 23.90	
 13.611	 14.417	 10.07955	  9.55226	  0.35974	  5.79067	  3.61403	 -0.39110	 11.14562	706.64697	 23.90	
 13.601	 21.647	 10.09632	  9.37565	  0.50893	  6.37977	  3.08824	 -0.39626	 11.15868	706.49597	 23.90	
 13.609	 28.790	 10.09153	  9.11170	  0.70982	  6.94205	  2.58378	 -0.38412	 11.15055	706.62201	 23.90	
 13.611	 36.001	 10.08930	  8.77535	  0.97027	  7.46183	  2.13559	 -0.37017	 11.13840	706.67401	 23.90	
 13.601	 43.175	 10.13162	  8.40306	  1.30403	  7.97211	  1.74923	 -0.35082	 11.17324	706.55701	 23.90	
 13.596	 50.360	 10.11565	  7.93173	  1.67481	  8.39753	  1.38761	 -0.33870	 11.14671	706.60602	 23.90	
 13.611	 57.569	 10.13123	  7.44154	  2.09293	  8.79240	  1.08255	 -0.34305	 11.15737	706.61902	 23.90	
 13.604	 64.789	 10.16461	  6.91607	  2.57519	  9.12343	  0.85028	 -0.35227	 11.18034	706.71600	 23.90	
 13.595	 71.958	 10.15317	  6.33808	  3.08576	  9.34236	  0.67167	 -0.36698	 11.15312	706.66998	 23.90	
 13.607	 79.207	 10.15962	  5.75019	  3.63400	  9.50444	  0.55336	 -0.39410	 11.14696	706.51599	 23.90	
 13.601	 86.383	 10.17936	  5.16910	  4.21334	  9.59011	  0.50745	 -0.40501	 11.15064	706.58002	 23.80	
 13.601	 93.617	 10.18764	  4.57867	  4.81149	  9.59566	  0.51396	 -0.42002	 11.14380	706.71600	 23.80	
 13.607	100.793	 10.20060	  4.01056	  5.40832	  9.52995	  0.57463	 -0.42673	 11.14304	706.56000	 23.80	
 13.595	108.042	 10.22269	  3.46699	  6.01525	  9.39199	  0.69999	 -0.42315	 11.15584	706.54999	 23.80	
 13.604	115.211	 10.23032	  2.94784	  6.59718	  9.17207	  0.87702	 -0.42028	 11.15474	706.59497	 23.80	
 13.611	122.431	 10.24290	  2.46823	  7.15633	  8.87886	  1.11794	 -0.41308	 11.15836	706.55701	 23.80	
 13.596	129.640	 10.26140	  2.04182	  7.67677	  8.51165	  1.43071	 -0.39890	 11.16379	706.61603	 23.80	
 13.601	136.825	 10.26879	  1.66088	  8.14876	  8.08438	  1.78330	 -0.38185	 11.16293	706.71002	 23.80	
 13.611	143.999	 10.24413	  1.31875	  8.54369	  7.59041	  2.17009	 -0.37389	 11.13545	706.59100	 23.80	
 13.609	151.210	 10.25694	  1.04397	  8.90177	  7.07690	  2.62217	 -0.37967	 11.15091	706.65698	 23.80	
 13.601	158.353	 10.27168	  0.83116	  9.18656	  6.52114	  3.12534	 -0.38416	 11.15856	706.72101	 23.90	
 13.611	165.583	 10.25997	  0.66365	  9.38221	  5.92842	  3.65565	 -0.39184	 11.14970	706.65002	 23.80	
 13.608	172.853	 10.27218	  0.56595	  9.51839	  5.34206	  4.22193	 -0.39523	 11.16416	706.57501	 23.80	
 15.298	173.587	  9.96175	 -0.10536	  9.85585	  5.09893	  3.97639	 -0.48065	 11.14701	706.65100	 23.80	
 15.291	167.167	  9.95809	 -0.02451	  9.74537	  5.68276	  3.41977	 -0.47440	 11.13763	706.69800	 23.90	
 15.307	160.676	  9.98292	  0.11153	  9.58988	  6.29018	  2.88229	 -0.46928	 11.16549	706.73798	 23.90	
 15.300	154.261	  9.97347	  0.30480	  9.32752	  6.85913	  2.37129	 -0.46135	 11.15607	706.63098	 23.80	
 15.288	147.854	  9.98121	  0.55278	  9.01688	  7.40040	  1.91703	 -0.45651	 11.16103	706.61401	 23.80	
 15.293	141.428	  9.97416	  0.84250	  8.63623	  7.90279	  1.49746	 -0.45591	 11.16016	706.74402	 23.80	
 15.299	134.985	  9.97767	  1.18040	  8.21084	  8.38641	  1.10935	 -0.46750	 11.16897	706.53601	 23.80	
 15.305	128.583	  9.95620	  1.56351	  7.71806	  8.79352	  0.76983	 -0.47552	 11.16016	706.53601	 23.80	
 15.309	122.142	  9.94798	  1.99145	  7.19773	  9.15391	  0.48564	 -0.48237	 11.16133	706.60797	 23.80	
 15.304	115.711	  9.94318	  2.46743	  6.63980	  9.44534	  0.26129	 -0.48213	 11.15722	706.56299	 23.80	
 15.297	109.291	  9.92974	  2.96890	  6.06219	  9.67373	  0.07763	 -0.47596	 11.15754	706.51300	 23.80	
 15.293	102.897	  9.90605	  3.49780	  5.46208	  9.82534	 -0.05434	 -0.47520	 11.14593	706.55200	 23.90	
 15.293	 96.458	  9.89248	  4.05318	  4.86316	  9.91882	 -0.13618	 -0.47314	 11.14270	706.66199	 23.90	
 15.300	 90.000	  9.88727	  4.63497	  4.26834	  9.95362	 -0.16885	 -0.46874	 11.15195	706.53497	 23.90	
 15.293	 83.542	  9.86436	  5.21780	  3.67867	  9.89567	 -0.14205	 -0.46270	 11.14407	706.63599	 23.80	
 15.293	 77.103	  9.85954	  5.80714	  3.11899	  9.78508	 -0.06444	 -0.44666	 11.14566	706.52100	 23.80	
 15.297	 70.709	  9.86135	  6.38550	  2.59253	  9.61856	  0.06188	 -0.43317	 11.16351	706.52399	 23.90	
 15.304	 64.289	  9.82097	  6.93278	  2.07913	  9.34841	  0.23114	 -0.40911	 11.13801	706.61102	 23.90	
 15.309	 57.858	  9.82091	  7.48024	  1.61339	  9.05319	  0.45369	 -0.40144	 11.15711	706.57202	 23.90	
 15.305	 51.417	  9.82356	  7.99160	  1.19633	  8.68492	  0.74138	 -0.40087	 11.17132	706.63098	 23.90	
 15.299	 45.015	  9.80296	  8.44448	  0.82141	  8.24120	  1.07974	 -0.40467	 11.15245	706.61902	 23.90	
 15.293	 38.572	  9.80526	  8.86576	  0.49499	  7.76551	  1.46641	 -0.41630	 11.16438	706.47400	 23.90	
 15.288	 32.146	  9.79150	  9.21917	  0.21691	  7.24491	  1.88707	 -0.42239	 11.16087	706.67603	 23.90	
 15.300	 25.739	  9.79232	  9.52486	 -0.01137	  6.71039	  2.34792	 -0.42815	 11.17091	706.62201	 23.80	
 15.307	 19.324	  9.75968	  9.73031	 -0.19145	  6.11714	  2.84430	 -0.42468	 11.13778	706.60797	 23.90	
 15.291	 12.833	  9.76552	  9.89798	 -0.31247	  5.53412	  3.38396	 -0.41782	 11.14386	706.60797	 23.90	
 15.298	  6.413	  9.77783	 10.01234	 -0.38720	  4.96029	  3.94059	 -0.41636	 11.16087	706.66199	 23.80	
 15.300	  0.000	  9.77490	 10.03731	 -0.40812	  4.36752	  4.52415	 -0.41039	 11.15897	706.72998	 23.80	
 15.298	 -6.413	  9.77033	  9.99866	 -0.38362	  3.79268	  5.10401	 -0.41434	 11.15727	706.68701	 23.80	
 15.291	-12.833	  9.75883	  9.87607	 -0.29686	  3.23408	  5.68208	 -0.42227	 11.13930	706.63898	 23.80	
 15.307	-19.324	  9.77879	  9.71695	 -0.16439	  2.69636	  6.28758	 -0.42682	 11.16226	706.61200	 23.80	
 15.300	-25.739	  9.78646	  9.47545	  0.02287	  2.20332	  6.85650	 -0.42788	 11.16654	706.72601	 23.80	
 15.288	-32.146	  9.78296	  9.15832	  0.26092	  1.74538	  7.39043	 -0.42847	 11.15187	706.65302	 23.80	
 15.293	-38.572	  9.78294	  8.78530	  0.54505	  1.31486	  7.90512	 -0.42992	 11.15322	706.71301	 23.80	
 15.299	-45.015	  9.77597	  8.35243	  0.87919	  0.93014	  8.37221	 -0.43342	 11.14325	706.50800	 23.80	
 15.305	-51.417	  9.79961	  7.89211	  1.26731	  0.61085	  8.80099	 -0.43113	 11.15890	706.59100	 23.80	
 15.309	-57.858	  9.78910	  7.36569	  1.69354	  0.33023	  9.15279	 -0.43827	 11.14097	706.71600	 23.80	
 15.304	-64.289	  9.81001	  6.82555	  2.16811	  0.10281	  9.47307	 -0.43888	 11.15792	706.64697	 23.80	
 15.297	-70.709	  9.80085	  6.23803	  2.67513	 -0.06804	  9.69333	 -0.44542	 11.13407	706.53601	 23.80	
 15.293	-77.103	  9.83945	  5.67590	  3.22123	 -0.19502	  9.89897	 -0.44719	 11.17002	706.76099	 23.80	
 15.293	-83.542	  9.82373	  5.06901	  3.77918	 -0.26475	  9.97834	 -0.44496	 11.13863	706.76898	 23.80	
 15.300	-90.000	  9.83405	  4.47128	  4.36689	 -0.29851	 10.02680	 -0.45904	 11.14353	706.74902	 23.80	
 15.293	-96.458	  9.84970	  3.89599	  4.96605	 -0.26979	  9.99997	 -0.47779	 11.15202	706.77502	 23.80	
 15.293	-102.897	  9.83934	  3.33455	  5.55096	 -0.18607	  9.87795	 -0.48614	 11.13151	706.74103	 23.80	
 15.297	-109.291	  9.86750	  2.80912	  6.15049	 -0.05237	  9.72514	 -0.48132	 11.15244	706.68402	 23.80	
 15.304	-115.711	  9.87751	  2.31197	  6.72292	  0.13109	  9.48914	 -0.46896	 11.15357	706.62903	 23.80	
 15.309	-122.142	  9.88241	  1.85125	  7.26698	  0.37127	  9.18183	 -0.45559	 11.14757	706.53998	 23.80	
 15.305	-128.583	  9.89595	  1.43248	  7.78512	  0.65934	  8.82396	 -0.45066	 11.15080	706.54700	 23.80	
 15.299	-134.985	  9.90604	  1.05727	  8.25804	  0.99395	  8.41037	 -0.45039	 11.15207	706.66803	 23.80	
 15.293	-141.428	  9.92493	  0.73273	  8.68909	  1.38856	  7.94766	 -0.46612	 11.15892	706.65399	 23.80	
 15.288	-147.854	  9.93289	  0.45979	  9.05506	  1.82947	  7.42916	 -0.49016	 11.15794	706.53497	 23.80	
 15.300	-154.261	  9.92076	  0.23100	  9.34153	  2.29389	  6.87645	 -0.50822	 11.13760	706.76099	 23.80	
 15.307	-160.676	  9.92661	  0.05691	  9.58100	  2.79963	  6.31268	 -0.50933	 11.13702	706.70099	 23.80	
 15.291	-167.167	  9.97181	 -0.05628	  9.78531	  3.36914	  5.74010	 -0.50665	 11.17417	706.65900	 23.80	
 15.298	-173.587	  9.96362	 -0.12559	  9.87367	  3.92572	  5.14492	 -0.49483	 11.15668	706.66998	 23.80	
 15.300	180.000	  9.95997	 -0.14407	  9.89784	  4.50067	  4.55893	 -0.48996	 11.14956	706.75201	 23.80	
 17.000	180.000	  9.61306	 -0.79578	 10.19751	  4.23942	  4.28477	 -0.55057	 11.13514	706.74103	 23.80	
 16.990	-174.179	  9.61760	 -0.78566	 10.18398	  3.67149	  4.86692	 -0.55471	 11.14682	706.78802	 23.80	
 17.009	-168.383	  9.60720	 -0.73809	 10.09710	  3.10658	  5.44937	 -0.55968	 11.14863	706.75201	 23.80	
 17.000	-162.596	  9.59355	 -0.63358	  9.93530	  2.56001	  6.03031	 -0.56432	 11.14039	706.75500	 23.80	
 16.990	-156.759	  9.59061	 -0.47744	  9.71676	  2.05330	  6.60238	 -0.56698	 11.14013	706.60498	 23.80	
 16.995	-150.919	  9.58021	 -0.28836	  9.43820	  1.56368	  7.15791	 -0.55993	 11.13899	706.69800	 23.80	
 16.988	-145.161	  9.58925	 -0.04433	  9.11606	  1.12113	  7.69815	 -0.54196	 11.15633	706.69800	 23.80	
 17.014	-139.343	  9.57685	  0.23411	  8.72771	  0.70406	  8.19846	 -0.52852	 11.16154	706.76398	 23.80	
 17.007	-133.546	  9.57036	  0.56411	  8.29200	  0.35157	  8.64660	 -0.50942	 11.15956	706.68103	 23.80	
 17.001	-127.699	  9.54233	  0.94019	  7.79082	  0.02990	  9.04076	 -0.50231	 11.13692	706.68402	 23.80	
 17.006	-121.937	  9.51764	  1.34785	  7.26310	 -0.24733	  9.38390	 -0.50215	 11.11970	706.69299	 23.80	
 17.002	-116.134	  9.51870	  1.79812	  6.72669	 -0.47494	  9.69522	 -0.50793	 11.13547	706.71600	 23.80	
 17.001	-110.310	  9.51843	  2.28401	  6.16361	 -0.66516	  9.95400	 -0.50804	 11.14562	706.48999	 23.80	
 16.988	-104.517	  9.52043	  2.80632	  5.58663	 -0.79168	 10.13412	 -0.50105	 11.15161	706.67798	 23.80	
 17.008	-98.662	  9.50554	  3.34852	  4.98933	 -0.88747	 10.25750	 -0.48172	 11.14884	706.52100	 23.80	
 16.996	-92.909	  9.49860	  3.90709	  4.40267	 -0.93126	 10.31573	 -0.45426	 11.15235	706.55200	 23.80	
 16.996	-87.091	  9.48823	  4.48965	  3.81727	 -0.93181	 10.30898	 -0.43874	 11.14888	706.62299	 23.80	
 17.012	-81.253	  9.49546	  5.08359	  3.24992	 -0.90195	 10.27505	 -0.41384	 11.17506	706.57202	 23.80	
 16.988	-75.483	  9.48184	  5.66799	  2.70405	 -0.81055	 10.13795	 -0.41471	 11.16385	706.61902	 23.80	
 17.001	-69.690	  9.45125	  6.23545	  2.16982	 -0.68793	  9.93940	 -0.41105	 11.14208	706.56403	 23.80	
 17.002	-63.866	  9.44903	  6.81171	  1.67484	 -0.51274	  9.69452	 -0.41534	 11.14908	706.67603	 23.80	
 17.006	-58.063	  9.42311	  7.34274	  1.21627	 -0.28953	  9.36794	 -0.42398	 11.12451	706.58801	 23.80	
 17.001	-52.301	  9.42911	  7.86703	  0.79862	 -0.02430	  9.01973	 -0.42062	 11.13744	706.65302	 23.80	
 17.007	-46.454	  9.40792	  8.34190	  0.40917	  0.28174	  8.59298	 -0.42148	 11.12208	706.75403	 23.80	
 17.014	-40.657	  9.41109	  8.78513	  0.07587	  0.62899	  8.15159	 -0.43683	 11.13170	706.76801	 23.80	
 16.988	-34.839	  9.43227	  9.19476	 -0.21371	  1.03316	  7.66877	 -0.43636	 11.15269	706.60797	 23.80	
 16.995	-29.081	  9.41022	  9.51336	 -0.46141	  1.46397	  7.12718	 -0.43490	 11.12801	706.61603	 23.80	
 16.990	-23.241	  9.43105	  9.82273	 -0.66765	  1.93952	  6.58955	 -0.43045	 11.15871	706.59497	 23.80	
 17.000	-17.404	  9.41578	 10.03356	 -0.83275	  2.43565	  6.00807	 -0.41757	 11.14677	706.78497	 23.80	
 17.009	-11.617	  9.42993	 10.21000	 -0.95159	  2.97468	  5.43065	 -0.41522	 11.16926	706.63599	 23.80	
 16.990	 -5.821	  9.42031	 10.28974	 -1.01516	  3.52441	  4.84042	 -0.40656	 11.15481	706.71002	 23.80	
 17.000	  0.000	  9.40558	 10.31236	 -1.04499	  4.08488	  4.25278	 -0.39958	 11.13855	706.49298	 23.70	
 16.990	  5.821	  9.38862	 10.26662	 -1.02015	  4.66561	  3.67061	 -0.40115	 11.12025	706.61200	 23.70	
 17.009	 11.617	  9.40747	 10.20960	 -0.96666	  5.25354	  3.12738	 -0.40972	 11.14494	706.72400	 23.70	
 17.000	 17.404	  9.41751	 10.06874	 -0.86127	  5.83457	  2.60106	 -0.41576	 11.14732	706.51898	 23.70	
 16.990	 23.241	  9.43027	  9.86542	 -0.70341	  6.42208	  2.09359	 -0.41858	 11.15788	706.47101	 23.70	
 16.995	 29.081	  9.41899	  9.57904	 -0.50579	  6.96808	  1.61942	 -0.42622	 11.13582	706.56000	 23.70	
 16.988	 34.839	  9.43333	  9.26148	 -0.26813	  7.49713	  1.19204	 -0.43368	 11.14190	706.65399	 23.70	
 17.014	 40.657	  9.42691	  8.87773	  0.00521	  8.00098	  0.77742	 -0.43840	 11.13925	706.73700	 23.70	
 17.007	 46.454	  9.42916	  8.44452	  0.33641	  8.45791	  0.42494	 -0.44321	 11.12757	706.54901	 23.70	
 17.001	 52.301	  9.46060	  7.99136	  0.71352	  8.89384	  0.11861	 -0.44655	 11.14701	706.58398	 23.70	
 17.006	 58.063	  9.46643	  7.48401	  1.12472	  9.26115	 -0.14980	 -0.45203	 11.14663	706.53497	 23.70	
 17.002	 63.866	  9.46978	  6.94230	  1.57085	  9.57345	 -0.38270	 -0.46480	 11.14180	706.45001	 23.70	
 17.001	 69.690	  9.48696	  6.38716	  2.05843	  9.83918	 -0.56231	 -0.47414	 11.14627	706.58002	 23.70	
 16.988	 75.483	  9.50118	  5.81427	  2.58009	 10.03248	 -0.69041	 -0.47785	 11.14562	706.68103	 23.70	
 17.012	 81.253	  9.50179	  5.23328	  3.11414	 10.16597	 -0.78709	 -0.48593	 11.14049	706.65698	 23.70	
 16.996	 87.091	  9.53191	  4.65850	  3.69651	 10.25114	 -0.82621	 -0.47662	 11.15499	706.62598	 23.70	
 16.996	 92.909	  9.54696	  4.07903	  4.29339	 10.25598	 -0.81173	 -0.47226	 11.14906	706.53497	 23.70	
 17.008	 98.662	  9.54499	  3.51950	  4.86955	 10.19493	 -0.77255	 -0.47508	 11.13570	706.62299	 23.70	
 16.988	104.517	  9.55887	  2.97631	  5.46571	 10.07349	 -0.67575	 -0.48372	 11.13047	706.56000	 23.70	
 17.001	110.310	  9.57713	  2.45406	  6.06125	  9.90936	 -0.54246	 -0.49185	 11.14143	706.49799	 23.70	
 17.002	116.134	  9.60279	  1.96960	  6.64503	  9.68350	 -0.35731	 -0.50457	 11.15427	706.52899	 23.70	
 17.006	121.937	  9.59843	  1.50871	  7.19156	  9.36843	 -0.13029	 -0.51410	 11.13646	706.56299	 23.70	
 17.001	127.699	  9.60602	  1.09040	  7.70991	  9.01575	  0.13837	 -0.51176	 11.13265	706.51202	 23.70	
 17.007	133.546	  9.60895	  0.70301	  8.20015	  8.61047	  0.44701	 -0.51651	 11.13445	706.49298	 23.70	
 17.014	139.343	  9.64694	  0.36230	  8.67820	  8.18508	  0.80625	 -0.51959	 11.17032	706.64203	 23.70	
 16.988	145.161	  9.65378	  0.07467	  9.07038	  7.68203	  1.21670	 -0.52312	 11.16466	706.54102	 23.70	
 16.995	150.919	  9.63891	 -0.18191	  9.40012	  7.14888	  1.64504	 -0.52832	 11.14597	706.54401	 23.70	
 16.990	156.759	  9.64609	 -0.39420	  9.69401	  6.59906	  2.11887	 -0.54202	 11.15517	706.46198	 23.70	
 17.000	162.596	  9.64553	 -0.56572	  9.92327	  6.01684	  2.63229	 -0.54647	 11.15743	706.65399	 23.70	
 17.009	168.383	  9.61693	 -0.68829	 10.06104	  5.41673	  3.15448	 -0.54711	 11.12928	706.66699	 23.70	
 16.990	174.179	  9.63534	 -0.76357	 10.17663	  4.84346	  3.71242	 -0.54655	 11.15422	706.73297	 23.70	
 18.709	174.675	  9.26207	 -1.38619	 10.44513	  4.55710	  3.42976	 -0.57812	 11.14561	706.63397	 23.70	
 18.703	169.441	  9.25054	 -1.31618	 10.34377	  5.12120	  2.88889	 -0.58504	 11.12920	706.72900	 23.70	
 18.691	164.085	  9.26038	 -1.21003	 10.20135	  5.71417	  2.35757	 -0.58534	 11.13652	706.69800	 23.70	
 18.706	158.818	  9.25916	 -1.06843	 10.00243	  6.29077	  1.84451	 -0.58988	 11.13890	706.66998	 23.70	
 18.695	153.537	  9.26445	 -0.88306	  9.74485	  6.84409	  1.38318	 -0.58051	 11.13783	706.76300	 23.70	
 18.704	148.255	  9.26662	 -0.66376	  9.43544	  7.38620	  0.93633	 -0.57268	 11.14510	706.79498	 23.70	
 18.698	142.952	  9.25635	 -0.39919	  9.05935	  7.89991	  0.52848	 -0.56799	 11.13562	706.71802	 23.70	
 18.699	137.625	  9.27162	 -0.09450	  8.65759	  8.39728	  0.15627	 -0.55794	 11.15347	706.63898	 23.70	
 18.705	132.343	  9.25820	  0.24387	  8.19752	  8.82453	 -0.17011	 -0.54348	 11.14452	706.65399	 23.70	
 18.713	127.067	  9.22659	  0.61414	  7.68426	  9.20244	 -0.47038	 -0.53411	 11.12078	706.64203	 23.70	
 18.700	121.794	  9.22976	  1.02760	  7.16733	  9.56295	 -0.72393	 -0.51548	 11.13330	706.63098	 23.70	
 18.698	116.504	  9.21941	  1.47221	  6.61908	  9.86421	 -0.93960	 -0.48763	 11.13663	706.63098	 23.70	
 18.707	111.165	  9.19849	  1.94582	  6.03791	 10.10006	 -1.11861	 -0.46632	 11.12636	706.55499	 23.70	
 18.690	105.863	  9.19663	  2.44853	  5.46208	 10.28896	 -1.25213	 -0.45137	 11.13800	706.62000	 23.70	
 18.696	100.583	  9.19677	  2.98554	  4.88050	 10.42577	 -1.34279	 -0.44068	 11.14798	706.56299	 23.70	
 18.700	 95.309	  9.17374	  3.52516	  4.29029	 10.48027	 -1.38695	 -0.44212	 11.13251	706.63098	 23.70	
 18.700	 90.000	  9.16880	  4.08875	  3.71162	 10.50740	 -1.41871	 -0.45113	 11.14157	706.62201	 23.70	
 18.700	 84.691	  9.13243	  4.65136	  3.13167	 10.44343	 -1.39166	 -0.46859	 11.11611	706.62201	 23.70	
 18.696	 79.417	  9.16232	  5.24923	  2.59611	 10.39840	 -1.34263	 -0.47890	 11.16677	706.65002	 23.70	
 18.690	 74.137	  9.12916	  5.80584	  2.06414	 10.22862	 -1.24626	 -0.48703	 11.14305	706.73700	 23.70	
 18.707	 68.835	  9.10700	  6.36888	  1.55194	 10.02413	 -1.13001	 -0.48969	 11.14369	706.71002	 23.70	
 18.698	 63.496	  9.09345	  6.92352	  1.07964	  9.75704	 -0.95432	 -0.48897	 11.14110	706.38702	 23.70	
 18.700	 58.206	  9.08472	  7.45539	  0.64705	  9.44238	 -0.73781	 -0.48218	 11.14375	706.48499	 23.70	
 18.713	 52.933	  9.06831	  7.96030	  0.24190	  9.07099	 -0.48515	 -0.47478	 11.13305	706.68500	 23.70	
 18.705	 47.657	  9.08066	  8.44781	 -0.11021	  8.67373	 -0.18073	 -0.46065	 11.15357	706.54102	 23.70	
 18.699	 42.375	  9.05028	  8.86510	 -0.44370	  8.20338	  0.14532	 -0.44579	 11.13089	706.60797	 23.70	
 18.698	 37.048	  9.05602	  9.26921	 -0.72607	  7.72265	  0.52239	 -0.41925	 11.14489	706.54102	 23.70	
 18.704	 31.745	  9.05912	  9.63513	 -0.97900	  7.20845	  0.93450	 -0.39686	 11.16294	706.56897	 23.70	
 18.695	 26.463	  9.03784	  9.90807	 -1.18074	  6.65376	  1.37524	 -0.38952	 11.14015	706.74103	 23.70	
 18.706	 21.182	  9.01962	 10.13920	 -1.34620	  6.09535	  1.83684	 -0.37442	 11.12820	706.72601	 23.70	
 18.691	 15.915	  9.02952	 10.33636	 -1.47706	  5.52838	  2.34208	 -0.36792	 11.14322	706.56702	 23.70	
 18.703	 10.559	  9.01566	 10.46250	 -1.57607	  4.93995	  2.86468	 -0.37445	 11.13366	706.56702	 23.70	
 18.709	  5.325	  9.01049	 10.53321	 -1.62926	  4.37512	  3.39560	 -0.36624	 11.12970	706.63098	 23.70	
 18.700	  0.000	  9.01357	 10.55302	 -1.63531	  3.79606	  3.97316	 -0.37216	 11.12750	706.65900	 23.70	
 18.709	 -5.325	  9.00633	 10.51870	 -1.61902	  3.23107	  4.54449	 -0.37323	 11.12630	706.64697	 23.70	
 18.703	-10.559	  9.02417	 10.45113	 -1.56068	  2.69724	  5.12306	 -0.38203	 11.14112	706.69800	 23.70	
 18.691	-15.915	  9.01329	 10.28779	 -1.45577	  2.16560	  5.70352	 -0.39046	 11.12444	706.64502	 23.70	
 18.706	-21.182	  9.03104	 10.11199	 -1.32780	  1.67186	  6.27799	 -0.40121	 11.14387	706.60303	 23.70	
 18.695	-26.463	  9.02532	  9.84188	 -1.14309	  1.20295	  6.82404	 -0.41707	 11.12455	706.67297	 23.70	
 18.704	-31.745	  9.03496	  9.54497	 -0.93333	  0.75749	  7.37338	 -0.40922	 11.14301	706.66699	 23.70	
 18.698	-37.048	  9.03963	  9.18072	 -0.67042	  0.36090	  7.88396	 -0.41402	 11.13769	706.64697	 23.70	
 18.699	-42.375	  9.05424	  8.78477	 -0.37140	 -0.00124	  8.37334	 -0.41184	 11.15243	706.65698	 23.70	
 18.705	-47.657	  9.03510	  8.31512	 -0.04106	 -0.33171	  8.79795	 -0.40185	 11.12427	706.65100	 23.70	
 18.713	-52.933	  9.05420	  7.84420	  0.32845	 -0.63149	  9.21794	 -0.39363	 11.14981	706.73999	 23.70	
 18.700	-58.206	  9.03961	  7.30564	  0.74259	 -0.87250	  9.54754	 -0.37122	 11.12111	706.56299	 23.70	
 18.698	-63.496	  9.05714	  6.77231	  1.18892	 -1.07286	  9.85121	 -0.36012	 11.12413	706.58398	 23.70	
 18.707	-68.835	  9.08900	  6.22706	  1.67269	 -1.24909	 10.12964	 -0.36117	 11.15130	706.63599	 23.70	
 18.690	-74.137	  9.09577	  5.64852	  2.18817	 -1.37011	 10.31374	 -0.36891	 11.14649	706.71503	 23.70	
 18.696	-79.417	  9.10186	  5.06668	  2.71031	 -1.46426	 10.45346	 -0.36957	 11.14533	706.66498	 23.70	
 18.700	-84.691	  9.08884	  4.47242	  3.25290	 -1.52146	 10.51865	 -0.38107	 11.12758	706.73297	 23.70	
 18.700	-90.000	  9.09013	  3.88983	  3.82248	 -1.53749	 10.54035	 -0.39522	 11.11915	706.69202	 23.70	
 18.700	-95.309	  9.10770	  3.32934	  4.40672	 -1.52124	 10.52808	 -0.41582	 11.13087	706.65698	 23.70	
 18.696	-100.583	  9.12485	  2.79160	  4.98683	 -1.46594	 10.45630	 -0.45061	 11.13905	706.72400	 23.70	
 18.690	-105.863	  9.12727	  2.26968	  5.56439	 -1.36034	 10.30922	 -0.48461	 11.12789	706.64697	 23.70	
 18.707	-111.165	  9.15946	  1.77534	  6.15880	 -1.23391	 10.15099	 -0.51369	 11.16260	706.66199	 23.70	
 18.698	-116.504	  9.12900	  1.29639	  6.69782	 -1.04297	  9.85803	 -0.51470	 11.11297	706.59497	 23.70	
 18.700	-121.794	  9.15682	  0.85848	  7.25254	 -0.83872	  9.58531	 -0.52922	 11.14062	706.72601	 23.70	
 18.713	-127.067	  9.16034	  0.45654	  7.76783	 -0.58087	  9.22875	 -0.54062	 11.13354	706.77802	 23.70	
 18.705	-132.343	  9.18389	  0.09250	  8.26308	 -0.27658	  8.84169	 -0.55578	 11.15005	706.74103	 23.70	
 18.699	-137.625	  9.18742	 -0.22886	  8.70401	  0.06794	  8.38856	 -0.55533	 11.13469	706.65997	 23.70	
 18.698	-142.952	  9.19384	 -0.52275	  9.10750	  0.43834	  7.91012	 -0.56201	 11.13503	706.52698	 23.70	
 18.704	-148.255	  9.20005	 -0.77009	  9.46627	  0.85284	  7.39910	 -0.56760	 11.13456	706.54999	 23.70	
 18.695	-153.537	  9.20908	 -0.97177	  9.77071	  1.31384	  6.85507	 -0.56196	 11.12997	706.63397	 23.70	
 18.706	-158.818	  9.21839	 -1.14694	 10.03076	  1.79164	  6.30066	 -0.55332	 11.13457	706.61603	 23.70	
 18.691	-164.085	  9.22735	 -1.26519	 10.21883	  2.29704	  5.73744	 -0.55100	 11.13246	706.59802	 23.70	
 18.703	-169.441	  9.22533	 -1.35314	 10.35149	  2.84393	  5.14054	 -0.56747	 11.12116	706.62903	 23.70	
 18.709	-174.675	  9.24809	 -1.40959	 10.45506	  3.39806	  4.57561	 -0.57009	 11.14568	706.68103	 23.70	
 18.700	180.000	  9.24328	 -1.41444	 10.46105	  3.96427	  3.99619	 -0.58044	 11.12962	706.66498	 23.70	
 20.400	180.000	  8.84667	 -2.00698	 10.68930	  3.66461	  3.68780	 -0.56448	 11.13525	706.67603	 23.70	
 20.401	-175.153	  8.82812	 -2.00394	 10.66183	  3.10098	  4.24461	 -0.55033	 11.12736	706.69897	 23.70	
 20.407	-170.264	  8.82993	 -1.96939	 10.60226	  2.55326	  4.82318	 -0.53686	 11.14152	706.79401	 23.70	
 20.410	-165.423	  8.82459	 -1.88661	 10.47837	  2.02584	  5.40364	 -0.52369	 11.14146	706.83600	 23.70	
 20.392	-160.496	  8.82084	 -1.77082	 10.29870	  1.52495	  5.97982	 -0.51870	 11.14221	706.54901	 23.70	
 20.401	-155.705	  8.79905	 -1.63563	 10.05943	  1.04522	  6.51477	 -0.52109	 11.12278	706.65002	 23.70	
 20.405	-150.835	  8.77918	 -1.45757	  9.76685	  0.58703	  7.05365	 -0.53237	 11.11208	706.59100	 23.70	
 20.397	-145.903	  8.78688	 -1.25011	  9.45146	  0.16235	  7.59028	 -0.54382	 11.13054	706.57703	 23.70	
 20.392	-141.062	  8.77896	 -0.99569	  9.07390	 -0.21942	  8.08206	 -0.55786	 11.13089	706.51300	 23.70	
 20.396	-136.227	  8.78406	 -0.70747	  8.67380	 -0.57255	  8.56598	 -0.56791	 11.14876	706.52600	 23.70	
 20.408	-131.372	  8.75881	 -0.39306	  8.20634	 -0.89032	  8.98505	 -0.56338	 11.13585	706.64697	 23.70	
 20.410	-126.511	  8.76092	 -0.03737	  7.72948	 -1.17530	  9.38625	 -0.55955	 11.14908	706.48999	 23.70	
 20.400	-121.604	  8.74204	  0.35703	  7.19777	 -1.41468	  9.71550	 -0.53659	 11.13021	706.45001	 23.70	
 20.403	-116.741	  8.72878	  0.78218	  6.65145	 -1.62320	 10.01159	 -0.51244	 11.12201	706.57703	 23.70	
 20.413	-111.900	  8.72252	  1.22486	  6.10104	 -1.80469	 10.27142	 -0.48469	 11.13495	706.58801	 23.70	
 20.398	-107.004	  8.72136	  1.71144	  5.52980	 -1.94178	 10.47834	 -0.45809	 11.14304	706.62299	 23.70	
 20.394	-102.132	  8.70685	  2.22137	  4.94844	 -2.04468	 10.61833	 -0.42750	 11.13678	706.70203	 23.70	
 20.403	-97.332	  8.69136	  2.73506	  4.37889	 -2.11160	 10.70875	 -0.39759	 11.13140	706.77100	 23.70	
 20.392	-92.440	  8.68562	  3.28558	  3.80461	 -2.14707	 10.75640	 -0.37711	 11.12965	706.70099	 23.70	
 20.392	-87.560	  8.68477	  3.85385	  3.23804	 -2.15488	 10.76777	 -0.36916	 11.14168	706.72101	 23.70	
 20.403	-82.668	  8.66620	  4.42040	  2.67791	 -2.12047	 10.71078	 -0.35201	 11.13505	706.53998	 23.70	
 20.394	-77.868	  8.66338	  4.98987	  2.16145	 -2.05922	 10.61587	 -0.34773	 11.13353	706.53198	 23.70	
 20.398	-72.996	  8.64244	  5.56087	  1.63453	 -1.96385	 10.45171	 -0.34555	 11.12057	706.48700	 23.70	
 20.413	-68.100	  8.65520	  6.15168	  1.14041	 -1.83697	 10.27697	 -0.33914	 11.14884	706.59100	 23.70	
 20.403	-63.259	  8.63060	  6.68909	  0.68926	 -1.65635	  9.99556	 -0.34323	 11.11790	706.54700	 23.70	
 20.400	-58.396	  8.63498	  7.24046	  0.25767	 -1.45878	  9.70485	 -0.35148	 11.13050	706.45697	 23.70	
 20.410	-53.489	  8.61877	  7.75836	 -0.14687	 -1.23465	  9.35563	 -0.36095	 11.12923	706.51001	 23.70	
 20.408	-48.628	  8.63195	  8.26323	 -0.51393	 -0.96938	  8.98845	 -0.37802	 11.14993	706.52600	 23.70	
 20.396	-43.773	  8.62784	  8.71507	 -0.84142	 -0.65848	  8.54901	 -0.38785	 11.14445	706.60602	 23.70	
 20.392	-38.938	  8.62230	  9.13110	 -1.12626	 -0.30244	  8.07359	 -0.38266	 11.13623	706.74402	 23.70	
 20.397	-34.097	  8.61388	  9.50268	 -1.39116	  0.05557	  7.57921	 -0.38730	 11.13595	706.69202	 23.70	
 20.405	-29.165	  8.60312	  9.83626	 -1.62153	  0.46607	  7.04761	 -0.39494	 11.12618	706.63599	 23.70	
 20.401	-24.295	  8.60990	 10.12927	 -1.80761	  0.91368	  6.50529	 -0.37683	 11.13956	706.72400	 23.70	
 20.392	-19.504	  8.61737	 10.36359	 -1.95341	  1.38170	  5.95567	 -0.36952	 11.14468	706.60303	 23.70	
 20.410	-14.577	  8.60344	 10.53909	 -2.07651	  1.87366	  5.38116	 -0.36813	 11.14123	706.62201	 23.70	
 20.407	 -9.736	  8.60695	 10.67231	 -2.16543	  2.39851	  4.80541	 -0.36454	 11.14528	706.57202	 23.70	
 20.401	 -4.847	  8.59368	 10.73331	 -2.21728	  2.93028	  4.22856	 -0.35466	 11.13170	706.65100	 23.70	
 20.400	  0.000	  8.58665	 10.75461	 -2.23311	  3.47226	  3.66501	 -0.34670	 11.12474	706.72400	 23.70	
 20.401	  4.847	  8.59235	 10.74674	 -2.22922	  4.04165	  3.10476	 -0.34779	 11.13178	706.61902	 23.70	
 20.407	  9.736	  8.59107	 10.68274	 -2.18311	  4.60492	  2.56982	 -0.33669	 11.13344	706.66803	 23.70	
 20.410	 14.577	  8.59581	 10.56834	 -2.10233	  5.17882	  2.05220	 -0.33854	 11.13591	706.66699	 23.70	
 20.392	 19.504	  8.59627	 10.38515	 -1.97421	  5.75625	  1.55196	 -0.33830	 11.12622	706.64697	 23.70	
 20.401	 24.295	  8.59625	 10.16817	 -1.83695	  6.29532	  1.09528	 -0.34162	 11.11892	706.68103	 23.70	
 20.405	 29.165	  8.59871	  9.89266	 -1.65820	  6.84289	  0.64992	 -0.35930	 11.11342	706.57202	 23.70	
 20.397	 34.097	  8.62227	  9.59156	 -1.44531	  7.39729	  0.22707	 -0.38901	 11.13979	706.56702	 23.70	
 20.392	 38.938	  8.64001	  9.23688	 -1.19790	  7.90585	 -0.14748	 -0.41348	 11.15013	706.71301	 23.70	
 20.396	 43.773	  8.64643	  8.83216	 -0.91173	  8.37553	 -0.48810	 -0.43569	 11.14621	706.68701	 23.70	
 20.408	 48.628	  8.63021	  8.36638	 -0.59216	  8.80538	 -0.80519	 -0.46101	 11.11718	706.70898	 23.70	
 20.410	 53.489	  8.64088	  7.89237	 -0.24287	  9.21641	 -1.08748	 -0.47480	 11.12783	706.59802	 23.70	
 20.400	 58.396	  8.66644	  7.39536	  0.15362	  9.59323	 -1.32670	 -0.48738	 11.14284	706.59698	 23.70	
 20.403	 63.259	  8.68000	  6.86924	  0.57507	  9.90467	 -1.52365	 -0.48630	 11.14387	706.65002	 23.70	
 20.413	 68.100	  8.69493	  6.32821	  1.02368	 10.17176	 -1.69261	 -0.48720	 11.14508	706.63599	 23.70	
 20.398	 72.996	  8.70101	  5.75817	  1.51646	 10.37374	 -1.81167	 -0.47567	 11.13153	706.48999	 23.70	
 20.394	 77.868	  8.71250	  5.19416	  2.02588	 10.53476	 -1.90883	 -0.46526	 11.13092	706.56299	 23.70	
 20.403	 82.668	  8.72726	  4.63355	  2.54872	 10.64961	 -1.98007	 -0.44385	 11.13492	706.65100	 23.70	
 20.392	 87.560	  8.75361	  4.06966	  3.11156	 10.72041	 -2.00318	 -0.41380	 11.14993	706.63098	 23.60	
 20.392	 92.440	  8.76095	  3.50004	  3.68366	 10.71863	 -1.99845	 -0.40555	 11.13525	706.56598	 23.60	
 20.403	 97.332	  8.76640	  2.95115	  4.26356	 10.67127	 -1.96424	 -0.40654	 11.12161	706.57501	 23.60	
 20.394	102.132	  8.79215	  2.43465	  4.84129	 10.59826	 -1.90180	 -0.39741	 11.14213	706.46198	 23.70	
 20.398	107.004	  8.80786	  1.92704	  5.43656	 10.46332	 -1.79539	 -0.40994	 11.14601	706.45099	 23.70	
 20.413	111.900	  8.81339	  1.43303	  6.01431	 10.26729	 -1.67074	 -0.43155	 11.13830	706.54999	 23.70	
 20.403	116.741	  8.81693	  0.98047	  6.56662	 10.01526	 -1.49861	 -0.45491	 11.13096	706.45599	 23.70	
 20.400	121.604	  8.81540	  0.54121	  7.10914	  9.71415	 -1.30314	 -0.47713	 11.12279	706.58099	 23.60	
 20.410	126.511	  8.83343	  0.14019	  7.64258	  9.37957	 -1.06969	 -0.50567	 11.13576	706.48798	 23.70	
 20.408	131.372	  8.85718	 -0.22397	  8.15189	  9.00371	 -0.79148	 -0.54496	 11.14869	706.53302	 23.70	
 20.396	136.227	  8.86905	 -0.54659	  8.61418	  8.57147	 -0.46790	 -0.57035	 11.14610	706.58301	 23.60	
 20.392	141.062	  8.87644	 -0.84621	  9.03369	  8.11200	 -0.13347	 -0.58575	 11.14728	706.55200	 23.60	
 20.397	145.903	  8.86804	 -1.11237	  9.40790	  7.61178	  0.24069	 -0.60014	 11.14092	706.63599	 23.60	
 20.405	150.835	  8.86411	 -1.34947	  9.74915	  7.06918	  0.66424	 -0.59754	 11.13101	706.53302	 23.60	
 20.401	155.705	  8.86431	 -1.54033	 10.03339	  6.52064	  1.10714	 -0.59186	 11.12898	706.65399	 23.60	
 20.392	160.496	  8.86893	 -1.69409	 10.27143	  5.97973	  1.57186	 -0.58970	 11.14203	706.53998	 23.60	
 20.410	165.423	  8.85725	 -1.83075	 10.45408	  5.39038	  2.07213	 -0.58564	 11.12971	706.58099	 23.60	
 20.407	170.264	  8.84911	 -1.91772	 10.57395	  4.80976	  2.59434	 -0.57351	 11.12536	706.54401	 23.60	
 20.401	175.153	  8.87148	 -1.97537	 10.67726	  4.24696	  3.14241	 -0.56797	 11.15145	706.56299	 23.60	
  0.141	 45.000	 11.13971	  5.79153	  5.51283	  5.66462	  5.72227	  0.10703	 11.12008	706.59100	 23.60	
  4.001	128.691	 11.13443	  4.86369	  6.30223	  6.63356	  4.64725	  0.06263	 11.13975	706.49799	 23.60	
  4.002	 76.995	 11.11550	  5.98595	  5.11739	  6.88788	  4.39381	  0.05930	 11.13284	706.54303	 23.60	
  4.002	 25.892	 11.10126	  6.92519	  4.24872	  6.11922	  5.04211	  0.04594	 11.13150	706.53601	 23.60	
  4.002	-25.892	 11.11266	  6.92122	  4.26072	  4.93204	  6.24335	  0.02854	 11.14138	706.59100	 23.60	
  4.002	-76.995	 11.10945	  5.94505	  5.12863	  4.25649	  7.01774	  0.02294	 11.13043	706.73700	 23.60	
  4.001	-128.691	 11.13532	  4.82208	  6.32305	  4.52448	  6.74855	  0.03557	 11.14732	706.59198	 23.60	
  4.000	180.000	 11.13748	  4.38758	  6.85326	  5.54179	  5.67419	  0.05563	 11.13970	706.69501	 23.60	
  8.000	180.000	 10.93292	  2.79907	  8.10704	  5.30996	  5.40937	 -0.09235	 11.13864	706.78802	 23.60	
  7.991	-152.370	 10.91119	  3.05704	  7.76494	  4.04346	  6.71366	 -0.11603	 11.12771	706.70099	 23.60	
  7.997	-124.550	 10.89973	  3.85028	  6.82920	  3.09931	  7.77591	 -0.12525	 11.13166	706.67401	 23.60	
  8.006	-96.837	 10.89315	  5.04649	  5.54401	  2.67204	  8.28262	 -0.15474	 11.14919	706.68201	 23.60	
  7.988	-69.228	 10.85658	  6.37542	  4.21700	  2.79669	  8.08980	 -0.17311	 11.13165	706.68701	 23.60	
  7.997	-41.563	 10.83638	  7.52664	  3.17299	  3.46114	  7.28512	 -0.14842	 11.12924	706.63898	 23.60	
  8.008	-13.821	 10.83295	  8.20453	  2.59974	  4.58818	  6.04374	 -0.13131	 11.13504	706.66803	 23.60	
  8.008	 13.821	 10.82057	  8.20514	  2.58179	  5.91396	  4.69752	 -0.11419	 11.12241	706.74701	 23.60	
  7.997	 41.563	 10.84867	  7.57477	  3.14090	  7.14866	  3.59299	 -0.09329	 11.13383	706.58398	 23.60	
  7.988	 69.228	 10.88779	  6.45433	  4.18207	  7.98322	  2.93079	 -0.08921	 11.15283	706.59998	 23.60	
  8.006	 96.837	 10.88993	  5.12004	  5.47753	  8.16153	  2.79010	 -0.09825	 11.13105	706.77698	 23.60	
  7.997	124.550	 10.92907	  3.93410	  6.78486	  7.68749	  3.22408	 -0.10125	 11.14547	706.62201	 23.60	
  7.991	152.370	 10.91368	  3.10009	  7.73235	  6.61784	  4.14870	 -0.09444	 11.11938	706.53302	 23.60	
 12.009	161.059	 10.47332	  1.37814	  8.90305	  6.29508	  3.67853	 -0.30190	 11.11788	706.54901	 23.60	
 12.013	142.081	 10.47600	  1.96260	  8.18865	  7.57156	  2.55127	 -0.29388	 11.12905	706.59998	 23.60	
 12.006	123.113	 10.45651	  2.88092	  7.08777	  8.53352	  1.73600	 -0.32838	 11.11975	706.66803	 23.60	
 12.007	104.200	 10.43447	  4.06259	  5.76142	  9.10878	  1.25394	 -0.34111	 11.12824	706.69800	 23.60	
 11.989	 85.301	 10.42406	  5.41003	  4.38365	  9.21689	  1.15961	 -0.32274	 11.14450	706.66699	 23.60	
 12.013	 66.294	 10.37998	  6.75066	  3.08983	  8.82136	  1.43330	 -0.28069	 11.12835	706.62903	 23.60	
 12.012	 47.388	 10.38287	  7.96293	  2.04623	  8.01512	  2.09085	 -0.27062	 11.15320	706.58002	 23.60	
 11.990	 28.440	 10.34236	  8.81811	  1.31224	  6.84881	  3.05475	 -0.31657	 11.13302	706.70697	 23.60	
 11.991	  9.464	 10.34344	  9.28224	  0.94309	  5.51868	  4.28502	 -0.32572	 11.14511	706.70697	 23.60	
 11.991	 -9.464	 10.32722	  9.25435	  0.95507	  4.14897	  5.64283	 -0.32576	 11.12794	706.70502	 23.60	
 11.990	-28.440	 10.33573	  8.77625	  1.34165	  2.91237	  6.99550	 -0.33436	 11.13384	706.53998	 23.60	
 12.012	-47.388	 10.33616	  7.86995	  2.08413	  1.93954	  8.13175	 -0.35799	 11.12686	706.52698	 23.60	
 12.013	-66.294	 10.36136	  6.65513	  3.15430	  1.29040	  8.94701	 -0.38870	 11.13108	706.54901	 23.60	
 11.989	-85.301	 10.38111	  5.28352	  4.45679	  1.03242	  9.29664	 -0.39476	 11.12150	706.65399	 23.60	
 12.007	-104.200	 10.40038	  3.93910	  5.84089	  1.12443	  9.19369	 -0.37125	 11.12872	706.59497	 23.60	
 12.006	-123.113	 10.42704	  2.76723	  7.15650	  1.60300	  8.61733	 -0.32398	 11.13182	706.62000	 23.60	
 12.013	-142.081	 10.44034	  1.87855	  8.22814	  2.44884	  7.62351	 -0.31192	 11.12384	706.55499	 23.60	
 12.009	-161.059	 10.47393	  1.33931	  8.94164	  3.59548	  6.37118	 -0.33642	 11.13538	706.64301	 23.60	
 16.000	180.000	  9.81523	 -0.41724	 10.02189	  4.39424	  4.44522	 -0.51835	 11.13336	706.59100	 23.60	
 15.990	-165.604	  9.79448	 -0.31324	  9.84603	  3.06402	  5.80597	 -0.53269	 11.13006	706.56403	 23.60	
 16.002	-151.165	  9.75957	  0.06803	  9.29171	  1.86263	  7.12338	 -0.53251	 11.11357	706.64301	 23.60	
 16.002	-136.836	  9.75644	  0.71189	  8.43905	  0.86813	  8.31942	 -0.47941	 11.13554	706.81299	 23.60	
 15.995	-122.439	  9.75225	  1.62224	  7.31233	  0.13622	  9.25897	 -0.47316	 11.15093	706.67297	 23.60	
 15.993	-107.966	  9.71911	  2.74175	  5.98659	 -0.35178	  9.87425	 -0.49537	 11.14295	706.56897	 23.60	
 16.005	-93.629	  9.68300	  4.00714	  4.60047	 -0.56255	 10.13327	 -0.46115	 11.12855	706.55701	 23.60	
 15.992	-79.234	  9.66657	  5.38028	  3.25474	 -0.50637	 10.04389	 -0.43550	 11.13457	706.59100	 23.60	
 16.009	-64.774	  9.64384	  6.74320	  2.01508	 -0.18679	  9.59090	 -0.43093	 11.13365	706.53497	 23.60	
 15.997	-50.364	  9.63357	  7.98385	  0.98273	  0.41301	  8.79686	 -0.44426	 11.13060	706.56897	 23.60	
 15.997	-36.045	  9.63972	  9.01193	  0.18560	  1.25394	  7.74186	 -0.43853	 11.14695	706.47699	 23.60	
 16.000	-21.597	  9.64114	  9.74449	 -0.36089	  2.33043	  6.47685	 -0.43550	 11.16330	706.53302	 23.60	
 16.003	 -7.169	  9.59122	 10.07236	 -0.63382	  3.57593	  5.07669	 -0.41265	 11.11027	706.54303	 23.60	
 16.003	  7.169	  9.60121	 10.09483	 -0.65032	  4.92613	  3.73040	 -0.41790	 11.12387	706.64502	 23.60	
 16.000	 21.597	  9.61947	  9.76401	 -0.39167	  6.29357	  2.48663	 -0.42604	 11.13802	706.65100	 23.60	
 15.997	 36.045	  9.64388	  9.08308	  0.13114	  7.57677	  1.41228	 -0.42838	 11.14215	706.65002	 23.60	
 15.997	 50.364	  9.64598	  8.07934	  0.90318	  8.65708	  0.54921	 -0.42555	 11.12842	706.73700	 23.60	
 16.009	 64.774	  9.69481	  6.89102	  1.91694	  9.49090	 -0.04867	 -0.43808	 11.15421	706.63702	 23.60	
 15.992	 79.234	  9.69814	  5.53072	  3.13951	  9.94307	 -0.37964	 -0.46803	 11.12539	706.73798	 23.60	
 16.005	 93.629	  9.73364	  4.17688	  4.48897	 10.06611	 -0.44315	 -0.47932	 11.13204	706.76001	 23.60	
 15.993	107.966	  9.76690	  2.90102	  5.88134	  9.81064	 -0.22820	 -0.49019	 11.12796	706.69800	 23.60	
 15.995	122.439	  9.81343	  1.77020	  7.22856	  9.22648	  0.25006	 -0.50376	 11.15446	706.73798	 23.60	
 16.002	136.836	  9.83218	  0.84137	  8.39016	  8.30061	  0.97797	 -0.48906	 11.15484	706.82501	 23.60	
 16.002	151.165	  9.84015	  0.16080	  9.28098	  7.12993	  1.94382	 -0.49437	 11.15072	706.63397	 23.60	
 15.990	165.604	  9.80740	 -0.25568	  9.80411	  5.76505	  3.12534	 -0.51156	 11.11221	706.62000	 23.60	
 20.003	168.362	  8.95444	 -1.74535	 10.48873	  5.08502	  2.48561	 -0.57814	 11.13485	706.53601	 23.60	
 20.008	156.764	  8.94833	 -1.44956	 10.04264	  6.42277	  1.30348	 -0.59564	 11.12157	706.50201	 23.60	
 20.000	145.147	  8.97259	 -0.94805	  9.33911	  7.70186	  0.29900	 -0.59651	 11.15629	706.59802	 23.60	
 19.995	133.545	  8.95027	 -0.25055	  8.34462	  8.78587	 -0.52064	 -0.56225	 11.13551	706.67798	 23.60	
 20.009	121.926	  8.92196	  0.63142	  7.16453	  9.67234	 -1.15798	 -0.48602	 11.13307	706.61401	 23.60	
 20.005	110.327	  8.90029	  1.69295	  5.85812	 10.28236	 -1.57326	 -0.42917	 11.12966	706.56000	 23.60	
 19.989	 98.733	  8.88110	  2.89383	  4.49377	 10.60765	 -1.80348	 -0.40741	 11.13682	706.47302	 23.60	
 19.999	 87.075	  8.83886	  4.18427	  3.13943	 10.64201	 -1.85216	 -0.42952	 11.12363	706.68402	 23.60	
 19.992	 75.457	  8.81657	  5.51925	  1.88803	 10.41132	 -1.71518	 -0.47562	 11.12901	706.69299	 23.60	
 20.009	 63.844	  8.77770	  6.81950	  0.75115	  9.89142	 -1.39833	 -0.48697	 11.13060	706.66699	 23.60	
 19.989	 52.269	  8.76100	  8.03014	 -0.19431	  9.09880	 -0.86674	 -0.47415	 11.13647	706.68103	 23.60	
 19.999	 40.602	  8.73014	  9.06696	 -0.96118	  8.05647	 -0.13891	 -0.42266	 11.12892	706.63098	 23.60	
 20.004	 29.051	  8.72378	  9.89310	 -1.52482	  6.86779	  0.78074	 -0.36099	 11.14712	706.70099	 23.60	
 20.005	 17.433	  8.69948	 10.42711	 -1.89356	  5.56051	  1.86280	 -0.34881	 11.13357	706.64203	 23.60	
 20.006	  5.780	  8.69617	 10.69829	 -2.07885	  4.21936	  3.08354	 -0.34161	 11.13711	706.53198	 23.60	
 20.006	 -5.780	  8.69433	 10.68265	 -2.06988	  2.91600	  4.39571	 -0.35904	 11.13312	706.57202	 23.60	
 20.005	-17.433	  8.69207	 10.38157	 -1.86831	  1.68248	  5.74535	 -0.37326	 11.12071	706.51801	 23.60	
 20.004	-29.051	  8.71776	  9.82408	 -1.48700	  0.60756	  7.05448	 -0.39602	 11.14152	706.68500	 23.60	
 19.999	-40.602	  8.72730	  8.97779	 -0.89896	 -0.29686	  8.23224	 -0.38386	 11.13924	706.60797	 23.60	
 19.989	-52.269	  8.71333	  7.88129	 -0.11522	 -1.02374	  9.22739	 -0.36514	 11.11531	706.58301	 23.60	
 20.009	-63.844	  8.74568	  6.66649	  0.86147	 -1.53404	 10.00389	 -0.34338	 11.12959	706.52100	 23.60	
 19.992	-75.457	  8.76399	  5.33611	  1.99884	 -1.85611	 10.49156	 -0.35304	 11.12845	706.65900	 23.60	
 19.999	-87.075	  8.77410	  3.98404	  3.25422	 -1.98902	 10.69199	 -0.37113	 11.11785	706.58398	 23.60	
 19.989	-98.733	  8.81300	  2.68687	  4.60760	 -1.94927	 10.65226	 -0.40793	 11.14273	706.61902	 23.60	
 20.005	-110.327	  8.82604	  1.49563	  5.95416	 -1.70728	 10.30418	 -0.48245	 11.13765	706.77502	 23.60	
 20.009	-121.926	  8.84486	  0.45692	  7.23953	 -1.27173	  9.67606	 -0.53292	 11.13581	706.62903	 23.60	
 19.995	-133.545	  8.85820	 -0.40029	  8.39168	 -0.61781	  8.77690	 -0.56674	 11.12128	706.56403	 23.60	
 20.000	-145.147	  8.87741	 -1.06281	  9.35231	  0.22212	  7.67782	 -0.55004	 11.11918	706.51202	 23.60	
 20.008	-156.764	  8.89646	 -1.53061	 10.07182	  1.25253	  6.42559	 -0.53148	 11.12328	706.64301	 23.60	
 20.003	-168.362	  8.94380	 -1.79528	 10.52697	  2.44665	  5.11576	 -0.54183	 11.15568	706.50800	 23.60	
 20.000	180.000	  8.94647	 -1.86157	 10.64100	  3.73902	  3.76529	 -0.56583	 11.13553	706.55701	 23.60	
