FileType=PCF
NHL=14
Date=08/30/17	12:15:53
Facility=APL
Serial=16328-18
Customer=NASA
NP=6
Mach=0.200000
Calibration=1:1
CalPts=490
TstPts=95
PortNumbering=AP Standard
Units=Torr C m/s kg/m^3 deg mm 
Theta[deg]	Phi[deg]	P1[Torr]	P2[Torr]	P3[Torr]	P4[Torr]	P5[Torr]	P6[Torr]	Pt[Torr]	Ps[Abs,Torr]	Ts[C]	
  0.000	  0.000	 19.68326	 10.12214	  9.68715	  9.90361	 10.03253	  0.28187	 19.64839	706.24597	 23.70	
  1.691	128.401	 19.68024	  9.46772	 10.31187	 10.70050	  9.22530	  0.28971	 19.64392	706.33301	 23.70	
  1.692	 77.194	 19.65545	 10.32849	  9.42179	 10.85745	  9.02446	  0.29935	 19.62437	706.39398	 23.70	
  1.699	 26.182	 19.68013	 11.04188	  8.75178	 10.33442	  9.55896	  0.28175	 19.65743	706.33600	 23.70	
  1.699	-26.182	 19.65357	 11.02385	  8.74622	  9.40354	 10.46833	  0.28302	 19.62861	706.24298	 23.70	
  1.692	-77.194	 19.69895	 10.32298	  9.47099	  8.90428	 11.02947	  0.27767	 19.67062	706.27698	 23.70	
  1.691	-128.401	 19.66082	  9.45860	 10.31369	  9.07903	 10.83447	  0.28030	 19.63049	706.16400	 23.70	
  1.700	180.000	 19.66634	  9.08231	 10.71411	  9.87548	 10.02677	  0.27990	 19.63397	706.37799	 23.70	
  3.400	180.000	 19.65978	  8.05153	 11.70371	  9.80859	  9.97701	  0.23288	 19.64238	706.16998	 23.70	
  3.388	-152.325	 19.62907	  8.24259	 11.44606	  8.86551	 10.90236	  0.20370	 19.61267	706.26599	 23.70	
  3.397	-124.529	 19.65449	  8.85140	 10.80053	  8.17620	 11.66826	  0.18067	 19.64429	706.27002	 23.70	
  3.399	-96.763	 19.62073	  9.73603	  9.83332	  7.82473	 12.01373	  0.21179	 19.61598	706.23499	 23.70	
  3.394	-69.283	 19.62788	 10.71977	  8.88334	  7.94635	 11.86546	  0.16375	 19.64206	706.32898	 23.70	
  3.400	-41.398	 19.61165	 11.58523	  8.05678	  8.46685	 11.26561	  0.22131	 19.63206	706.14697	 23.70	
  3.401	-14.021	 19.62512	 12.06536	  7.64532	  9.29350	 10.39810	  0.21612	 19.64460	706.27399	 23.70	
  3.401	 14.021	 19.63524	 12.08869	  7.63625	 10.28759	  9.42422	  0.25010	 19.65958	706.28998	 23.70	
  3.400	 41.398	 19.63934	 11.60233	  8.07233	 11.18089	  8.57544	  0.21806	 19.65214	706.20300	 23.60	
  3.394	 69.283	 19.61355	 10.78744	  8.81738	 11.72806	  8.06200	  0.24882	 19.62468	706.28198	 23.60	
  3.399	 96.763	 19.62857	  9.80325	  9.81281	 11.86954	  7.97347	  0.21644	 19.62260	706.33301	 23.70	
  3.397	124.529	 19.64369	  8.90942	 10.75180	 11.52503	  8.30419	  0.23562	 19.63200	706.32397	 23.60	
  3.388	152.325	 19.63743	  8.27441	 11.44745	 10.78338	  9.00679	  0.24390	 19.62360	706.25403	 23.60	
  5.099	161.165	 19.56822	  7.07324	 12.48325	 10.69841	  8.80538	  0.14153	 19.63094	706.12402	 23.60	
  5.109	142.013	 19.55865	  7.53325	 11.95224	 11.63104	  7.92836	  0.13205	 19.63312	706.25897	 23.60	
  5.095	123.033	 19.55095	  8.26287	 11.14281	 12.33467	  7.29340	  0.13799	 19.61782	706.29602	 23.60	
  5.105	104.191	 19.52721	  9.16275	 10.15937	 12.77145	  6.90296	  0.18113	 19.61811	706.24200	 23.60	
  5.093	 85.207	 19.50038	 10.16808	  9.11308	 12.83078	  6.80310	  0.12617	 19.59790	706.30701	 23.60	
  5.104	 66.290	 19.51867	 11.19332	  8.14718	 12.58371	  7.02074	  0.15078	 19.63301	706.21503	 23.60	
  5.094	 47.331	 19.49076	 12.04018	  7.33908	 11.97365	  7.51300	  0.12237	 19.62290	706.23901	 23.60	
  5.089	 28.397	 19.49416	 12.70246	  6.75035	 11.13816	  8.26317	  0.11310	 19.63399	706.38000	 23.60	
  5.096	  9.576	 19.48706	 13.04248	  6.44193	 10.13999	  9.20213	  0.09590	 19.63007	706.22803	 23.60	
  5.096	 -9.576	 19.45916	 13.01797	  6.45207	  9.07794	 10.24516	  0.08357	 19.60793	706.28400	 23.60	
  5.089	-28.397	 19.49507	 12.67170	  6.78358	  8.17454	 11.24612	  0.07114	 19.63125	706.23499	 23.60	
  5.094	-47.331	 19.47481	 11.99289	  7.36253	  7.40116	 12.08678	  0.06074	 19.59888	706.18597	 23.60	
  5.104	-66.290	 19.49398	 11.09886	  8.18854	  6.86326	 12.71025	  0.05482	 19.61292	706.20599	 23.60	
  5.093	-85.207	 19.50633	 10.07205	  9.17630	  6.64797	 12.99566	  0.05226	 19.61413	706.16602	 23.60	
  5.105	-104.191	 19.53870	  9.05961	 10.22831	  6.72302	 12.93160	  0.05819	 19.63152	706.27002	 23.60	
  5.095	-123.033	 19.54667	  8.17876	 11.20076	  7.12779	 12.48419	  0.08387	 19.63257	706.24500	 23.60	
  5.109	-142.013	 19.53063	  7.46318	 11.98564	  7.77396	 11.74786	  0.10074	 19.60470	706.24902	 23.60	
  5.099	-161.165	 19.52049	  7.03247	 12.48027	  8.65169	 10.79517	  0.11893	 19.58538	706.28497	 23.60	
  5.100	180.000	 19.54683	  6.90751	 12.65882	  9.64717	  9.79848	  0.13772	 19.60302	706.24500	 23.60	
  6.800	180.000	 19.41036	  5.70514	 13.61760	  9.47912	  9.60635	  0.00182	 19.62107	706.17999	 23.50	
  6.796	-166.229	 19.40377	  5.79308	 13.50203	  8.48881	 10.61186	  0.00298	 19.61766	706.20001	 23.50	
  6.808	-152.311	 19.41118	  6.10025	 13.14640	  7.57060	 11.59036	 -0.01114	 19.63551	706.23102	 23.50	
  6.795	-138.383	 19.39137	  6.61824	 12.51746	  6.74765	 12.47997	 -0.01842	 19.62436	705.90399	 23.50	
  6.792	-124.591	 19.36536	  7.30646	 11.71806	  6.12104	 13.17402	 -0.03322	 19.61333	706.06500	 23.50	
  6.787	-110.754	 19.35151	  8.15523	 10.78376	  5.69941	 13.64960	 -0.06156	 19.61028	705.97803	 23.50	
  6.800	-96.985	 19.33621	  9.10568	  9.78366	  5.46707	 13.90412	 -0.07831	 19.61575	706.04797	 23.50	
  6.800	-83.015	 19.30278	 10.12016	  8.73592	  5.46642	 13.86290	 -0.09768	 19.58929	706.09698	 23.50	
  6.787	-69.246	 19.30511	 11.12716	  7.78420	  5.67301	 13.61831	 -0.09540	 19.60950	706.02899	 23.50	
  6.792	-55.409	 19.29748	 12.05916	  6.92260	  6.08869	 13.11576	 -0.08183	 19.61500	706.01501	 23.50	
  6.795	-41.617	 19.28425	 12.85853	  6.20259	  6.70948	 12.40804	 -0.07065	 19.60834	706.14099	 23.50	
  6.808	-27.689	 19.29178	 13.50064	  5.65877	  7.50735	 11.53771	 -0.05936	 19.62716	706.08502	 23.50	
  6.796	-13.771	 19.27596	 13.86700	  5.33434	  8.41682	 10.55219	 -0.03704	 19.62759	706.13599	 23.50	
  6.800	  0.000	 19.26652	 13.99559	  5.20561	  9.39516	  9.53472	 -0.02888	 19.60024	706.11902	 23.50	
  6.796	 13.771	 19.25921	 13.86761	  5.29929	 10.40859	  8.53467	 -0.01954	 19.59555	706.11298	 23.50	
  6.808	 27.689	 19.28340	 13.52291	  5.61049	 11.39834	  7.61484	 -0.01070	 19.61036	706.12097	 23.50	
  6.795	 41.617	 19.25068	 12.89551	  6.12505	 12.24107	  6.82080	  0.01339	 19.57892	706.13898	 23.50	
  6.792	 55.409	 19.27976	 12.11922	  6.84391	 12.97109	  6.21396	  0.02065	 19.59863	706.11102	 23.50	
  6.787	 69.246	 19.30199	 11.21062	  7.70634	 13.48110	  5.80492	  0.01938	 19.60119	706.15601	 23.50	
  6.800	 83.015	 19.30997	 10.23207	  8.65370	 13.74663	  5.60586	  0.00371	 19.59213	706.09698	 23.50	
  6.800	 96.985	 19.35593	  9.22716	  9.69040	 13.77288	  5.62439	 -0.00392	 19.61742	706.12402	 23.50	
  6.787	110.754	 19.35489	  8.27535	 10.69080	 13.50838	  5.85345	 -0.00013	 19.59831	706.18103	 23.40	
  6.792	124.591	 19.40554	  7.44171	 11.64721	 13.03464	  6.30484	  0.01451	 19.63086	706.15900	 23.40	
  6.795	138.383	 19.38208	  6.70432	 12.43716	 12.32267	  6.90491	  0.00898	 19.60212	706.18701	 23.40	
  6.808	152.311	 19.39268	  6.14319	 13.07794	 11.46402	  7.68471	  0.00476	 19.60231	706.21198	 23.40	
  6.796	166.229	 19.37901	  5.81991	 13.45760	 10.48765	  8.59117	  0.01978	 19.59204	706.06000	 23.40	
  8.491	168.704	 19.16218	  4.58978	 14.37024	 10.30643	  8.32473	 -0.12957	 19.59711	706.15002	 23.40	
  8.502	157.493	 19.14956	  4.86064	 14.03701	 11.30046	  7.37733	 -0.11044	 19.58344	706.10400	 23.40	
  8.494	146.194	 19.18465	  5.32073	 13.52776	 12.25610	  6.52873	 -0.13157	 19.63074	706.03998	 23.40	
  8.495	135.039	 19.14399	  5.91818	 12.79997	 13.06941	  5.79352	 -0.13770	 19.59508	706.18597	 23.40	
  8.487	123.723	 19.14102	  6.68053	 11.94388	 13.75637	  5.19773	 -0.14961	 19.60076	706.12500	 23.40	
  8.492	112.575	 19.10416	  7.51778	 10.98532	 14.24092	  4.74638	 -0.16470	 19.57659	706.21997	 23.40	
  8.510	101.220	 19.09408	  8.49312	  9.95402	 14.55786	  4.47547	 -0.15310	 19.59038	705.99200	 23.40	
  8.500	 90.000	 19.07283	  9.48943	  8.91251	 14.64858	  4.38136	 -0.15475	 19.58415	705.93799	 23.40	
  8.510	 78.780	 19.05715	 10.52231	  7.89746	 14.52842	  4.45632	 -0.14044	 19.59682	706.04901	 23.40	
  8.492	 67.425	 19.08449	 11.55999	  6.94475	 14.22566	  4.73400	 -0.12754	 19.64142	706.14099	 23.40	
  8.487	 56.277	 19.01880	 12.44995	  6.07947	 13.67409	  5.12965	 -0.10672	 19.58817	706.17999	 23.40	
  8.495	 44.961	 18.99044	 13.26541	  5.32224	 12.96184	  5.69760	 -0.13212	 19.57641	706.14899	 23.40	
  8.494	 33.806	 19.00224	 13.95010	  4.74067	 12.13118	  6.45863	 -0.14160	 19.59824	706.10797	 23.40	
  8.502	 22.507	 18.99480	 14.45905	  4.30412	 11.20059	  7.29682	 -0.17797	 19.60303	706.11102	 23.40	
  8.491	 11.296	 18.99815	 14.75459	  4.06472	 10.20156	  8.25000	 -0.18296	 19.60736	706.15601	 23.40	
  8.500	  0.000	 18.99161	 14.86105	  3.98062	  9.14296	  9.28382	 -0.18054	 19.59976	706.11603	 23.40	
  8.491	-11.296	 19.00055	 14.74864	  4.09338	  8.14067	 10.32972	 -0.19530	 19.61136	706.16998	 23.40	
  8.502	-22.507	 18.97984	 14.41808	  4.34537	  7.18389	 11.32121	 -0.20118	 19.58338	706.12402	 23.40	
  8.494	-33.806	 19.00035	 13.89811	  4.80383	  6.31381	 12.29212	 -0.21475	 19.60136	706.13300	 23.40	
  8.495	-44.961	 18.99537	 13.19898	  5.39931	  5.57572	 13.11057	 -0.22776	 19.57693	706.00598	 23.40	
  8.487	-56.277	 19.04681	 12.37828	  6.17532	  5.01442	 13.82700	 -0.24813	 19.62103	706.15002	 23.40	
  8.492	-67.425	 19.05501	 11.43721	  7.03742	  4.58518	 14.33853	 -0.26576	 19.60877	706.03699	 23.40	
  8.510	-78.780	 19.04572	 10.40906	  8.00338	  4.31305	 14.65416	 -0.27423	 19.59085	706.01501	 23.40	
  8.500	-90.000	 19.08789	  9.38620	  9.03786	  4.24663	 14.78135	 -0.25409	 19.61248	706.00299	 23.40	
  8.510	-101.220	 19.09699	  8.36204	 10.08133	  4.32480	 14.70007	 -0.24450	 19.61697	705.90399	 23.40	
  8.492	-112.575	 19.08679	  7.39664	 11.09640	  4.60285	 14.36032	 -0.20896	 19.59308	705.95300	 23.40	
  8.487	-123.723	 19.09968	  6.54831	 12.02857	  5.03480	 13.86072	 -0.18089	 19.58953	706.03802	 23.40	
  8.495	-135.039	 19.12450	  5.81464	 12.88120	  5.62596	 13.18672	 -0.15586	 19.60696	706.07703	 23.40	
  8.494	-146.194	 19.14641	  5.23747	 13.57127	  6.38809	 12.35482	 -0.15409	 19.61184	705.98401	 23.40	
  8.502	-157.493	 19.13151	  4.80315	 14.07370	  7.26932	 11.38055	 -0.15821	 19.58256	705.90399	 23.40	
  8.491	-168.704	 19.18888	  4.58567	 14.40799	  8.24307	 10.40803	 -0.14599	 19.62968	705.89301	 23.40	
  8.500	180.000	 19.16112	  4.48689	 14.49420	  9.25047	  9.34982	 -0.14530	 19.59724	706.00098	 23.40	
 10.200	180.000	 18.85153	  3.29935	 15.30989	  8.98131	  9.06476	 -0.28943	 19.59357	705.93597	 23.40	
 10.191	-170.497	 18.84227	  3.35036	 15.22299	  7.93987	 10.10295	 -0.31065	 19.58705	706.01099	 23.40	
 10.210	-161.034	 18.85075	  3.53192	 14.98575	  6.96241	 11.12924	 -0.32645	 19.60956	705.95898	 23.40	
 10.194	-151.526	 18.81282	  3.87318	 14.51476	  6.02431	 12.12264	 -0.31350	 19.58046	705.99200	 23.40	
 10.190	-142.105	 18.80803	  4.36394	 13.92386	  5.20924	 13.03022	 -0.29862	 19.59459	705.97998	 23.40	
 10.215	-132.646	 18.80336	  4.97446	 13.19672	  4.49817	 13.83895	 -0.29801	 19.60001	706.04498	 23.40	
 10.203	-123.092	 18.81410	  5.75658	 12.33281	  3.90927	 14.55245	 -0.32190	 19.62298	705.90698	 23.30	
 10.192	-113.678	 18.77225	  6.60503	 11.35257	  3.47666	 15.04645	 -0.35488	 19.59806	705.76202	 23.30	
 10.208	-104.249	 18.75600	  7.52962	 10.34104	  3.16649	 15.40605	 -0.40368	 19.59556	705.95599	 23.30	
 10.210	-94.801	 18.71346	  8.52388	  9.28145	  2.99701	 15.56882	 -0.43422	 19.58119	706.07397	 23.30	
 10.210	-85.199	 18.70283	  9.57065	  8.21722	  2.98774	 15.55781	 -0.45679	 19.57401	706.07703	 23.30	
 10.208	-75.751	 18.70645	 10.63963	  7.20162	  3.12202	 15.39255	 -0.46090	 19.59475	706.04199	 23.30	
 10.192	-66.322	 18.71010	 11.65750	  6.26744	  3.43208	 15.02414	 -0.45778	 19.61124	706.02301	 23.30	
 10.203	-56.908	 18.68200	 12.61080	  5.39011	  3.85476	 14.48463	 -0.42739	 19.59222	706.06799	 23.30	
 10.215	-47.354	 18.68072	 13.49267	  4.60951	  4.42619	 13.81294	 -0.40186	 19.61132	706.09302	 23.30	
 10.190	-37.895	 18.64840	 14.21941	  3.96076	  5.12489	 12.97437	 -0.36619	 19.58387	706.00098	 23.30	
 10.194	-28.474	 18.64042	 14.82321	  3.44956	  5.92541	 12.07296	 -0.35612	 19.58576	705.97498	 23.30	
 10.210	-18.966	 18.64195	 15.28417	  3.07033	  6.84648	 11.07362	 -0.34980	 19.60198	705.99799	 23.30	
 10.191	 -9.503	 18.61792	 15.54502	  2.84827	  7.80896	 10.03370	 -0.33311	 19.57819	706.06897	 23.30	
 10.200	  0.000	 18.62346	 15.64681	  2.75265	  8.83918	  8.98558	 -0.32981	 19.57824	706.06897	 23.30	
 10.191	  9.503	 18.62005	 15.56958	  2.80700	  9.89624	  7.94427	 -0.34354	 19.58316	705.93597	 23.30	
 10.210	 18.966	 18.64042	 15.33188	  2.99949	 10.92545	  6.96638	 -0.34046	 19.59769	706.07300	 23.30	
 10.194	 28.474	 18.64062	 14.88052	  3.37092	 11.91130	  6.06856	 -0.33339	 19.59107	705.87201	 23.30	
 10.190	 37.895	 18.63539	 14.27708	  3.87399	 12.81719	  5.25432	 -0.30612	 19.57135	705.99298	 23.30	
 10.215	 47.354	 18.63666	 13.56816	  4.48297	 13.63972	  4.55136	 -0.26163	 19.57556	705.92700	 23.30	
 10.203	 56.908	 18.68389	 12.73712	  5.25759	 14.33887	  4.00353	 -0.24906	 19.60199	705.88501	 23.30	
 10.192	 66.322	 18.69404	 11.78307	  6.11491	 14.86009	  3.59304	 -0.27360	 19.58488	705.92700	 23.30	
 10.208	 75.751	 18.68031	 10.76982	  7.04670	 15.21863	  3.28878	 -0.28803	 19.55540	705.96899	 23.30	
 10.210	 85.199	 18.71116	  9.74529	  8.05463	 15.42447	  3.12255	 -0.31593	 19.56360	706.01801	 23.30	
 10.210	 94.801	 18.76583	  8.71300	  9.14001	 15.45604	  3.15346	 -0.32787	 19.59815	706.00702	 23.30	
 10.208	104.249	 18.78585	  7.70682	 10.18938	 15.28915	  3.32399	 -0.35098	 19.58477	705.83398	 23.30	
 10.192	113.678	 18.80587	  6.77234	 11.21091	 14.92822	  3.64178	 -0.32483	 19.58527	705.81000	 23.30	
 10.203	123.092	 18.79567	  5.89880	 12.16673	 14.41098	  4.05731	 -0.31275	 19.56580	705.91400	 23.30	
 10.215	132.646	 18.83267	  5.11850	 13.07839	 13.77574	  4.61433	 -0.29797	 19.58636	705.96997	 23.30	
 10.190	142.105	 18.82925	  4.48743	 13.82818	 12.95707	  5.32439	 -0.26884	 19.57371	705.91101	 23.30	
 10.194	151.526	 18.86861	  3.98710	 14.46895	 12.06469	  6.15455	 -0.26010	 19.60076	705.95599	 23.30	
 10.210	161.034	 18.85162	  3.60671	 14.93494	 11.07009	  7.05254	 -0.27061	 19.59117	705.96198	 23.30	
 10.191	170.497	 18.82720	  3.38508	 15.17703	 10.02699	  8.00133	 -0.27640	 19.55950	705.94501	 23.30	
 11.899	171.783	 18.46739	  2.14632	 15.98821	  9.74172	  7.66529	 -0.46580	 19.59126	705.89301	 23.30	
 11.890	163.610	 18.45966	  2.34791	 15.72258	 10.76465	  6.68957	 -0.44197	 19.56965	705.85901	 23.30	
 11.889	155.445	 18.47313	  2.67168	 15.32899	 11.77840	  5.78213	 -0.41669	 19.58118	705.89001	 23.30	
 11.909	147.299	 18.48140	  3.09077	 14.80036	 12.74020	  4.92378	 -0.41099	 19.60365	705.92798	 23.30	
 11.902	139.148	 18.44066	  3.65247	 14.07788	 13.58718	  4.16016	 -0.41581	 19.55187	705.96899	 23.20	
 11.894	130.867	 18.45948	  4.34183	 13.29245	 14.38238	  3.50981	 -0.45319	 19.58797	705.85901	 23.30	
 11.897	122.732	 18.44916	  5.09737	 12.39866	 15.04207	  2.95511	 -0.48783	 19.59765	705.89600	 23.30	
 11.903	114.597	 18.41511	  5.94408	 11.41614	 15.55240	  2.49033	 -0.51530	 19.58647	705.90802	 23.20	
 11.893	106.346	 18.39551	  6.90463	 10.37332	 15.92581	  2.16806	 -0.52782	 19.58291	705.92700	 23.30	
 11.892	 98.155	 18.38869	  7.89445	  9.31897	 16.16238	  1.98243	 -0.51368	 19.60795	705.86902	 23.30	
 11.900	 90.000	 18.34443	  8.90730	  8.25194	 16.19699	  1.90936	 -0.49598	 19.57739	705.90698	 23.30	
 11.892	 81.845	 18.34674	  9.95742	  7.22739	 16.11764	  1.97282	 -0.46988	 19.60158	705.94501	 23.20	
 11.893	 73.654	 18.29510	 10.96725	  6.21700	 15.84494	  2.15780	 -0.44304	 19.56401	705.92700	 23.20	
 11.903	 65.403	 18.27600	 11.97822	  5.28138	 15.44634	  2.47398	 -0.39626	 19.56891	705.87701	 23.20	
 11.897	 57.268	 18.26994	 12.92488	  4.44003	 14.90791	  2.90931	 -0.38621	 19.58724	705.92700	 23.30	
 11.894	 49.133	 18.26642	 13.80699	  3.69000	 14.24232	  3.45666	 -0.39050	 19.60261	705.90503	 23.20	
 11.902	 40.852	 18.23596	 14.55908	  3.01558	 13.43704	  4.09300	 -0.42974	 19.58224	705.95300	 23.30	
 11.909	 32.701	 18.24042	 15.23044	  2.47470	 12.56640	  4.84204	 -0.47414	 19.60474	705.92401	 23.20	
 11.889	 24.555	 18.21373	 15.71464	  2.05897	 11.58126	  5.69803	 -0.49529	 19.58111	705.90503	 23.20	
 11.890	 16.390	 18.21629	 16.09337	  1.76527	 10.57973	  6.62584	 -0.51691	 19.58819	705.96100	 23.30	
 11.899	  8.217	 18.18740	 16.29729	  1.57849	  9.53796	  7.58983	 -0.49252	 19.56147	705.77802	 23.20	
 11.900	  0.000	 18.21161	 16.38445	  1.53826	  8.49487	  8.64069	 -0.49809	 19.59235	706.00299	 23.20	
 11.899	 -8.217	 18.20567	 16.29068	  1.61918	  7.46836	  9.68407	 -0.50425	 19.58113	705.95300	 23.20	
 11.890	-16.390	 18.20621	 16.05172	  1.81733	  6.49245	 10.72565	 -0.50670	 19.57882	705.86603	 23.20	
 11.889	-24.555	 18.23116	 15.67898	  2.13555	  5.56162	 11.76112	 -0.51725	 19.60168	705.92999	 23.20	
 11.909	-32.701	 18.25092	 15.16000	  2.55820	  4.70852	 12.72621	 -0.51086	 19.61194	705.97601	 23.20	
 11.902	-40.852	 18.23281	 14.48073	  3.11276	  3.94719	 13.59004	 -0.53837	 19.58531	705.93500	 23.20	
 11.894	-49.133	 18.25378	 13.68609	  3.80748	  3.28073	 14.39445	 -0.56254	 19.58956	705.95203	 23.20	
 11.897	-57.268	 18.26130	 12.79837	  4.57171	  2.73092	 15.06294	 -0.58379	 19.58577	705.86902	 23.20	
 11.903	-65.403	 18.25706	 11.82516	  5.43116	  2.30789	 15.57346	 -0.60074	 19.56422	705.85101	 23.20	
 11.893	-73.654	 18.28421	 10.80526	  6.38242	  2.01300	 15.96760	 -0.61251	 19.56162	705.82898	 23.20	
 11.892	-81.845	 18.31997	  9.77318	  7.39515	  1.84968	 16.22148	 -0.62213	 19.58599	705.71100	 23.20	
 11.900	-90.000	 18.33060	  8.72300	  8.43442	  1.79825	 16.29758	 -0.61427	 19.58547	705.78998	 23.20	
 11.892	-98.155	 18.33678	  7.69228	  9.48008	  1.86111	 16.23076	 -0.57346	 19.57191	705.81799	 23.20	
 11.893	-106.346	 18.34872	  6.70511	 10.53669	  2.04191	 16.01033	 -0.54984	 19.58114	705.81000	 23.20	
 11.903	-114.597	 18.37089	  5.77196	 11.56611	  2.34411	 15.64526	 -0.49750	 19.59754	705.68298	 23.20	
 11.897	-122.732	 18.39266	  4.92722	 12.52322	  2.77675	 15.11579	 -0.46695	 19.59552	705.78998	 23.20	
 11.894	-130.867	 18.39235	  4.16845	 13.39680	  3.34170	 14.43360	 -0.43986	 19.57393	705.87201	 23.20	
 11.902	-139.148	 18.39880	  3.50470	 14.18790	  4.03557	 13.63709	 -0.44406	 19.56616	705.81702	 23.20	
 11.909	-147.299	 18.43496	  2.97777	 14.86210	  4.80364	 12.78673	 -0.46591	 19.59148	705.86798	 23.20	
 11.889	-155.445	 18.42392	  2.58966	 15.35466	  5.66578	 11.81809	 -0.47706	 19.56518	705.86798	 23.20	
 11.890	-163.610	 18.45225	  2.30471	 15.76826	  6.63592	 10.79622	 -0.49868	 19.58387	705.89099	 23.20	
 11.899	-171.783	 18.44720	  2.13050	 15.98491	  7.61971	  9.75542	 -0.48113	 19.57219	705.86798	 23.20	
 11.900	180.000	 18.45902	  2.07249	 16.06895	  8.66165	  8.71810	 -0.46550	 19.58126	705.84900	 23.20	
 13.600	180.000	 18.00923	  0.88640	 16.75105	  8.29891	  8.33832	 -0.63062	 19.57061	705.89001	 23.20	
 13.608	-172.853	 18.01225	  0.90671	 16.71580	  7.28203	  9.37022	 -0.65066	 19.58479	705.82098	 23.20	
 13.611	-165.583	 17.96175	  1.05410	 16.47909	  6.24541	 10.41376	 -0.66307	 19.54694	705.74402	 23.20	
 13.601	-158.353	 17.99501	  1.30377	 16.16197	  5.29720	 11.47106	 -0.65307	 19.59395	705.83398	 23.20	
 13.609	-151.210	 17.95521	  1.62245	 15.68682	  4.40277	 12.42374	 -0.65168	 19.56425	705.73602	 23.20	
 13.611	-143.999	 17.93870	  2.07268	 15.08936	  3.57861	 13.34845	 -0.61814	 19.56387	705.89001	 23.20	
 13.601	-136.825	 17.95272	  2.65039	 14.39672	  2.84893	 14.23004	 -0.57185	 19.59228	705.86200	 23.20	
 13.596	-129.640	 17.91847	  3.31739	 13.55866	  2.19353	 14.96899	 -0.58755	 19.57259	705.72498	 23.20	
 13.611	-122.431	 17.87513	  4.06059	 12.64768	  1.65366	 15.60301	 -0.61263	 19.54143	705.66498	 23.20	
 13.604	-115.211	 17.89991	  4.89777	 11.71701	  1.24609	 16.15156	 -0.63861	 19.57962	705.79797	 23.20	
 13.595	-108.042	 17.88839	  5.81557	 10.69940	  0.93228	 16.54750	 -0.68050	 19.58268	705.85999	 23.20	
 13.607	-100.793	 17.87634	  6.78347	  9.64828	  0.71032	 16.84018	 -0.68732	 19.58691	705.81799	 23.20	
 13.601	-93.617	 17.88517	  7.80984	  8.60015	  0.58849	 16.99915	 -0.69539	 19.61535	705.86798	 23.20	
 13.601	-86.383	 17.82632	  8.82760	  7.53162	  0.58252	 16.94411	 -0.71300	 19.56377	705.91400	 23.20	
 13.607	-79.207	 17.82267	  9.87730	  6.52354	  0.67344	 16.81633	 -0.70947	 19.58062	705.82001	 23.20	
 13.595	-71.958	 17.80846	 10.91834	  5.53725	  0.89166	 16.52378	 -0.72367	 19.56998	705.82599	 23.20	
 13.604	-64.789	 17.77285	 11.93099	  4.60895	  1.18806	 16.11505	 -0.70411	 19.56479	705.71899	 23.20	
 13.611	-57.569	 17.77414	 12.92127	  3.73997	  1.59491	 15.60066	 -0.67855	 19.59018	705.79602	 23.20	
 13.596	-50.360	 17.76282	 13.81131	  2.97301	  2.12198	 14.93785	 -0.67101	 19.58412	705.77002	 23.20	
 13.601	-43.175	 17.75671	 14.63163	  2.29008	  2.74124	 14.17337	 -0.64801	 19.58732	705.79602	 23.20	
 13.611	-36.001	 17.73118	 15.33189	  1.69404	  3.45968	 13.30255	 -0.64167	 19.56705	705.73602	 23.10	
 13.609	-28.790	 17.74139	 15.94975	  1.21397	  4.26582	 12.38878	 -0.63852	 19.58946	705.75897	 23.20	
 13.601	-21.647	 17.72439	 16.41269	  0.84423	  5.12736	 11.39030	 -0.64297	 19.58564	705.85999	 23.10	
 13.611	-14.417	 17.72564	 16.77443	  0.56328	  6.07239	 10.36104	 -0.62380	 19.59114	705.81799	 23.10	
 13.608	 -7.147	 17.69276	 16.95984	  0.39124	  7.07050	  9.28418	 -0.61944	 19.56102	705.86200	 23.10	
 13.600	  0.000	 17.71345	 17.03971	  0.33387	  8.09526	  8.25199	 -0.62643	 19.58163	705.71600	 23.10	
 13.608	  7.147	 17.69209	 16.97832	  0.35562	  9.12189	  7.21444	 -0.61436	 19.56687	705.75000	 23.10	
 13.611	 14.417	 17.70391	 16.79466	  0.50252	 10.17989	  6.22433	 -0.62303	 19.57508	705.74103	 23.10	
 13.601	 21.647	 17.71832	 16.46273	  0.77179	 11.20493	  5.29970	 -0.62806	 19.57995	705.77197	 23.10	
 13.609	 28.790	 17.74229	 16.04106	  1.12122	 12.20571	  4.41958	 -0.60876	 19.59655	705.74402	 23.10	
 13.611	 36.001	 17.72219	 15.42604	  1.59030	 13.12046	  3.61548	 -0.58895	 19.56535	705.78998	 23.10	
 13.601	 43.175	 17.75810	 14.74814	  2.16575	 13.98737	  2.90961	 -0.55046	 19.58109	705.78601	 23.10	
 13.596	 50.360	 17.76112	 13.94804	  2.82045	 14.76631	  2.28166	 -0.52406	 19.57199	705.66302	 23.10	
 13.611	 57.569	 17.77815	 13.07071	  3.57139	 15.43905	  1.74920	 -0.50881	 19.58632	705.70001	 23.10	
 13.604	 64.789	 17.81366	 12.12309	  4.41144	 16.01678	  1.31328	 -0.53860	 19.59928	705.78900	 23.10	
 13.595	 71.958	 17.81082	 11.11655	  5.31823	 16.40673	  0.99485	 -0.56074	 19.56823	705.81702	 23.10	
 13.607	 79.207	 17.86065	 10.09980	  6.30780	 16.72528	  0.79230	 -0.60943	 19.59661	705.64398	 23.10	
 13.601	 86.383	 17.86829	  9.06323	  7.32222	 16.86168	  0.69798	 -0.64310	 19.57919	705.70599	 23.10	
 13.601	 93.617	 17.88129	  8.01374	  8.38096	 16.86217	  0.71332	 -0.65731	 19.56768	705.76398	 23.10	
 13.607	100.793	 17.93507	  7.02556	  9.44940	 16.77058	  0.82699	 -0.67141	 19.60250	705.72400	 23.10	
 13.595	108.042	 17.91207	  6.02724	 10.48994	 16.46923	  1.03647	 -0.66424	 19.55303	705.58197	 23.10	
 13.604	115.211	 17.95846	  5.11633	 11.53431	 16.11534	  1.35198	 -0.66272	 19.58877	705.69397	 23.10	
 13.611	122.431	 17.95272	  4.26879	 12.50127	 15.57028	  1.78998	 -0.63973	 19.55110	705.88800	 23.10	
 13.596	129.640	 17.98750	  3.51931	 13.41985	 14.92597	  2.35487	 -0.60570	 19.56156	705.75098	 23.10	
 13.601	136.825	 18.00785	  2.84524	 14.25955	 14.18859	  2.98473	 -0.57660	 19.57521	705.76202	 23.10	
 13.611	143.999	 18.02761	  2.24458	 15.00242	 13.37266	  3.67981	 -0.56454	 19.59621	705.76202	 23.10	
 13.609	151.210	 18.01802	  1.75136	 15.61825	 12.43169	  4.48042	 -0.57893	 19.58274	705.78699	 23.10	
 13.601	158.353	 18.03789	  1.38474	 16.11827	 11.44578	  5.36788	 -0.58406	 19.59167	705.77802	 23.10	
 13.611	165.583	 18.01575	  1.11336	 16.46121	 10.41018	  6.30616	 -0.59357	 19.57812	705.69598	 23.10	
 13.608	172.853	 18.02178	  0.93991	 16.68001	  9.35672	  7.30057	 -0.61006	 19.57642	705.75598	 23.10	
 15.298	173.587	 17.48236	 -0.24863	 17.28358	  8.94644	  6.86798	 -0.75606	 19.54900	705.72498	 23.10	
 15.291	167.167	 17.50009	 -0.10296	 17.10871	  9.98221	  5.88700	 -0.75303	 19.56368	705.55798	 23.10	
 15.307	160.676	 17.48977	  0.11899	 16.79684	 11.02425	  4.91918	 -0.74765	 19.56997	705.63202	 23.10	
 15.300	154.261	 17.46943	  0.44514	 16.33307	 12.01946	  4.02291	 -0.73120	 19.54171	705.63800	 23.10	
 15.288	147.854	 17.48987	  0.87174	 15.78156	 12.97818	  3.20465	 -0.72197	 19.56161	705.59302	 23.10	
 15.293	141.428	 17.47672	  1.38680	 15.11285	 13.86960	  2.45909	 -0.71424	 19.55080	705.67700	 23.10	
 15.299	134.985	 17.47494	  1.97947	 14.35795	 14.70870	  1.77132	 -0.73348	 19.57187	705.64899	 23.10	
 15.305	128.583	 17.45678	  2.65530	 13.50838	 15.44180	  1.17084	 -0.74975	 19.57407	705.60699	 23.10	
 15.309	122.142	 17.44787	  3.42446	 12.59079	 16.07108	  0.66740	 -0.75736	 19.56946	705.47498	 23.10	
 15.304	115.711	 17.43649	  4.25727	 11.60596	 16.58868	  0.25903	 -0.75762	 19.57071	705.37903	 23.10	
 15.297	109.291	 17.43344	  5.15500	 10.59491	 16.99899	 -0.06708	 -0.75155	 19.59688	705.45203	 23.10	
 15.293	102.897	 17.39846	  6.10372	  9.54155	 17.27786	 -0.29427	 -0.72662	 19.57844	705.46600	 23.10	
 15.293	 96.458	 17.35360	  7.08352	  8.47732	 17.41897	 -0.42044	 -0.73919	 19.55856	705.40198	 23.10	
 15.300	 90.000	 17.32881	  8.09635	  7.41488	 17.46551	 -0.47862	 -0.72585	 19.55724	705.50299	 23.10	
 15.293	 83.542	 17.33406	  9.14030	  6.38416	 17.40657	 -0.44205	 -0.74296	 19.57796	705.40900	 23.10	
 15.293	 77.103	 17.28392	 10.16337	  5.38439	 17.17619	 -0.29759	 -0.71156	 19.55437	705.44000	 23.10	
 15.297	 70.709	 17.27186	 11.17608	  4.43980	 16.86232	 -0.08527	 -0.67402	 19.55917	705.57300	 23.10	
 15.304	 64.289	 17.25383	 12.18532	  3.54360	 16.43899	  0.23439	 -0.64220	 19.57667	705.51898	 23.10	
 15.309	 57.858	 17.21562	 13.11909	  2.70890	 15.87879	  0.62467	 -0.63404	 19.55486	705.54700	 23.10	
 15.305	 51.417	 17.19597	 14.00208	  1.97367	 15.23289	  1.12745	 -0.63998	 19.55897	705.64600	 23.10	
 15.299	 45.015	 17.18657	 14.82873	  1.30919	 14.46219	  1.73365	 -0.64756	 19.55914	705.63000	 23.10	
 15.293	 38.572	 17.18502	 15.56651	  0.75200	 13.62506	  2.42369	 -0.66438	 19.55710	705.56500	 23.10	
 15.288	 32.146	 17.17331	 16.19246	  0.26162	 12.72701	  3.16449	 -0.68078	 19.57740	705.59900	 23.10	
 15.300	 25.739	 17.15494	 16.70539	 -0.15018	 11.76770	  3.97939	 -0.69049	 19.56725	705.42700	 23.10	
 15.307	 19.324	 17.14877	 17.12224	 -0.47630	 10.76323	  4.85818	 -0.68188	 19.57226	705.46899	 23.10	
 15.291	 12.833	 17.12219	 17.37801	 -0.68184	  9.71577	  5.80454	 -0.66602	 19.54177	705.60901	 23.10	
 15.298	  6.413	 17.14600	 17.57668	 -0.81983	  8.69651	  6.78692	 -0.66197	 19.57476	705.56500	 23.10	
 15.300	  0.000	 17.14639	 17.63499	 -0.85949	  7.64582	  7.81497	 -0.66700	 19.57289	705.61499	 23.00	
 15.298	 -6.413	 17.14912	 17.56199	 -0.79300	  6.63683	  8.85214	 -0.67610	 19.57244	705.60901	 23.10	
 15.291	-12.833	 17.12772	 17.35372	 -0.64557	  5.64729	  9.88065	 -0.68806	 19.54112	705.53699	 23.10	
 15.307	-19.324	 17.17286	 17.08443	 -0.40939	  4.69025	 10.96078	 -0.70213	 19.59140	705.51099	 23.10	
 15.300	-25.739	 17.18365	 16.65376	 -0.07343	  3.81507	 11.95696	 -0.69531	 19.58644	705.45099	 23.10	
 15.288	-32.146	 17.19635	 16.11905	  0.35136	  3.00571	 12.91203	 -0.70248	 19.58782	705.40198	 23.10	
 15.293	-38.572	 17.17796	 15.44530	  0.85487	  2.23944	 13.81332	 -0.70030	 19.55649	705.42102	 23.10	
 15.299	-45.015	 17.19584	 14.71186	  1.45138	  1.56080	 14.66489	 -0.71441	 19.58593	705.51398	 23.10	
 15.305	-51.417	 17.19703	 13.87058	  2.13747	  0.99319	 15.37758	 -0.72101	 19.55847	705.40997	 23.10	
 15.309	-57.858	 17.23016	 12.97823	  2.90460	  0.49760	 16.04306	 -0.73648	 19.58589	705.52802	 23.10	
 15.304	-64.289	 17.22097	 11.99583	  3.73810	  0.09612	 16.56036	 -0.72594	 19.55415	705.51300	 23.10	
 15.297	-70.709	 17.22996	 10.97489	  4.63673	 -0.21480	 16.97430	 -0.71949	 19.54861	705.42700	 23.10	
 15.293	-77.103	 17.27791	  9.97048	  5.59113	 -0.43916	 17.31574	 -0.70347	 19.58842	705.44897	 23.10	
 15.293	-83.542	 17.29445	  8.92858	  6.60244	 -0.55969	 17.49896	 -0.70767	 19.58646	705.53101	 23.10	
 15.300	-90.000	 17.28134	  7.85402	  7.63427	 -0.61159	 17.54625	 -0.71380	 19.55912	705.50598	 23.00	
 15.293	-96.458	 17.30908	  6.83654	  8.68109	 -0.56196	 17.50595	 -0.74651	 19.57302	705.48798	 23.00	
 15.293	-102.897	 17.34066	  5.85029	  9.74853	 -0.40976	 17.33634	 -0.77080	 19.58742	705.44299	 23.00	
 15.297	-109.291	 17.34911	  4.91600	 10.77658	 -0.18412	 17.03528	 -0.76541	 19.58256	705.46899	 23.00	
 15.304	-115.711	 17.36635	  4.02846	 11.79511	  0.14404	 16.62031	 -0.73791	 19.58354	705.30200	 23.00	
 15.309	-122.142	 17.38931	  3.19951	 12.77693	  0.56691	 16.08167	 -0.72322	 19.59140	705.35602	 23.00	
 15.305	-128.583	 17.37783	  2.46204	 13.64635	  1.07571	 15.42148	 -0.71089	 19.56100	705.30200	 23.00	
 15.299	-134.985	 17.40369	  1.80182	 14.48409	  1.66801	 14.70375	 -0.71009	 19.56358	705.45502	 23.00	
 15.293	-141.428	 17.41389	  1.21300	 15.23252	  2.36586	 13.86381	 -0.73508	 19.56331	705.31403	 23.10	
 15.288	-147.854	 17.43614	  0.72925	 15.87397	  3.14648	 12.96040	 -0.77651	 19.56233	705.34003	 23.00	
 15.300	-154.261	 17.44316	  0.33822	 16.41160	  3.98184	 12.01224	 -0.79684	 19.56146	705.37000	 23.00	
 15.307	-160.676	 17.43875	  0.03929	 16.81730	  4.88038	 11.01090	 -0.79536	 19.54368	705.32599	 23.00	
 15.291	-167.167	 17.50228	 -0.14974	 17.16529	  5.88570	  9.98714	 -0.78564	 19.59544	705.39001	 23.00	
 15.298	-173.587	 17.47032	 -0.26844	 17.29760	  6.85730	  8.92545	 -0.77505	 19.55002	705.33301	 23.00	
 15.300	180.000	 17.48022	 -0.31145	 17.36458	  7.88439	  7.89279	 -0.76081	 19.55795	705.41803	 23.00	
 17.000	180.000	 16.89449	 -1.50035	 17.91471	  7.42030	  7.41411	 -0.86008	 19.56466	705.38501	 23.00	
 16.990	-174.179	 16.89799	 -1.46737	 17.88213	  6.41108	  8.45032	 -0.86329	 19.57931	705.33398	 23.00	
 17.009	-168.383	 16.87851	 -1.37169	 17.72228	  5.42098	  9.48024	 -0.85170	 19.57498	705.39001	 23.00	
 17.000	-162.596	 16.83505	 -1.18412	 17.41527	  4.45033	 10.49803	 -0.87012	 19.52840	705.34998	 23.00	
 16.990	-156.759	 16.85222	 -0.93164	 17.06883	  3.55294	 11.52330	 -0.87867	 19.56550	705.44397	 23.00	
 16.995	-150.919	 16.85147	 -0.57838	 16.58974	  2.69640	 12.50905	 -0.88245	 19.57089	705.42603	 23.00	
 16.988	-145.161	 16.82331	 -0.16075	 15.98425	  1.89472	 13.43147	 -0.85790	 19.55708	705.27802	 23.00	
 17.014	-139.343	 16.81631	  0.33701	 15.31511	  1.16327	 14.32518	 -0.84198	 19.56832	705.43298	 23.00	
 17.007	-133.546	 16.80584	  0.93642	 14.54618	  0.53686	 15.10966	 -0.82357	 19.56638	705.30902	 23.00	
 17.001	-127.699	 16.77520	  1.59561	 13.67946	 -0.03181	 15.82207	 -0.82525	 19.54481	705.35400	 23.00	
 17.006	-121.937	 16.78068	  2.31775	 12.78980	 -0.52787	 16.46671	 -0.82497	 19.57614	705.34998	 23.00	
 17.002	-116.134	 16.72346	  3.10869	 11.79861	 -0.92887	 16.96722	 -0.83246	 19.53696	705.28003	 23.00	
 17.001	-110.310	 16.72191	  3.96698	 10.80340	 -1.25527	 17.41407	 -0.82304	 19.55839	705.33099	 23.00	
 16.988	-104.517	 16.74148	  4.89396	  9.78709	 -1.48271	 17.75202	 -0.78539	 19.57482	705.40399	 23.00	
 17.008	-98.662	 16.71212	  5.85540	  8.73001	 -1.64924	 17.96478	 -0.75365	 19.57462	705.35699	 23.00	
 16.996	-92.909	 16.69622	  6.84607	  7.70165	 -1.73306	 18.06940	 -0.69886	 19.56765	705.33698	 23.00	
 16.996	-87.091	 16.67131	  7.86980	  6.65718	 -1.72750	 18.04802	 -0.65192	 19.55552	705.39801	 23.00	
 17.012	-81.253	 16.64507	  8.90856	  5.64238	 -1.67067	 17.94148	 -0.65291	 19.55283	705.37299	 23.00	
 16.988	-75.483	 16.65162	  9.95128	  4.69344	 -1.51999	 17.73604	 -0.66331	 19.57732	705.44299	 23.00	
 17.001	-69.690	 16.60276	 10.96089	  3.74307	 -1.30458	 17.40312	 -0.62989	 19.55258	705.45697	 23.00	
 17.002	-63.866	 16.59495	 11.97125	  2.87176	 -0.99267	 16.96232	 -0.68303	 19.55373	705.33899	 23.00	
 17.006	-58.063	 16.60146	 12.94685	  2.05902	 -0.59399	 16.43699	 -0.69688	 19.56753	705.37299	 23.00	
 17.001	-52.301	 16.57668	 13.84571	  1.32134	 -0.12358	 15.78711	 -0.71236	 19.55200	705.37097	 23.00	
 17.007	-46.454	 16.57646	 14.71548	  0.63394	  0.41910	 15.06295	 -0.72123	 19.56566	705.46100	 23.00	
 17.014	-40.657	 16.55514	 15.47727	  0.03056	  1.02803	 14.26684	 -0.71973	 19.56219	705.36499	 23.00	
 16.988	-34.839	 16.55911	 16.15493	 -0.47899	  1.73891	 13.39017	 -0.73469	 19.55436	705.32501	 23.00	
 16.995	-29.081	 16.56500	 16.75949	 -0.91780	  2.51349	 12.46145	 -0.72209	 19.56200	705.41998	 23.00	
 16.990	-23.241	 16.54897	 17.25618	 -1.29049	  3.35812	 11.47017	 -0.70360	 19.56348	705.41602	 23.00	
 17.000	-17.404	 16.52685	 17.62896	 -1.58483	  4.23080	 10.44905	 -0.69893	 19.54797	705.35901	 23.00	
 17.009	-11.617	 16.54606	 17.93209	 -1.80054	  5.17868	  9.43474	 -0.67961	 19.57349	705.26398	 23.00	
 16.990	 -5.821	 16.52272	 18.07498	 -1.91311	  6.15767	  8.38335	 -0.66162	 19.55528	705.21600	 23.00	
 17.000	  0.000	 16.50005	 18.11768	 -1.96757	  7.16138	  7.33559	 -0.64258	 19.53275	705.40399	 23.00	
 16.990	  5.821	 16.50303	 18.07028	 -1.93694	  8.19343	  6.31423	 -0.64455	 19.54282	705.34198	 23.00	
 17.009	 11.617	 16.50323	 17.93131	 -1.84043	  9.20704	  5.35008	 -0.65565	 19.54220	705.34698	 23.00	
 17.000	 17.404	 16.53383	 17.70384	 -1.65723	 10.23588	  4.43450	 -0.64923	 19.56583	705.26898	 23.00	
 16.990	 23.241	 16.53059	 17.32761	 -1.36545	 11.25760	  3.53204	 -0.65803	 19.55657	705.30200	 23.00	
 16.995	 29.081	 16.56633	 16.86243	 -1.02612	 12.26606	  2.68116	 -0.69293	 19.58398	705.28497	 23.00	
 16.988	 34.839	 16.54908	 16.26925	 -0.59721	 13.16649	  1.92758	 -0.71410	 19.54903	705.29401	 23.00	
 17.014	 40.657	 16.55558	 15.60512	 -0.10451	 14.06773	  1.20888	 -0.72890	 19.56184	705.29498	 23.00	
 17.007	 46.454	 16.56317	 14.84704	  0.46999	 14.88249	  0.57008	 -0.73061	 19.55586	705.35602	 23.00	
 17.001	 52.301	 16.59274	 14.01264	  1.12878	 15.62083	  0.02441	 -0.73371	 19.55124	705.25500	 23.00	
 17.006	 58.063	 16.60450	 13.12362	  1.84536	 16.27238	 -0.46373	 -0.73259	 19.55595	705.34198	 23.00	
 17.002	 63.866	 16.63566	 12.19049	  2.64259	 16.83820	 -0.85782	 -0.73483	 19.57093	705.33099	 23.00	
 17.001	 69.690	 16.65080	 11.19339	  3.50112	 17.29452	 -1.17859	 -0.77523	 19.56674	705.23999	 23.00	
 16.988	 75.483	 16.67791	 10.18334	  4.43398	 17.63948	 -1.39250	 -0.78235	 19.56277	705.32501	 23.00	
 17.012	 81.253	 16.66821	  9.15466	  5.36940	 17.85667	 -1.56792	 -0.78365	 19.54400	705.19098	 23.00	
 16.996	 87.091	 16.70992	  8.13527	  6.38852	 17.98753	 -1.63365	 -0.75414	 19.54846	705.13098	 23.00	
 16.996	 92.909	 16.73258	  7.12128	  7.44525	 18.00248	 -1.62223	 -0.72531	 19.54937	705.29498	 22.90	
 17.008	 98.662	 16.74379	  6.12910	  8.47289	 17.90107	 -1.55267	 -0.71240	 19.53619	705.28302	 22.90	
 16.988	104.517	 16.79472	  5.17895	  9.54807	 17.70642	 -1.36250	 -0.72458	 19.55507	705.33698	 23.00	
 17.001	110.310	 16.78518	  4.25464	 10.57332	 17.38695	 -1.14511	 -0.74783	 19.52351	705.18799	 22.90	
 17.002	116.134	 16.81057	  3.37948	 11.59239	 16.97134	 -0.82275	 -0.77189	 19.53236	705.32599	 23.00	
 17.006	121.937	 16.84178	  2.57260	 12.57964	 16.45873	 -0.41790	 -0.81474	 19.54311	705.35101	 22.90	
 17.001	127.699	 16.85966	  1.83521	 13.50317	 15.84345	  0.05773	 -0.83289	 19.53805	705.19000	 22.90	
 17.007	133.546	 16.86758	  1.16142	 14.36382	 15.12563	  0.61895	 -0.83082	 19.53918	705.29498	 22.90	
 17.014	139.343	 16.87512	  0.54549	 15.15093	 14.33278	  1.23907	 -0.83171	 19.53101	705.23798	 22.90	
 16.988	145.161	 16.90486	  0.03351	 15.87142	 13.46065	  1.96588	 -0.82871	 19.55112	705.14203	 22.90	
 16.995	150.919	 16.92389	 -0.40641	 16.48176	 12.55016	  2.72680	 -0.85699	 19.56405	705.22601	 22.90	
 16.990	156.759	 16.90952	 -0.78436	 16.97139	 11.55936	  3.57184	 -0.86745	 19.54211	705.09100	 22.90	
 17.000	162.596	 16.91638	 -1.08359	 17.39207	 10.53475	  4.47528	 -0.86043	 19.55221	705.14301	 22.90	
 17.009	168.383	 16.88839	 -1.31519	 17.67668	  9.49175	  5.39559	 -0.87247	 19.54297	705.17798	 22.90	
 16.990	174.179	 16.88727	 -1.43994	 17.82847	  8.45721	  6.38025	 -0.85835	 19.54169	705.22400	 22.90	
 18.709	174.675	 16.24541	 -2.53985	 18.32933	  7.95355	  5.87860	 -0.90348	 19.55246	705.23602	 22.90	
 18.703	169.441	 16.27447	 -2.41224	 18.18768	  8.97935	  4.94254	 -0.93814	 19.56999	705.21503	 22.90	
 18.691	164.085	 16.26060	 -2.21990	 17.91284	 10.01888	  3.99395	 -0.93773	 19.55608	705.26801	 22.90	
 18.706	158.818	 16.25920	 -1.96380	 17.54886	 11.02796	  3.12528	 -0.96678	 19.56470	705.22900	 22.90	
 18.695	153.537	 16.30595	 -1.64282	 17.13175	 12.04001	  2.30935	 -0.97887	 19.61288	705.23297	 22.90	
 18.704	148.255	 16.28590	 -1.25672	 16.56359	 12.98153	  1.50987	 -0.97208	 19.59555	705.26398	 22.90	
 18.698	142.952	 16.28220	 -0.80141	 15.92263	 13.90814	  0.75930	 -0.94393	 19.61196	705.12000	 22.90	
 18.699	137.625	 16.26001	 -0.26521	 15.18799	 14.74263	  0.10933	 -0.92633	 19.58983	705.13098	 22.90	
 18.705	132.343	 16.25268	  0.32935	 14.39542	 15.50819	 -0.46339	 -0.89223	 19.58745	705.16803	 22.90	
 18.713	127.067	 16.23557	  0.98303	 13.53474	 16.21911	 -1.00434	 -0.86734	 19.59753	705.14203	 22.90	
 18.700	121.794	 16.21036	  1.72091	 12.57980	 16.83019	 -1.44220	 -0.82298	 19.58430	705.15100	 22.90	
 18.698	116.504	 16.17349	  2.50138	 11.56750	 17.33523	 -1.82196	 -0.76575	 19.55889	705.26300	 22.90	
 18.707	111.165	 16.14792	  3.33722	 10.54598	 17.75837	 -2.12681	 -0.73320	 19.55286	705.14301	 22.90	
 18.690	105.863	 16.14970	  4.23833	  9.52854	 18.08750	 -2.34773	 -0.68040	 19.57098	705.08301	 22.90	
 18.696	100.583	 16.12539	  5.16261	  8.49155	 18.30350	 -2.50434	 -0.68909	 19.56267	705.16699	 22.90	
 18.700	 95.309	 16.15182	  6.15311	  7.47881	 18.48255	 -2.62319	 -0.69101	 19.62918	705.09497	 22.90	
 18.700	 90.000	 16.08505	  7.12886	  6.43355	 18.44867	 -2.62601	 -0.72104	 19.57133	705.16699	 22.90	
 18.700	 84.691	 16.07544	  8.14747	  5.41235	 18.40562	 -2.59850	 -0.76453	 19.58137	705.13898	 22.90	
 18.696	 79.417	 16.03751	  9.14055	  4.43559	 18.24084	 -2.50732	 -0.80928	 19.57515	705.19897	 22.90	
 18.690	 74.137	 16.01133	 10.13813	  3.51351	 17.97225	 -2.34892	 -0.84988	 19.56627	705.18103	 22.90	
 18.707	 68.835	 15.96699	 11.14739	  2.60280	 17.60620	 -2.14289	 -0.83270	 19.55895	705.12299	 22.90	
 18.698	 63.496	 15.96931	 12.13826	  1.77579	 17.16197	 -1.83439	 -0.82854	 19.58438	705.14697	 22.90	
 18.700	 58.206	 15.96462	 13.09261	  1.01166	 16.61906	 -1.45507	 -0.81931	 19.58777	705.10602	 22.90	
 18.713	 52.933	 15.90952	 13.96639	  0.29955	 15.93827	 -1.01290	 -0.81482	 19.55115	705.09100	 22.90	
 18.705	 47.657	 15.94746	 14.83597	 -0.32273	 15.24714	 -0.47624	 -0.80736	 19.60259	705.09100	 22.90	
 18.699	 42.375	 15.91315	 15.59583	 -0.89398	 14.44001	  0.10021	 -0.77184	 19.58769	705.14203	 22.90	
 18.698	 37.048	 15.90161	 16.28423	 -1.38995	 13.57557	  0.77299	 -0.74256	 19.58082	705.15997	 22.90	
 18.704	 31.745	 15.89774	 16.92464	 -1.83293	 12.65776	  1.49639	 -0.68026	 19.60064	705.01202	 22.90	
 18.695	 26.463	 15.88140	 17.43759	 -2.20056	 11.70583	  2.27540	 -0.65350	 19.59229	705.20398	 22.90	
 18.706	 21.182	 15.85664	 17.84658	 -2.50220	 10.72076	  3.09318	 -0.62546	 19.57467	705.24402	 22.90	
 18.691	 15.915	 15.85905	 18.18234	 -2.73419	  9.70985	  3.97765	 -0.60989	 19.58338	705.12299	 22.90	
 18.703	 10.559	 15.85680	 18.41043	 -2.90610	  8.67932	  4.90208	 -0.61675	 19.58490	705.26898	 22.90	
 18.709	  5.325	 15.81664	 18.51354	 -2.99410	  7.65899	  5.84113	 -0.64136	 19.54560	705.09497	 22.90	
 18.700	  0.000	 15.85672	 18.59158	 -3.01894	  6.65937	  6.86917	 -0.64602	 19.59376	705.01801	 22.90	
 18.709	 -5.325	 15.83851	 18.51966	 -2.97714	  5.64978	  7.88679	 -0.66762	 19.57041	705.09399	 22.90	
 18.703	-10.559	 15.85010	 18.38233	 -2.87189	  4.70323	  8.90052	 -0.65663	 19.57216	705.00098	 22.90	
 18.691	-15.915	 15.87471	 18.13960	 -2.67490	  3.76580	  9.95472	 -0.66539	 19.58382	705.15100	 22.90	
 18.706	-21.182	 15.88162	 17.79387	 -2.42888	  2.88825	 10.96562	 -0.68649	 19.58472	705.16498	 22.90	
 18.695	-26.463	 15.88583	 17.33917	 -2.11356	  2.05426	 11.94448	 -0.70921	 19.58020	705.19000	 22.90	
 18.704	-31.745	 15.87874	 16.79050	 -1.73765	  1.26880	 12.89175	 -0.70963	 19.57310	705.09399	 22.90	
 18.698	-37.048	 15.89610	 16.15162	 -1.27396	  0.55968	 13.80487	 -0.71772	 19.57023	705.11102	 22.90	
 18.699	-42.375	 15.90568	 15.44415	 -0.74760	 -0.08520	 14.65139	 -0.70955	 19.57595	704.98999	 22.90	
 18.705	-47.657	 15.90754	 14.64573	 -0.15829	 -0.67050	 15.43125	 -0.73574	 19.57101	705.08002	 22.90	
 18.713	-52.933	 15.90794	 13.79109	  0.49807	 -1.18410	 16.14380	 -0.68919	 19.57693	705.01898	 22.90	
 18.700	-58.206	 15.93190	 12.87809	  1.22661	 -1.61363	 16.76402	 -0.68619	 19.56820	705.03601	 22.90	
 18.698	-63.496	 15.96453	 11.93615	  2.01732	 -1.96951	 17.31156	 -0.65766	 19.57902	705.11902	 22.90	
 18.707	-68.835	 16.00115	 10.95890	  2.86883	 -2.27584	 17.77376	 -0.66095	 19.61473	705.04999	 22.90	
 18.690	-74.137	 16.00200	  9.91673	  3.78339	 -2.49405	 18.10088	 -0.60197	 19.59347	705.12201	 22.90	
 18.696	-79.417	 16.00159	  8.88874	  4.71251	 -2.65639	 18.32018	 -0.62945	 19.57301	705.12000	 22.90	
 18.700	-84.691	 16.00684	  7.86448	  5.66758	 -2.77118	 18.46025	 -0.62726	 19.56469	705.00500	 22.90	
 18.700	-90.000	 16.01848	  6.83248	  6.67687	 -2.80116	 18.53232	 -0.65151	 19.58321	705.11200	 22.90	
 18.700	-95.309	 16.04431	  5.82666	  7.70776	 -2.76919	 18.49356	 -0.71320	 19.58471	705.11401	 22.90	
 18.696	-100.583	 16.03780	  4.86399	  8.71862	 -2.65182	 18.32396	 -0.75610	 19.55000	705.17401	 22.90	
 18.690	-105.863	 16.07046	  3.95192	  9.74847	 -2.48467	 18.10577	 -0.79194	 19.57816	705.15100	 22.90	
 18.707	-111.165	 16.07383	  3.06578	 10.77086	 -2.25893	 17.76112	 -0.84973	 19.56784	705.20502	 22.90	
 18.698	-116.504	 16.08440	  2.23883	 11.76703	 -1.92816	 17.31803	 -0.87896	 19.56064	705.20502	 22.90	
 18.700	-121.794	 16.10193	  1.46016	 12.72191	 -1.55773	 16.80521	 -0.91601	 19.57478	705.21198	 22.90	
 18.713	-127.067	 16.11680	  0.74548	 13.64005	 -1.10614	 16.18979	 -0.91838	 19.57036	705.09802	 22.90	
 18.705	-132.343	 16.13648	  0.10918	 14.49241	 -0.56330	 15.47880	 -0.93692	 19.56744	705.08801	 22.90	
 18.699	-137.625	 16.15991	 -0.46627	 15.29081	  0.03596	 14.70733	 -0.92400	 19.56831	705.13702	 22.90	
 18.698	-142.952	 16.18119	 -0.98840	 16.01461	  0.70022	 13.86442	 -0.92334	 19.58220	705.19598	 22.90	
 18.704	-148.255	 16.19148	 -1.42901	 16.64409	  1.43547	 12.96062	 -0.91151	 19.57281	705.13599	 22.90	
 18.695	-153.537	 16.20118	 -1.78472	 17.17611	  2.24854	 11.99626	 -0.91562	 19.56668	704.98798	 22.90	
 18.706	-158.818	 16.19675	 -2.10099	 17.61236	  3.09340	 10.99869	 -0.88567	 19.55813	705.14203	 22.90	
 18.691	-164.085	 16.23892	 -2.31919	 17.97378	  3.99769	 10.01657	 -0.87919	 19.58653	705.07202	 22.90	
 18.703	-169.441	 16.24446	 -2.48811	 18.22534	  4.95522	  8.96391	 -0.88123	 19.59775	705.04901	 22.90	
 18.709	-174.675	 16.25501	 -2.57399	 18.35588	  5.91534	  7.94985	 -0.91306	 19.58484	705.08301	 22.90	
 18.700	180.000	 16.26148	 -2.58232	 18.40183	  6.92902	  6.93961	 -0.91481	 19.59258	705.07001	 22.90	
 20.400	180.000	 15.56296	 -3.59513	 18.79006	  6.40009	  6.40680	 -0.88806	 19.58723	705.14697	 22.90	
 20.401	-175.153	 15.53986	 -3.57599	 18.74235	  5.41934	  7.37791	 -0.85582	 19.57129	705.08002	 22.90	
 20.407	-170.264	 15.51424	 -3.52065	 18.61911	  4.44631	  8.38893	 -0.84112	 19.56240	705.11902	 22.90	
 20.410	-165.423	 15.51804	 -3.39082	 18.40899	  3.51741	  9.41789	 -0.83354	 19.58274	705.12299	 22.90	
 20.392	-160.496	 15.51997	 -3.18516	 18.10622	  2.63978	 10.44390	 -0.81828	 19.58540	704.98199	 22.90	
 20.401	-155.705	 15.50111	 -2.92937	 17.70245	  1.80136	 11.41960	 -0.82359	 19.58781	705.08002	 22.90	
 20.405	-150.835	 15.49060	 -2.62555	 17.22015	  0.97666	 12.39524	 -0.86338	 19.59874	705.05701	 22.90	
 20.397	-145.903	 15.47134	 -2.23122	 16.61138	  0.23424	 13.31323	 -0.89260	 19.57474	705.05200	 22.90	
 20.392	-141.062	 15.47143	 -1.79295	 15.95877	 -0.43762	 14.19110	 -0.94182	 19.57901	704.98700	 22.90	
 20.396	-136.227	 15.44972	 -1.28462	 15.22049	 -1.06296	 15.01893	 -0.95681	 19.58841	705.04700	 22.90	
 20.408	-131.372	 15.41473	 -0.71645	 14.40379	 -1.62858	 15.76772	 -0.96032	 19.57364	705.09497	 22.90	
 20.410	-126.511	 15.42124	 -0.09023	 13.57358	 -2.11678	 16.46443	 -0.94922	 19.60084	705.12799	 22.90	
 20.400	-121.604	 15.40875	  0.60416	 12.65323	 -2.53754	 17.06579	 -0.91061	 19.59259	705.11200	 22.90	
 20.403	-116.741	 15.39072	  1.35105	 11.69256	 -2.90291	 17.58699	 -0.87078	 19.58002	705.03198	 22.90	
 20.413	-111.900	 15.36540	  2.14720	 10.70715	 -3.22873	 18.03367	 -0.83069	 19.57989	705.10498	 22.90	
 20.398	-107.004	 15.35124	  2.99048	  9.69329	 -3.48481	 18.39365	 -0.77192	 19.59031	705.18500	 22.90	
 20.394	-102.132	 15.33914	  3.89478	  8.66018	 -3.65340	 18.64765	 -0.70508	 19.58974	705.15997	 22.90	
 20.403	-97.332	 15.31782	  4.81149	  7.65798	 -3.77796	 18.82162	 -0.63757	 19.58755	706.58801	 22.80	
 20.392	-92.440	 15.31108	  5.77620	  6.64944	 -3.83982	 18.91040	 -0.62110	 19.59473	705.03900	 22.80	
 20.392	-87.560	 15.27419	  6.76313	  5.64227	 -3.84468	 18.88548	 -0.61332	 19.57704	705.06299	 22.80	
 20.403	-82.668	 15.26692	  7.78305	  4.66552	 -3.79280	 18.80725	 -0.60577	 19.58544	704.94000	 22.80	
 20.394	-77.868	 15.26849	  8.78293	  3.75287	 -3.67843	 18.65052	 -0.59350	 19.58969	705.02600	 22.80	
 20.398	-72.996	 15.26313	  9.80893	  2.85116	 -3.49714	 18.38901	 -0.57803	 19.59758	704.97699	 22.80	
 20.413	-68.100	 15.22342	 10.81011	  1.97215	 -3.25947	 18.00960	 -0.57688	 19.55713	705.11401	 22.80	
 20.403	-63.259	 15.22362	 11.80931	  1.16893	 -2.95888	 17.56713	 -0.58791	 19.58273	705.15302	 22.80	
 20.400	-58.396	 15.21224	 12.75841	  0.40125	 -2.61758	 17.04475	 -0.61780	 19.58672	705.06299	 22.80	
 20.410	-53.489	 15.20048	 13.67368	 -0.30682	 -2.20960	 16.43129	 -0.64833	 19.58695	704.97699	 22.80	
 20.408	-48.628	 15.19404	 14.54053	 -0.96027	 -1.74889	 15.74739	 -0.67887	 19.59616	704.96503	 22.80	
 20.396	-43.773	 15.17742	 15.32900	 -1.52174	 -1.19413	 14.97898	 -0.66735	 19.57474	704.84998	 22.80	
 20.392	-38.938	 15.19982	 16.09439	 -2.04408	 -0.58677	 14.17273	 -0.68233	 19.60014	705.08600	 22.80	
 20.397	-34.097	 15.19015	 16.75631	 -2.51176	  0.05869	 13.29791	 -0.67937	 19.59797	705.02600	 22.80	
 20.405	-29.165	 15.16025	 17.32330	 -2.90130	  0.78605	 12.34406	 -0.69305	 19.57758	705.06702	 22.80	
 20.401	-24.295	 15.18543	 17.85720	 -3.23844	  1.57441	 11.40013	 -0.67060	 19.61510	704.88000	 22.80	
 20.392	-19.504	 15.16272	 18.23473	 -3.50621	  2.39283	 10.40033	 -0.66610	 19.58894	704.96802	 22.80	
 20.410	-14.577	 15.15032	 18.57516	 -3.73628	  3.25453	  9.39605	 -0.61793	 19.59962	705.03601	 22.80	
 20.407	 -9.736	 15.13180	 18.78552	 -3.90649	  4.18678	  8.36122	 -0.61910	 19.58766	705.03198	 22.80	
 20.401	 -4.847	 15.12871	 18.91392	 -3.99458	  5.13385	  7.35388	 -0.60304	 19.58801	704.94202	 22.80	
 20.400	  0.000	 15.13315	 18.97307	 -4.01894	  6.09889	  6.36509	 -0.57719	 19.60203	705.03302	 22.80	
 20.401	  4.847	 15.13622	 18.94192	 -4.00738	  7.11469	  5.36158	 -0.59393	 19.61323	705.07800	 22.80	
 20.407	  9.736	 15.11933	 18.80982	 -3.93479	  8.10112	  4.41589	 -0.57356	 19.58955	704.95300	 22.80	
 20.410	 14.577	 15.12345	 18.61750	 -3.81206	  9.10331	  3.50169	 -0.57724	 19.60207	704.96002	 22.80	
 20.392	 19.504	 15.15743	 18.32552	 -3.57840	 10.13657	  2.63876	 -0.58111	 19.61674	704.89398	 22.80	
 20.401	 24.295	 15.14761	 17.92346	 -3.32331	 11.08630	  1.82296	 -0.56994	 19.59037	704.89502	 22.80	
 20.405	 29.165	 15.15881	 17.43927	 -3.00142	 12.06429	  1.04199	 -0.60223	 19.58637	705.02600	 22.80	
 20.397	 34.097	 15.17908	 16.88279	 -2.61648	 13.02723	  0.29989	 -0.65137	 19.60448	705.01898	 22.80	
 20.392	 38.938	 15.18326	 16.23189	 -2.17928	 13.90269	 -0.37311	 -0.70599	 19.59238	705.03497	 22.80	
 20.396	 43.773	 15.21305	 15.53803	 -1.69666	 14.74652	 -0.98115	 -0.75623	 19.59584	704.99597	 22.80	
 20.408	 48.628	 15.20505	 14.75453	 -1.14085	 15.52184	 -1.54587	 -0.79015	 19.59193	704.96997	 22.80	
 20.410	 53.489	 15.20767	 13.89861	 -0.52490	 16.22154	 -2.03352	 -0.82350	 19.58002	704.82098	 22.80	
 20.400	 58.396	 15.22821	 12.98851	  0.17347	 16.87284	 -2.45304	 -0.83685	 19.58826	704.80499	 22.80	
 20.403	 63.259	 15.25898	 12.05437	  0.91742	 17.43641	 -2.81205	 -0.84132	 19.59950	704.94000	 22.80	
 20.413	 68.100	 15.26567	 11.08391	  1.70031	 17.88746	 -3.09012	 -0.83785	 19.58021	704.85199	 22.80	
 20.398	 72.996	 15.27428	 10.08207	  2.56099	 18.23675	 -3.30388	 -0.82290	 19.55540	704.90601	 22.80	
 20.394	 77.868	 15.32806	  9.10321	  3.46155	 18.55418	 -3.46968	 -0.77598	 19.59230	704.84698	 22.80	
 20.403	 82.668	 15.33431	  8.09888	  4.38444	 18.73960	 -3.59605	 -0.73250	 19.58416	704.94000	 22.80	
 20.392	 87.560	 15.35039	  7.07729	  5.37013	 18.82714	 -3.65397	 -0.69758	 19.55921	704.89398	 22.80	
 20.392	 92.440	 15.40112	  6.10344	  6.40841	 18.86300	 -3.64728	 -0.65413	 19.58516	705.09698	 22.80	
 20.403	 97.332	 15.40764	  5.13622	  7.41553	 18.78394	 -3.58601	 -0.60235	 19.57136	704.98999	 22.80	
 20.394	102.132	 15.47061	  4.21569	  8.44949	 18.67015	 -3.47668	 -0.62483	 19.60995	704.81598	 22.80	
 20.398	107.004	 15.47718	  3.31352	  9.48809	 18.40550	 -3.30062	 -0.63352	 19.59493	704.69702	 22.80	
 20.413	111.900	 15.47550	  2.44743	 10.50179	 18.06034	 -3.09142	 -0.64321	 19.57885	704.79901	 22.80	
 20.403	116.741	 15.49804	  1.64672	 11.50732	 17.63502	 -2.80900	 -0.72076	 19.58731	704.72498	 22.80	
 20.400	121.604	 15.49789	  0.90263	 12.45835	 17.09488	 -2.43669	 -0.79048	 19.56380	704.79602	 22.80	
 20.410	126.511	 15.54181	  0.19197	 13.42035	 16.51400	 -2.02495	 -0.83596	 19.59064	704.78497	 22.80	
 20.408	131.372	 15.55560	 -0.45049	 14.30580	 15.81868	 -1.53589	 -0.90013	 19.58787	704.91699	 22.80	
 20.396	136.227	 15.58583	 -1.03253	 15.13667	 15.06836	 -0.98364	 -0.95407	 19.60097	704.76501	 22.80	
 20.392	141.062	 15.60616	 -1.56910	 15.88920	 14.27851	 -0.38435	 -0.96891	 19.62138	704.72101	 22.80	
 20.397	145.903	 15.59329	 -2.02397	 16.53648	 13.38672	  0.27980	 -0.98925	 19.59385	704.86401	 22.80	
 20.405	150.835	 15.58179	 -2.44399	 17.12849	 12.42126	  1.03008	 -0.99807	 19.58021	704.98199	 22.80	
 20.401	155.705	 15.58135	 -2.77986	 17.62561	 11.45670	  1.82155	 -0.98947	 19.58288	704.96802	 22.80	
 20.392	160.496	 15.62196	 -3.06027	 18.07635	 10.51439	  2.64403	 -0.97500	 19.62840	704.85199	 22.80	
 20.410	165.423	 15.57897	 -3.28907	 18.36989	  9.45100	  3.53408	 -0.96856	 19.58028	704.82098	 22.80	
 20.407	170.264	 15.58539	 -3.45389	 18.61284	  8.44290	  4.44521	 -0.95751	 19.60083	704.87701	 22.80	
 20.401	175.153	 15.56658	 -3.55251	 18.73079	  7.41805	  5.40527	 -0.91488	 19.57876	704.93701	 22.80	
  0.141	 45.000	 19.60716	 10.14228	  9.60404	  9.90802	  9.94184	  0.26720	 19.57180	704.94800	 22.80	
  4.001	128.691	 19.56869	  8.51088	 11.05308	 11.65604	  8.05302	  0.19055	 19.57777	704.98499	 22.80	
  4.002	 76.995	 19.55561	 10.53740	  8.94339	 12.11833	  7.59230	  0.16864	 19.58669	704.98102	 22.80	
  4.002	 25.892	 19.52348	 12.18291	  7.37576	 10.77791	  8.76188	  0.15445	 19.57685	704.94501	 22.80	
  4.002	-25.892	 19.54618	 12.17747	  7.40453	  8.67273	 10.90110	  0.12188	 19.60259	706.47400	 22.80	
  4.002	-76.995	 19.57273	 10.47481	  8.99627	  7.45229	 12.28167	  0.11871	 19.60434	705.97601	 22.80	
  4.001	-128.691	 19.58010	  8.45788	 11.08592	  7.91859	 11.78705	  0.15028	 19.58587	706.44598	 22.80	
  4.000	180.000	 19.57450	  7.63763	 12.01640	  9.73026	  9.89111	  0.17204	 19.57666	706.41101	 22.80	
  8.000	180.000	 19.24335	  4.84830	 14.24208	  9.32673	  9.43347	 -0.11089	 19.60866	706.54401	 22.80	
  7.991	-152.370	 19.20424	  5.31729	 13.63848	  7.06410	 11.75265	 -0.11779	 19.58513	706.45099	 22.80	
  7.997	-124.550	 19.19085	  6.73027	 12.00158	  5.38348	 13.62885	 -0.14738	 19.59713	706.28198	 22.90	
  8.006	-96.837	 19.16381	  8.84580	  9.71132	  4.61840	 14.50831	 -0.22329	 19.60463	706.44800	 22.80	
  7.988	-69.228	 19.11161	 11.21170	  7.36409	  4.84940	 14.17078	 -0.23002	 19.58634	704.83600	 22.80	
  7.997	-41.563	 19.07067	 13.25551	  5.49015	  6.03832	 12.74222	 -0.18818	 19.58042	706.29102	 22.90	
  8.008	-13.821	 19.05313	 14.43359	  4.46618	  8.04200	 10.54022	 -0.15864	 19.57898	706.39203	 22.90	
  8.008	 13.821	 19.03918	 14.45285	  4.42806	 10.40166	  8.16224	 -0.13508	 19.56460	705.41302	 22.80	
  7.997	 41.563	 19.09952	 13.34217	  5.42361	 12.60078	  6.18902	 -0.10805	 19.60316	706.24597	 22.80	
  7.988	 69.228	 19.10939	 11.33028	  7.25384	 14.02077	  4.99377	 -0.09207	 19.58128	704.84399	 22.80	
  8.006	 96.837	 19.16695	  8.99047	  9.58031	 14.38537	  4.75762	 -0.12777	 19.59772	704.83197	 22.90	
  7.997	124.550	 19.22580	  6.86222	 11.89938	 13.52838	  5.52848	 -0.11601	 19.61640	704.85602	 22.80	
  7.991	152.370	 19.23580	  5.38964	 13.60736	 11.65516	  7.20412	 -0.08081	 19.59709	705.20898	 22.90	
 12.009	161.059	 18.43363	  2.36325	 15.65439	 11.07836	  6.35167	 -0.45907	 19.57045	704.79102	 22.90	
 12.013	142.081	 18.42469	  3.36317	 14.38196	 13.33404	  4.34497	 -0.44362	 19.58462	705.04901	 22.90	
 12.006	123.113	 18.43257	  5.01007	 12.45675	 15.05961	  2.89915	 -0.51073	 19.61616	704.84998	 22.90	
 12.007	104.200	 18.36164	  7.12977	 10.08508	 16.03199	  2.04704	 -0.53144	 19.58805	704.96802	 22.90	
 11.989	 85.301	 18.33216	  9.50929	  7.62966	 16.21347	  1.88332	 -0.50707	 19.60245	704.92603	 22.80	
 12.013	 66.294	 18.25145	 11.87396	  5.32982	 15.52407	  2.36588	 -0.42290	 19.57608	704.98499	 22.80	
 12.012	 47.388	 18.20849	 13.97488	  3.47035	 14.07624	  3.52360	 -0.42030	 19.56836	704.90302	 22.90	
 11.990	 28.440	 18.16756	 15.50718	  2.17297	 12.04783	  5.22890	 -0.50905	 19.56482	704.84998	 22.90	
 11.991	  9.464	 18.18172	 16.33134	  1.53704	  9.69964	  7.41813	 -0.52055	 19.58380	704.90802	 22.90	
 11.991	 -9.464	 18.17269	 16.30003	  1.56648	  7.27867	  9.83916	 -0.51886	 19.57791	704.92297	 22.80	
 11.990	-28.440	 18.20528	 15.46918	  2.26084	  5.08701	 12.23399	 -0.53422	 19.59437	704.78497	 22.80	
 12.012	-47.388	 18.20268	 13.86274	  3.57895	  3.34179	 14.24898	 -0.58441	 19.57174	704.79901	 22.90	
 12.013	-66.294	 18.25490	 11.72904	  5.48420	  2.19168	 15.69940	 -0.63148	 19.59818	704.82703	 22.80	
 11.989	-85.301	 18.29739	  9.31001	  7.80432	  1.73548	 16.32030	 -0.62603	 19.59862	704.82703	 22.90	
 12.007	-104.200	 18.31845	  6.91995	 10.25334	  1.91381	 16.12030	 -0.58663	 19.58319	704.96198	 22.90	
 12.006	-123.113	 18.37900	  4.83777	 12.59555	  2.73982	 15.13260	 -0.49837	 19.61893	704.72498	 22.90	
 12.013	-142.081	 18.41592	  3.23308	 14.49405	  4.24988	 13.37913	 -0.47940	 19.60671	704.80701	 22.90	
 12.009	-161.059	 18.41451	  2.29228	 15.70077	  6.27984	 11.12360	 -0.52591	 19.58553	704.87201	 22.90	
 16.000	180.000	 17.25955	 -0.82080	 17.61719	  7.70388	  7.71637	 -0.84841	 19.59334	704.88599	 22.80	
 15.990	-165.604	 17.24293	 -0.61319	 17.31730	  5.36231	 10.14312	 -0.85974	 19.59946	704.97400	 22.90	
 16.002	-151.165	 17.21291	  0.04414	 16.36862	  3.22523	 12.50412	 -0.85624	 19.58655	704.86401	 22.90	
 16.002	-136.836	 17.17219	  1.18284	 14.84055	  1.44624	 14.57488	 -0.80042	 19.57643	704.83899	 22.90	
 15.995	-122.439	 17.17092	  2.79483	 12.86675	  0.15094	 16.23754	 -0.78804	 19.61374	704.85199	 22.90	
 15.993	-107.966	 17.10656	  4.78772	 10.51321	 -0.70629	 17.32220	 -0.80508	 19.59221	705.01202	 22.90	
 16.005	-93.629	 17.05107	  7.03968	  8.06263	 -1.08821	 17.78662	 -0.75969	 19.58292	706.43103	 22.90	
 15.992	-79.234	 17.00965	  9.46268	  5.66598	 -0.98050	 17.61683	 -0.71271	 19.57763	704.92499	 22.90	
 16.009	-64.774	 16.99796	 11.88496	  3.48117	 -0.42247	 16.84572	 -0.72452	 19.59902	704.85999	 22.90	
 15.997	-50.364	 16.97508	 14.08351	  1.63904	  0.63167	 15.45198	 -0.73404	 19.60831	704.88000	 22.90	
 15.997	-36.045	 16.95064	 15.87142	  0.21347	  2.13223	 13.55380	 -0.72520	 19.58871	705.06403	 22.90	
 16.000	-21.597	 16.94645	 17.14531	 -0.74912	  4.04695	 11.31594	 -0.72845	 19.60909	704.74597	 22.90	
 16.003	 -7.169	 16.90632	 17.77730	 -1.24507	  6.27929	  8.85982	 -0.68664	 19.58976	705.70001	 22.90	
 16.003	  7.169	 16.92572	 17.81763	 -1.27926	  8.68070	  6.46548	 -0.67796	 19.61125	704.92499	 22.90	
 16.000	 21.597	 16.92978	 17.21553	 -0.83071	 11.08317	  4.24432	 -0.70692	 19.60909	704.80103	 22.90	
 15.997	 36.045	 16.95991	 15.99276	  0.09905	 13.33343	  2.34390	 -0.72115	 19.60206	704.85602	 22.90	
 15.997	 50.364	 16.97205	 14.23921	  1.45855	 15.25022	  0.80346	 -0.71270	 19.59377	704.79303	 22.90	
 16.009	 64.774	 17.02175	 12.10177	  3.25454	 16.68078	 -0.25097	 -0.71592	 19.59752	704.93701	 22.90	
 15.992	 79.234	 17.06978	  9.71970	  5.43018	 17.51538	 -0.83166	 -0.78594	 19.59133	704.86298	 22.90	
 16.005	 93.629	 17.13617	  7.32223	  7.83308	 17.73956	 -0.94962	 -0.77629	 19.61464	704.79303	 22.90	
 15.993	107.966	 17.19095	  5.06450	 10.29330	 17.28136	 -0.56411	 -0.77917	 19.59116	705.04401	 22.90	
 15.995	122.439	 17.23324	  3.04399	 12.65740	 16.21548	  0.27838	 -0.80944	 19.59279	706.46997	 22.90	
 16.002	136.836	 17.26316	  1.40115	 14.70891	 14.59403	  1.56289	 -0.81075	 19.59712	704.72601	 22.90	
 16.002	151.165	 17.27756	  0.20467	 16.27580	 12.52191	  3.28648	 -0.81050	 19.58316	705.13702	 22.90	
 15.990	165.604	 17.29788	 -0.51494	 17.28236	 10.15427	  5.41568	 -0.81376	 19.60762	704.81299	 22.90	
 20.003	168.362	 15.75203	 -3.14597	 18.43326	  8.91773	  4.25904	 -0.95920	 19.58278	704.78003	 22.90	
 20.008	156.764	 15.76577	 -2.61109	 17.67035	 11.30481	  2.20117	 -0.99096	 19.60436	706.40601	 22.90	
 20.000	145.147	 15.74808	 -1.73619	 16.37589	 13.50916	  0.39682	 -0.97678	 19.57816	704.80701	 22.90	
 19.995	133.545	 15.71206	 -0.50583	 14.64081	 15.42912	 -1.05735	 -0.91640	 19.55655	704.72803	 22.90	
 20.009	121.926	 15.68993	  1.04176	 12.56967	 17.02507	 -2.17747	 -0.79362	 19.59380	706.57202	 22.90	
 20.005	110.327	 15.66415	  2.91386	 10.25122	 18.11460	 -2.91387	 -0.68754	 19.59845	706.47699	 22.90	
 19.989	 98.733	 15.64045	  5.03125	  7.84152	 18.70862	 -3.30786	 -0.64348	 19.62436	706.36298	 22.90	
 19.999	 87.075	 15.55766	  7.32046	  5.44422	 18.76180	 -3.38924	 -0.70537	 19.59307	704.86102	 22.90	
 19.992	 75.457	 15.52330	  9.69379	  3.21646	 18.35425	 -3.12729	 -0.82381	 19.60834	705.96100	 22.90	
 20.009	 63.844	 15.44454	 11.97989	  1.21626	 17.41303	 -2.58334	 -0.85647	 19.58205	706.48798	 22.90	
 19.989	 52.269	 15.42283	 14.13305	 -0.44146	 16.03126	 -1.64315	 -0.84552	 19.59943	706.16302	 22.90	
 19.999	 40.602	 15.37036	 15.97106	 -1.79319	 14.19106	 -0.36291	 -0.75355	 19.60273	704.76202	 22.90	
 20.004	 29.051	 15.33335	 17.39541	 -2.77421	 12.06756	  1.26986	 -0.62610	 19.58722	704.74597	 22.90	
 20.005	 17.433	 15.30556	 18.36728	 -3.43512	  9.77160	  3.18046	 -0.57794	 19.58503	704.80798	 22.90	
 20.006	  5.780	 15.27796	 18.81449	 -3.76701	  7.39848	  5.30711	 -0.59163	 19.57785	704.76801	 22.90	
 20.006	 -5.780	 15.29240	 18.80528	 -3.73334	  5.09787	  7.64335	 -0.61547	 19.57430	704.87500	 22.90	
 20.005	-17.433	 15.32151	 18.32190	 -3.38091	  2.92433	 10.05100	 -0.64359	 19.59543	705.39801	 22.90	
 20.004	-29.051	 15.33792	 17.29478	 -2.69074	  0.99849	 12.35773	 -0.68553	 19.58790	704.79700	 22.90	
 19.999	-40.602	 15.39120	 15.83563	 -1.65121	 -0.59129	 14.45875	 -0.67804	 19.61839	704.92603	 22.90	
 19.989	-52.269	 15.37314	 13.90119	 -0.26060	 -1.86761	 16.21999	 -0.63428	 19.58233	704.83002	 23.00	
 20.009	-63.844	 15.41830	 11.75182	  1.45465	 -2.75739	 17.57311	 -0.60279	 19.59830	706.39801	 22.90	
 19.992	-75.457	 15.44264	  9.39530	  3.46929	 -3.33815	 18.44523	 -0.59511	 19.58624	704.72803	 22.90	
 19.999	-87.075	 15.47878	  7.02207	  5.68113	 -3.57397	 18.80588	 -0.61548	 19.58976	706.04199	 22.90	
 19.989	-98.733	 15.51511	  4.71544	  8.05694	 -3.49028	 18.69594	 -0.68958	 19.59107	704.74500	 22.90	
 20.005	-110.327	 15.53828	  2.60232	 10.42995	 -3.08007	 18.09141	 -0.82311	 19.58944	704.69702	 23.00	
 20.009	-121.926	 15.58057	  0.77517	 12.72045	 -2.29375	 16.98757	 -0.92987	 19.58957	704.91400	 23.00	
 19.995	-133.545	 15.62160	 -0.74511	 14.76616	 -1.15838	 15.42769	 -0.96175	 19.59200	704.68298	 23.00	
 20.000	-145.147	 15.64851	 -1.92768	 16.46265	  0.32826	 13.47387	 -0.91926	 19.57077	706.43103	 23.00	
 20.008	-156.764	 15.68952	 -2.75767	 17.73989	  2.15833	 11.26816	 -0.85006	 19.59844	706.43103	 23.00	
 20.003	-168.362	 15.69723	 -3.22713	 18.46128	  4.23965	  8.90686	 -0.87123	 19.57897	706.44800	 23.00	
 20.000	180.000	 15.71132	 -3.34638	 18.67047	  6.51888	  6.53015	 -0.91906	 19.56059	704.91699	 23.00	
