FileType=PCF
NHL=14
Date=08/30/17	10:30:27
Facility=APL
Serial=16328-18
Customer=NASA
NP=6
Mach=0.100000
Calibration=1:1
CalPts=490
TstPts=95
PortNumbering=AP Standard
Units=Torr C m/s kg/m^3 deg mm 
Theta[deg]	Phi[deg]	P1[Torr]	P2[Torr]	P3[Torr]	P4[Torr]	P5[Torr]	P6[Torr]	Pt[Torr]	Ps[Abs,Torr]	Ts[C]	
  0.000	  0.000	  4.97086	  2.60480	  2.50563	  2.55377	  2.59665	  0.03972	  4.96737	706.36298	 24.10	
  1.691	128.401	  4.94954	  2.43807	  2.62489	  2.69953	  2.40600	  0.03651	  4.94448	706.28003	 24.10	
  1.692	 77.194	  4.96383	  2.62163	  2.44656	  2.76720	  2.35666	  0.03975	  4.95871	706.48798	 24.10	
  1.699	 26.182	  4.95338	  2.79317	  2.27456	  2.62247	  2.47268	  0.03193	  4.95150	706.47400	 24.10	
  1.699	-26.182	  4.96666	  2.79307	  2.28174	  2.41796	  2.68305	  0.03061	  4.96409	706.47699	 24.10	
  1.692	-77.194	  4.95375	  2.61353	  2.43232	  2.30633	  2.79747	  0.02615	  4.95305	706.42902	 24.10	
  1.691	-128.401	  4.95789	  2.43959	  2.62577	  2.36255	  2.75553	  0.02831	  4.95547	706.41901	 24.10	
  1.700	180.000	  4.94723	  2.35610	  2.72175	  2.53564	  2.57970	  0.04013	  4.94420	706.38599	 24.10	
  3.400	180.000	  4.96766	  2.08998	  2.97441	  2.50926	  2.55021	  0.02041	  4.96844	706.48102	 24.10	
  3.388	-152.325	  4.95631	  2.12996	  2.90971	  2.27943	  2.78064	  0.01685	  4.96044	706.33197	 24.10	
  3.397	-124.529	  4.95841	  2.26860	  2.74257	  2.11109	  2.97054	  0.01624	  4.96139	706.23401	 24.10	
  3.399	-96.763	  4.93317	  2.47159	  2.49717	  2.01917	  3.04639	  0.01005	  4.94281	706.33301	 24.00	
  3.394	-69.283	  4.94255	  2.71959	  2.26735	  2.04740	  3.02040	  0.00974	  4.95237	706.36102	 24.00	
  3.400	-41.398	  4.94479	  2.93284	  2.08012	  2.17023	  2.87642	  0.01082	  4.95586	706.27399	 24.00	
  3.401	-14.021	  4.94460	  3.05340	  1.97996	  2.36498	  2.66196	  0.01435	  4.95329	706.25403	 24.00	
  3.401	 14.021	  4.94336	  3.05737	  1.97887	  2.61074	  2.41428	  0.01769	  4.95202	706.48700	 24.00	
  3.400	 41.398	  4.95785	  2.94974	  2.08425	  2.83758	  2.22200	  0.02250	  4.96391	706.38599	 24.00	
  3.394	 69.283	  4.95142	  2.73622	  2.27009	  2.98348	  2.09786	  0.03210	  4.95761	706.33197	 24.00	
  3.399	 96.763	  4.95713	  2.50282	  2.50323	  3.01772	  2.08090	  0.02700	  4.95955	706.23700	 24.00	
  3.397	124.529	  4.96251	  2.29091	  2.73636	  2.93109	  2.16105	  0.02414	  4.96075	706.21399	 24.00	
  3.388	152.325	  4.95876	  2.14615	  2.90299	  2.74189	  2.32002	  0.02227	  4.95782	706.22198	 24.00	
  5.099	161.165	  4.93665	  1.83869	  3.16947	  2.72801	  2.26457	  0.00626	  4.95608	706.24500	 24.00	
  5.109	142.013	  4.93105	  1.94941	  3.03322	  2.95518	  2.05219	  0.00685	  4.94763	706.27399	 24.00	
  5.095	123.033	  4.93978	  2.12951	  2.83897	  3.13775	  1.90321	  0.00799	  4.95617	706.23901	 24.00	
  5.105	104.191	  4.92800	  2.34570	  2.59462	  3.23849	  1.81033	  0.00792	  4.94919	706.24500	 24.00	
  5.093	 85.207	  4.93892	  2.60077	  2.34817	  3.26526	  1.79675	  0.00930	  4.96332	706.35498	 24.00	
  5.104	 66.290	  4.92844	  2.84556	  2.10734	  3.19041	  1.84509	  0.01148	  4.95661	706.18103	 24.00	
  5.094	 47.331	  4.92676	  3.06554	  1.90712	  3.04104	  1.96854	  0.00838	  4.95904	706.26599	 24.00	
  5.089	 28.397	  4.93023	  3.23032	  1.76466	  2.83474	  2.15254	  0.00423	  4.96448	706.29102	 24.00	
  5.096	  9.576	  4.91367	  3.30634	  1.68728	  2.58165	  2.37442	 -0.00160	  4.95209	706.26001	 24.00	
  5.096	 -9.576	  4.91382	  3.30243	  1.68818	  2.32326	  2.63198	 -0.00508	  4.95226	706.35498	 24.00	
  5.089	-28.397	  4.91629	  3.21132	  1.76406	  2.09789	  2.87549	 -0.00879	  4.95524	706.33301	 24.00	
  5.094	-47.331	  4.90744	  3.03797	  1.90420	  1.90904	  3.07848	 -0.01199	  4.94458	706.38300	 23.90	
  5.104	-66.290	  4.92077	  2.82314	  2.10711	  1.78323	  3.23882	 -0.01563	  4.95837	706.24298	 23.90	
  5.093	-85.207	  4.91843	  2.56499	  2.34700	  1.73081	  3.30315	 -0.01428	  4.95130	706.25403	 23.90	
  5.105	-104.191	  4.91680	  2.31131	  2.60262	  1.74910	  3.27920	 -0.00982	  4.94991	706.28802	 23.90	
  5.095	-123.033	  4.93236	  2.10240	  2.84740	  1.85119	  3.17676	 -0.00621	  4.95948	706.35602	 23.90	
  5.109	-142.013	  4.93642	  1.92830	  3.04890	  2.01231	  2.99744	 -0.00292	  4.96216	706.33801	 23.90	
  5.099	-161.165	  4.94103	  1.82528	  3.17944	  2.23059	  2.76400	  0.00099	  4.96175	706.29901	 23.90	
  5.100	180.000	  4.93820	  1.79614	  3.21741	  2.47296	  2.51129	  0.00558	  4.95453	706.37201	 23.90	
  6.800	180.000	  4.90073	  1.49930	  3.45573	  2.43007	  2.46763	 -0.02095	  4.95517	706.44202	 23.90	
  6.796	-166.229	  4.89584	  1.51765	  3.42512	  2.18396	  2.71197	 -0.02799	  4.95302	706.44000	 23.90	
  6.808	-152.311	  4.89924	  1.59302	  3.33537	  1.96032	  2.95746	 -0.03074	  4.96067	706.28400	 23.90	
  6.795	-138.383	  4.89493	  1.71794	  3.18160	  1.75975	  3.17432	 -0.03004	  4.96080	706.26501	 23.90	
  6.792	-124.591	  4.89706	  1.89240	  2.98386	  1.60704	  3.35455	 -0.03534	  4.96544	706.22601	 23.90	
  6.787	-110.754	  4.87384	  2.09066	  2.73930	  1.49433	  3.46249	 -0.04314	  4.94603	706.30798	 23.90	
  6.800	-96.985	  4.88583	  2.33083	  2.50113	  1.44295	  3.53697	 -0.04430	  4.96515	706.21198	 23.90	
  6.800	-83.015	  4.87507	  2.58103	  2.24155	  1.43752	  3.53168	 -0.04763	  4.95617	706.25702	 23.90	
  6.787	-69.246	  4.87366	  2.82901	  2.00455	  1.48849	  3.46564	 -0.05100	  4.95787	706.33301	 23.90	
  6.792	-55.409	  4.86675	  3.05843	  1.79197	  1.58861	  3.33978	 -0.04836	  4.95355	706.31500	 23.90	
  6.795	-41.617	  4.86834	  3.25990	  1.61615	  1.73948	  3.16573	 -0.04020	  4.95750	706.45697	 23.90	
  6.808	-27.689	  4.87214	  3.42083	  1.48393	  1.93358	  2.94938	 -0.04082	  4.96441	706.34100	 23.90	
  6.796	-13.771	  4.86524	  3.51485	  1.40311	  2.15794	  2.70377	 -0.03698	  4.95406	706.44000	 23.90	
  6.800	  0.000	  4.85743	  3.54526	  1.37145	  2.39726	  2.45147	 -0.03158	  4.94509	706.29602	 23.90	
  6.796	 13.771	  4.86270	  3.51992	  1.39933	  2.65048	  2.20626	 -0.02620	  4.94834	706.29303	 23.90	
  6.808	 27.689	  4.86949	  3.43241	  1.47800	  2.89533	  1.98563	 -0.02410	  4.95083	706.44598	 23.90	
  6.795	 41.617	  4.88065	  3.28578	  1.61644	  3.11696	  1.79919	 -0.01609	  4.95894	706.31500	 23.90	
  6.792	 55.409	  4.88965	  3.09501	  1.79009	  3.30095	  1.65277	 -0.01353	  4.96421	706.26801	 23.90	
  6.787	 69.246	  4.88737	  2.86377	  2.00078	  3.42547	  1.54964	 -0.01573	  4.96089	706.31598	 23.90	
  6.800	 83.015	  4.88826	  2.61973	  2.23320	  3.49293	  1.49814	 -0.01606	  4.95494	706.29602	 23.90	
  6.800	 96.985	  4.90098	  2.37348	  2.49030	  3.50363	  1.50309	 -0.01593	  4.96476	706.36298	 23.90	
  6.787	110.754	  4.89868	  2.13639	  2.73442	  3.43576	  1.55682	 -0.01882	  4.95585	706.18298	 23.90	
  6.792	124.591	  4.89382	  1.92396	  2.96221	  3.31050	  1.65890	 -0.01685	  4.95148	706.34601	 23.90	
  6.795	138.383	  4.91462	  1.75604	  3.17502	  3.14764	  1.81475	 -0.01527	  4.96898	706.37201	 23.80	
  6.808	152.311	  4.90761	  1.61647	  3.32861	  2.92991	  2.00140	 -0.01944	  4.95907	706.39398	 23.90	
  6.796	166.229	  4.89928	  1.53069	  3.42126	  2.68196	  2.22142	 -0.01949	  4.95423	706.35199	 23.80	
  8.491	168.704	  4.83972	  1.22489	  3.64550	  2.63375	  2.15312	 -0.05662	  4.95035	706.30402	 23.80	
  8.502	157.493	  4.85264	  1.29475	  3.57301	  2.88918	  1.92556	 -0.05701	  4.96078	706.37799	 23.80	
  8.494	146.194	  4.84870	  1.40669	  3.43682	  3.12316	  1.71257	 -0.05182	  4.95459	706.22198	 23.90	
  8.495	135.039	  4.84106	  1.55279	  3.25836	  3.32644	  1.52834	 -0.05037	  4.95166	706.31500	 23.90	
  8.487	123.723	  4.84425	  1.74080	  3.04764	  3.50117	  1.38424	 -0.05596	  4.95578	706.23700	 23.90	
  8.492	112.575	  4.84522	  1.95466	  2.81309	  3.62808	  1.28167	 -0.05987	  4.96091	706.33002	 23.90	
  8.510	101.220	  4.83878	  2.19085	  2.55654	  3.70693	  1.21242	 -0.05630	  4.95972	706.36700	 23.80	
  8.500	 90.000	  4.82829	  2.43609	  2.29572	  3.72413	  1.18882	 -0.05036	  4.95300	706.31799	 23.90	
  8.510	 78.780	  4.84220	  2.70249	  2.05067	  3.70917	  1.21010	 -0.04970	  4.97249	706.49799	 23.90	
  8.492	 67.425	  4.83286	  2.94882	  1.81060	  3.61804	  1.27468	 -0.05036	  4.96777	706.38702	 23.80	
  8.487	 56.277	  4.79964	  3.16012	  1.59117	  3.46622	  1.36948	 -0.04473	  4.93786	706.41400	 23.80	
  8.495	 44.961	  4.80287	  3.37426	  1.40761	  3.29434	  1.51616	 -0.04613	  4.94853	706.27600	 23.80	
  8.494	 33.806	  4.81762	  3.55338	  1.26546	  3.09379	  1.70183	 -0.05898	  4.96507	706.36401	 23.80	
  8.502	 22.507	  4.80887	  3.67669	  1.15453	  2.85244	  1.90877	 -0.06362	  4.96204	706.33600	 23.80	
  8.491	 11.296	  4.80813	  3.75062	  1.09295	  2.60351	  2.14342	 -0.06213	  4.96490	706.21802	 23.80	
  8.500	  0.000	  4.79662	  3.76687	  1.06931	  2.33759	  2.39223	 -0.06429	  4.95237	706.24298	 23.80	
  8.491	-11.296	  4.80532	  3.74328	  1.09498	  2.09030	  2.65417	 -0.07426	  4.96407	706.23401	 23.80	
  8.502	-22.507	  4.79540	  3.65537	  1.15689	  1.85127	  2.89844	 -0.07424	  4.95374	706.27301	 23.80	
  8.494	-33.806	  4.80782	  3.52917	  1.27129	  1.64138	  3.14500	 -0.07392	  4.96631	706.26501	 23.80	
  8.495	-44.961	  4.80581	  3.35198	  1.41627	  1.45866	  3.35162	 -0.07983	  4.96603	706.41498	 23.80	
  8.487	-56.277	  4.79955	  3.13275	  1.60411	  1.31543	  3.51592	 -0.08729	  4.95396	706.39801	 23.80	
  8.492	-67.425	  4.79758	  2.89522	  1.81083	  1.20887	  3.63912	 -0.09241	  4.94833	706.43103	 23.80	
  8.510	-78.780	  4.80754	  2.64693	  2.05483	  1.14546	  3.72970	 -0.09004	  4.95698	706.42499	 23.80	
  8.500	-90.000	  4.82853	  2.39568	  2.31860	  1.13138	  3.76878	 -0.08777	  4.97404	706.32898	 23.80	
  8.510	-101.220	  4.82513	  2.14179	  2.57444	  1.15376	  3.73826	 -0.08575	  4.96471	706.32898	 23.80	
  8.492	-112.575	  4.83238	  1.90691	  2.83058	  1.22659	  3.65948	 -0.07898	  4.96694	706.42499	 23.80	
  8.487	-123.723	  4.82852	  1.69532	  3.06163	  1.33329	  3.52689	 -0.07026	  4.96052	706.40002	 23.80	
  8.495	-135.039	  4.82496	  1.51206	  3.26932	  1.47718	  3.35432	 -0.06374	  4.95279	706.36298	 23.80	
  8.494	-146.194	  4.82751	  1.37302	  3.44048	  1.66304	  3.14315	 -0.06502	  4.95064	706.32898	 23.80	
  8.502	-157.493	  4.83896	  1.27096	  3.57668	  1.88448	  2.91062	 -0.06759	  4.95613	706.28198	 23.80	
  8.491	-168.704	  4.82979	  1.21238	  3.64406	  2.11609	  2.65850	 -0.06269	  4.94426	706.26202	 23.80	
  8.500	180.000	  4.84748	  1.19871	  3.68151	  2.37556	  2.41034	 -0.05654	  4.95728	706.36298	 23.80	
 10.200	180.000	  4.78991	  0.89598	  3.90561	  2.31686	  2.34820	 -0.09582	  4.97764	706.35303	 23.80	
 10.191	-170.497	  4.76744	  0.90371	  3.86915	  2.05079	  2.59552	 -0.10130	  4.95685	706.36902	 23.80	
 10.210	-161.034	  4.76859	  0.95115	  3.80548	  1.80951	  2.85057	 -0.10827	  4.96543	706.36298	 23.80	
 10.194	-151.526	  4.76315	  1.03888	  3.69053	  1.57872	  3.09916	 -0.10648	  4.96192	706.23499	 23.80	
 10.190	-142.105	  4.75782	  1.15930	  3.53706	  1.37478	  3.32542	 -0.10067	  4.96198	706.27002	 23.80	
 10.215	-132.646	  4.75400	  1.30896	  3.35340	  1.19918	  3.52671	 -0.09966	  4.96443	706.36700	 23.80	
 10.203	-123.092	  4.74002	  1.49016	  3.12680	  1.05024	  3.68696	 -0.10591	  4.95276	706.23102	 23.80	
 10.192	-113.678	  4.74195	  1.70490	  2.88859	  0.94404	  3.82160	 -0.11703	  4.95756	706.33197	 23.80	
 10.208	-104.249	  4.72793	  1.93101	  2.62930	  0.86344	  3.90495	 -0.12605	  4.95210	706.27698	 23.80	
 10.210	-94.801	  4.72520	  2.17896	  2.37105	  0.82403	  3.95142	 -0.12916	  4.95195	706.28802	 23.80	
 10.210	-85.199	  4.71329	  2.43700	  2.10279	  0.81918	  3.94399	 -0.13238	  4.94333	706.39398	 23.80	
 10.208	-75.751	  4.72091	  2.70165	  1.85623	  0.85546	  3.90552	 -0.13359	  4.95319	706.26501	 23.80	
 10.192	-66.322	  4.73308	  2.96486	  1.62829	  0.93102	  3.82634	 -0.13317	  4.97354	706.15601	 23.80	
 10.203	-56.908	  4.70169	  3.18443	  1.40454	  1.03225	  3.67183	 -0.12958	  4.94377	706.24597	 23.80	
 10.215	-47.354	  4.72491	  3.42282	  1.21907	  1.17793	  3.51920	 -0.12116	  4.96801	706.21802	 23.80	
 10.190	-37.895	  4.71571	  3.60426	  1.06034	  1.34534	  3.31182	 -0.11152	  4.95849	706.34399	 23.80	
 10.194	-28.474	  4.70753	  3.75331	  0.93290	  1.54022	  3.08131	 -0.11359	  4.95217	706.27600	 23.80	
 10.210	-18.966	  4.70750	  3.87125	  0.83844	  1.76638	  2.83186	 -0.11274	  4.95091	706.25702	 23.80	
 10.191	 -9.503	  4.71168	  3.94293	  0.78637	  2.00993	  2.58056	 -0.10776	  4.95618	706.22900	 23.80	
 10.200	  0.000	  4.70316	  3.96218	  0.76289	  2.26000	  2.31754	 -0.10612	  4.94755	706.38702	 23.80	
 10.191	  9.503	  4.71643	  3.95385	  0.78223	  2.52702	  2.06717	 -0.10037	  4.96024	706.31500	 23.80	
 10.210	 18.966	  4.71601	  3.88984	  0.83542	  2.78431	  1.82632	 -0.10328	  4.95811	706.28998	 23.80	
 10.194	 28.474	  4.71843	  3.78059	  0.92625	  3.03010	  1.60441	 -0.09741	  4.95307	706.45898	 23.80	
 10.190	 37.895	  4.71519	  3.62684	  1.04859	  3.25780	  1.40198	 -0.08818	  4.94468	706.28198	 23.80	
 10.215	 47.354	  4.73404	  3.45996	  1.20717	  3.47571	  1.23487	 -0.07769	  4.96437	706.37500	 23.80	
 10.203	 56.908	  4.72911	  3.23881	  1.39572	  3.63913	  1.09857	 -0.07811	  4.95158	706.26001	 23.80	
 10.192	 66.322	  4.73738	  3.00572	  1.61107	  3.77230	  0.99925	 -0.08230	  4.95256	706.27399	 23.80	
 10.208	 75.751	  4.75578	  2.76645	  1.84645	  3.88330	  0.92687	 -0.08860	  4.96891	706.37000	 23.80	
 10.210	 85.199	  4.74854	  2.50458	  2.09130	  3.92226	  0.89120	 -0.08791	  4.95693	706.24597	 23.80	
 10.210	 94.801	  4.74440	  2.23700	  2.35373	  3.91906	  0.89009	 -0.09202	  4.94645	706.28998	 23.80	
 10.208	104.249	  4.75491	  1.99547	  2.61552	  3.88275	  0.92835	 -0.09875	  4.95318	706.22803	 23.80	
 10.192	113.678	  4.76333	  1.76473	  2.87218	  3.79659	  1.00665	 -0.10007	  4.95586	706.26202	 23.80	
 10.203	123.092	  4.77854	  1.55088	  3.12075	  3.68091	  1.11213	 -0.10045	  4.96714	706.25299	 23.80	
 10.215	132.646	  4.76343	  1.35618	  3.33116	  3.50254	  1.24227	 -0.09188	  4.94906	706.27399	 23.80	
 10.190	142.105	  4.78225	  1.20243	  3.53169	  3.31183	  1.42359	 -0.08863	  4.96798	706.37201	 23.80	
 10.194	151.526	  4.76325	  1.07034	  3.67078	  3.07022	  1.61783	 -0.09069	  4.94814	706.36401	 23.80	
 10.210	161.034	  4.76851	  0.97423	  3.79083	  2.82660	  1.83872	 -0.09466	  4.95117	706.36902	 23.80	
 10.191	170.497	  4.77137	  0.91683	  3.86332	  2.57329	  2.08088	 -0.09603	  4.95758	706.39801	 23.80	
 11.899	171.783	  4.67398	  0.61011	  4.05557	  2.49371	  1.99422	 -0.13561	  4.95471	706.45898	 23.80	
 11.890	163.610	  4.68081	  0.66130	  4.00016	  2.75567	  1.75532	 -0.13532	  4.96172	706.27399	 23.80	
 11.889	155.445	  4.67647	  0.74203	  3.89365	  3.00370	  1.52510	 -0.12861	  4.95235	706.35199	 23.80	
 11.909	147.299	  4.68177	  0.85017	  3.76460	  3.25100	  1.31198	 -0.12852	  4.96010	706.29797	 23.80	
 11.902	139.148	  4.68450	  0.99279	  3.59582	  3.47159	  1.12782	 -0.12483	  4.96277	706.43201	 23.80	
 11.894	130.867	  4.68085	  1.16181	  3.39042	  3.66196	  0.96813	 -0.13146	  4.95757	706.34900	 23.80	
 11.897	122.732	  4.67654	  1.35196	  3.16649	  3.82846	  0.83255	 -0.13945	  4.96291	706.37000	 23.80	
 11.903	114.597	  4.66982	  1.56098	  2.92217	  3.95682	  0.72398	 -0.14236	  4.95651	706.35303	 23.80	
 11.893	106.346	  4.66670	  1.79649	  2.66521	  4.05308	  0.64695	 -0.14449	  4.95919	706.39099	 23.80	
 11.892	 98.155	  4.65832	  2.03815	  2.39952	  4.10414	  0.59783	 -0.13993	  4.95485	706.41901	 23.80	
 11.900	 90.000	  4.66980	  2.29844	  2.14539	  4.13604	  0.58227	 -0.13345	  4.97544	706.35602	 23.80	
 11.892	 81.845	  4.64240	  2.54697	  1.87961	  4.09186	  0.59522	 -0.12837	  4.94943	706.31097	 23.80	
 11.893	 73.654	  4.63557	  2.80233	  1.63333	  4.02614	  0.63989	 -0.12349	  4.94968	706.29901	 23.80	
 11.903	 65.403	  4.63034	  3.05269	  1.40126	  3.92268	  0.71484	 -0.11582	  4.94724	706.40900	 23.80	
 11.897	 57.268	  4.62839	  3.29223	  1.19112	  3.78719	  0.82108	 -0.11415	  4.95247	706.42902	 23.80	
 11.894	 49.133	  4.63280	  3.51222	  1.00703	  3.62462	  0.95568	 -0.11481	  4.96161	706.32898	 23.80	
 11.902	 40.852	  4.61139	  3.69406	  0.83660	  3.41149	  1.10957	 -0.12027	  4.94415	706.36401	 23.80	
 11.909	 32.701	  4.61636	  3.86451	  0.70184	  3.19818	  1.29687	 -0.13093	  4.95688	706.40802	 23.80	
 11.889	 24.555	  4.61026	  3.98744	  0.59841	  2.94956	  1.51133	 -0.13825	  4.95093	706.30499	 23.80	
 11.890	 16.390	  4.60965	  4.08243	  0.52231	  2.69744	  1.73756	 -0.14141	  4.95519	706.33801	 23.80	
 11.899	  8.217	  4.60172	  4.13323	  0.47462	  2.43679	  1.97794	 -0.13882	  4.95021	706.31299	 23.80	
 11.900	  0.000	  4.60752	  4.15471	  0.46207	  2.17725	  2.23903	 -0.13868	  4.95579	706.43701	 23.80	
 11.899	 -8.217	  4.60366	  4.12977	  0.47765	  1.91959	  2.49619	 -0.13946	  4.95674	706.29797	 23.80	
 11.890	-16.390	  4.60355	  4.06473	  0.52723	  1.67750	  2.75275	 -0.14397	  4.95368	706.36102	 23.80	
 11.889	-24.555	  4.60510	  3.96808	  0.60535	  1.44661	  3.00813	 -0.14687	  4.95721	706.40601	 23.80	
 11.909	-32.701	  4.60331	  3.83075	  0.71119	  1.23504	  3.24594	 -0.14683	  4.95236	706.27301	 23.80	
 11.902	-40.852	  4.60531	  3.66250	  0.84807	  1.05243	  3.46289	 -0.14904	  4.95372	706.31097	 23.80	
 11.894	-49.133	  4.61700	  3.46770	  1.01806	  0.89147	  3.66765	 -0.15536	  4.96651	706.30701	 23.80	
 11.897	-57.268	  4.61506	  3.24516	  1.20659	  0.75453	  3.83310	 -0.16403	  4.95871	706.36401	 23.80	
 11.903	-65.403	  4.60671	  2.99433	  1.41571	  0.64432	  3.96132	 -0.16837	  4.94961	706.36902	 23.80	
 11.893	-73.654	  4.61043	  2.73831	  1.65064	  0.57473	  4.05585	 -0.17022	  4.94888	706.24500	 23.80	
 11.892	-81.845	  4.62995	  2.48788	  1.90356	  0.53266	  4.12871	 -0.17036	  4.96347	706.28497	 23.80	
 11.900	-90.000	  4.61524	  2.21793	  2.15513	  0.51809	  4.13197	 -0.16987	  4.94473	706.31598	 23.80	
 11.892	-98.155	  4.63546	  1.97112	  2.42363	  0.53746	  4.12699	 -0.16860	  4.96050	706.22601	 23.80	
 11.893	-106.346	  4.62878	  1.72414	  2.67927	  0.58231	  4.06237	 -0.16283	  4.95130	706.34399	 23.80	
 11.903	-114.597	  4.64385	  1.49444	  2.94284	  0.66134	  3.97610	 -0.15175	  4.96375	706.25403	 23.80	
 11.897	-122.732	  4.65125	  1.28775	  3.18608	  0.77415	  3.84505	 -0.14386	  4.96342	706.35602	 23.80	
 11.894	-130.867	  4.64952	  1.10496	  3.40153	  0.91424	  3.67343	 -0.13517	  4.95894	706.27002	 23.80	
 11.902	-139.148	  4.65240	  0.94307	  3.60247	  1.08380	  3.47515	 -0.13503	  4.95499	706.26599	 23.80	
 11.909	-147.299	  4.65289	  0.80989	  3.76630	  1.27084	  3.25653	 -0.14158	  4.95218	706.35498	 23.80	
 11.889	-155.445	  4.65385	  0.71109	  3.89595	  1.48497	  3.01575	 -0.14986	  4.94620	706.24298	 23.80	
 11.890	-163.610	  4.67224	  0.64104	  4.00381	  1.72405	  2.77290	 -0.14950	  4.96137	706.30798	 23.80	
 11.899	-171.783	  4.67102	  0.59795	  4.05982	  1.96831	  2.51151	 -0.14362	  4.95295	706.35999	 23.80	
 11.900	180.000	  4.67870	  0.58724	  4.08305	  2.22911	  2.25665	 -0.13675	  4.96088	706.43903	 23.80	
 13.600	180.000	  4.55383	  0.28546	  4.24766	  2.13355	  2.15436	 -0.17628	  4.94833	706.29797	 23.80	
 13.608	-172.853	  4.56152	  0.29136	  4.24179	  1.88337	  2.41384	 -0.18495	  4.96149	706.22803	 23.80	
 13.611	-165.583	  4.55106	  0.32623	  4.18545	  1.62802	  2.67156	 -0.19143	  4.95595	706.42499	 23.80	
 13.601	-158.353	  4.54023	  0.38729	  4.09058	  1.38667	  2.92539	 -0.19310	  4.94711	706.31598	 23.80	
 13.609	-151.210	  4.54694	  0.47475	  3.98194	  1.17124	  3.17570	 -0.18758	  4.96017	706.41400	 23.80	
 13.611	-143.999	  4.53908	  0.58718	  3.82834	  0.96815	  3.40167	 -0.17986	  4.95525	706.37500	 23.80	
 13.601	-136.825	  4.52725	  0.72404	  3.64407	  0.78575	  3.61092	 -0.17034	  4.94910	706.21399	 23.80	
 13.596	-129.640	  4.53712	  0.88867	  3.44923	  0.62869	  3.81164	 -0.16944	  4.96315	706.29102	 23.80	
 13.611	-122.431	  4.52635	  1.07233	  3.21904	  0.49317	  3.97038	 -0.17601	  4.95786	706.36700	 23.80	
 13.604	-115.211	  4.53251	  1.28196	  2.98450	  0.38947	  4.11211	 -0.18253	  4.96855	706.34900	 23.80	
 13.595	-108.042	  4.51664	  1.50496	  2.72209	  0.30982	  4.19865	 -0.19209	  4.95498	706.26501	 23.80	
 13.607	-100.793	  4.51464	  1.74437	  2.46068	  0.25192	  4.27068	 -0.19939	  4.96001	706.27399	 23.80	
 13.601	-93.617	  4.51608	  1.99627	  2.19922	  0.22313	  4.30990	 -0.20072	  4.96582	706.34698	 23.80	
 13.601	-86.383	  4.50689	  2.25500	  1.93546	  0.22008	  4.30618	 -0.19928	  4.96055	706.37799	 23.80	
 13.607	-79.207	  4.50093	  2.51273	  1.68066	  0.24257	  4.26736	 -0.20072	  4.95692	706.35303	 23.80	
 13.595	-71.958	  4.49589	  2.77249	  1.43804	  0.29556	  4.19669	 -0.19623	  4.95506	706.23700	 23.80	
 13.604	-64.789	  4.48814	  3.02482	  1.20823	  0.37042	  4.09091	 -0.19047	  4.95106	706.33600	 23.80	
 13.611	-57.569	  4.48958	  3.26994	  0.99681	  0.47053	  3.96081	 -0.18979	  4.95958	706.27301	 23.80	
 13.596	-50.360	  4.48374	  3.49478	  0.80734	  0.60100	  3.79467	 -0.18349	  4.95383	706.24500	 23.80	
 13.601	-43.175	  4.48890	  3.70285	  0.64123	  0.75583	  3.60754	 -0.17606	  4.95873	706.27698	 23.80	
 13.611	-36.001	  4.48096	  3.88139	  0.49346	  0.93045	  3.39122	 -0.17396	  4.95358	706.32098	 23.80	
 13.609	-28.790	  4.48219	  4.03649	  0.37517	  1.12791	  3.16112	 -0.17314	  4.95829	706.19397	 23.80	
 13.601	-21.647	  4.48710	  4.16022	  0.28284	  1.34234	  2.92073	 -0.17286	  4.96216	706.37500	 23.80	
 13.611	-14.417	  4.47940	  4.24187	  0.21395	  1.57529	  2.65626	 -0.16988	  4.95255	706.16400	 23.80	
 13.608	 -7.147	  4.48182	  4.29870	  0.17649	  1.82317	  2.39675	 -0.16737	  4.95563	706.29303	 23.80	
 13.600	  0.000	  4.47618	  4.31433	  0.16368	  2.07416	  2.13917	 -0.16329	  4.94959	706.31598	 23.80	
 13.608	  7.147	  4.47698	  4.30255	  0.17273	  2.33430	  1.88575	 -0.16498	  4.94932	706.36700	 23.80	
 13.611	 14.417	  4.48892	  4.26480	  0.20885	  2.60154	  1.64135	 -0.17114	  4.96210	706.31097	 23.80	
 13.601	 21.647	  4.48051	  4.16992	  0.27858	  2.85373	  1.40640	 -0.16891	  4.94574	706.33002	 23.90	
 13.609	 28.790	  4.49104	  4.06406	  0.36812	  3.10722	  1.19016	 -0.16417	  4.95212	706.36298	 23.80	
 13.611	 36.001	  4.49363	  3.92006	  0.48236	  3.34286	  0.99393	 -0.15793	  4.95479	706.20599	 23.90	
 13.601	 43.175	  4.48932	  3.73687	  0.62367	  3.54786	  0.81756	 -0.14879	  4.94266	706.41498	 23.90	
 13.596	 50.360	  4.50901	  3.54985	  0.79166	  3.75775	  0.67024	 -0.14700	  4.96031	706.35303	 23.80	
 13.611	 57.569	  4.50987	  3.32916	  0.97951	  3.92541	  0.53739	 -0.14847	  4.95822	706.14203	 23.90	
 13.604	 64.789	  4.52417	  3.09672	  1.19066	  4.07178	  0.43564	 -0.15199	  4.96410	706.28003	 23.80	
 13.595	 71.958	  4.51491	  2.83836	  1.41427	  4.16411	  0.35874	 -0.15682	  4.95008	706.21100	 23.80	
 13.607	 79.207	  4.52529	  2.58450	  1.65689	  4.24294	  0.30757	 -0.16469	  4.95344	706.38702	 23.90	
 13.601	 86.383	  4.53991	  2.33353	  1.91341	  4.28907	  0.28570	 -0.17050	  4.96322	706.45898	 23.80	
 13.601	 93.617	  4.53857	  2.07060	  2.17237	  4.28689	  0.28456	 -0.17550	  4.95253	706.31299	 23.80	
 13.607	100.793	  4.54117	  1.82135	  2.43259	  4.25679	  0.30969	 -0.18213	  4.95213	706.30103	 23.80	
 13.595	108.042	  4.55551	  1.58183	  2.70168	  4.19909	  0.36537	 -0.18256	  4.96048	706.42200	 23.80	
 13.604	115.211	  4.55325	  1.35207	  2.95348	  4.09703	  0.44176	 -0.18181	  4.95510	706.35498	 23.80	
 13.611	122.431	  4.56142	  1.14460	  3.20288	  3.96971	  0.54729	 -0.17872	  4.96250	706.26801	 23.80	
 13.596	129.640	  4.55981	  0.95450	  3.42580	  3.79945	  0.68016	 -0.17006	  4.95371	706.42297	 23.80	
 13.601	136.825	  4.55555	  0.78366	  3.62838	  3.60569	  0.83558	 -0.16293	  4.94825	706.32898	 23.80	
 13.611	143.999	  4.57550	  0.63787	  3.82593	  3.40901	  1.00950	 -0.16412	  4.96844	706.37701	 23.80	
 13.609	151.210	  4.55756	  0.51452	  3.96411	  3.16402	  1.20411	 -0.16469	  4.94714	706.31799	 23.80	
 13.601	158.353	  4.56546	  0.42288	  4.08998	  2.92057	  1.42529	 -0.16955	  4.95449	706.44800	 23.80	
 13.611	165.583	  4.57384	  0.34908	  4.18872	  2.66877	  1.65921	 -0.17438	  4.96570	706.33899	 23.80	
 13.608	172.853	  4.55469	  0.30563	  4.22681	  2.39699	  1.90023	 -0.17670	  4.95055	706.24200	 23.80	
 15.298	173.587	  4.43696	  0.00617	  4.39595	  2.30095	  1.79845	 -0.21042	  4.96138	706.15002	 23.80	
 15.291	167.167	  4.42610	  0.04469	  4.33637	  2.55185	  1.55290	 -0.21102	  4.94653	706.30103	 23.80	
 15.307	160.676	  4.42972	  0.10602	  4.25961	  2.81401	  1.31654	 -0.20751	  4.94729	706.37201	 23.80	
 15.300	154.261	  4.44248	  0.19330	  4.16050	  3.07710	  1.09767	 -0.20459	  4.96333	706.24200	 23.80	
 15.288	147.854	  4.43038	  0.30013	  4.01170	  3.30602	  0.89477	 -0.19646	  4.94939	706.37500	 23.80	
 15.293	141.428	  4.44259	  0.43014	  3.85548	  3.54036	  0.70992	 -0.19651	  4.96058	706.37701	 23.80	
 15.299	134.985	  4.42250	  0.57654	  3.65129	  3.73341	  0.53893	 -0.19791	  4.94352	706.36102	 23.80	
 15.305	128.583	  4.43976	  0.74791	  3.45572	  3.93673	  0.39643	 -0.20290	  4.96487	706.30402	 23.80	
 15.309	122.142	  4.42080	  0.93417	  3.21417	  4.08175	  0.27023	 -0.20606	  4.94824	706.26001	 23.80	
 15.304	115.711	  4.42428	  1.14291	  2.97412	  4.21611	  0.17293	 -0.20718	  4.95524	706.25702	 23.80	
 15.297	109.291	  4.42438	  1.36445	  2.72298	  4.32302	  0.09447	 -0.20831	  4.95894	706.29102	 23.80	
 15.293	102.897	  4.40870	  1.59676	  2.45714	  4.38595	  0.03423	 -0.20510	  4.94984	706.27698	 23.80	
 15.293	 96.458	  4.41443	  1.84462	  2.19872	  4.43884	 -0.00051	 -0.20237	  4.96167	706.36700	 23.80	
 15.300	 90.000	  4.40358	  2.09731	  1.93477	  4.44508	 -0.01509	 -0.19814	  4.95789	706.37799	 23.80	
 15.293	 83.542	  4.39589	  2.35202	  1.67455	  4.41933	 -0.00377	 -0.19506	  4.95173	706.39099	 23.80	
 15.293	 77.103	  4.39779	  2.61633	  1.43174	  4.37500	  0.03216	 -0.19060	  4.96274	706.39099	 23.80	
 15.297	 70.709	  4.38888	  2.86566	  1.19659	  4.29084	  0.08864	 -0.18564	  4.95664	706.37799	 23.80	
 15.304	 64.289	  4.37541	  3.10885	  0.97351	  4.17361	  0.16680	 -0.18124	  4.95046	706.41101	 23.80	
 15.309	 57.858	  4.37623	  3.35017	  0.76993	  4.04413	  0.26188	 -0.17528	  4.96063	706.24902	 23.80	
 15.305	 51.417	  4.36198	  3.56466	  0.58283	  3.87098	  0.38401	 -0.17083	  4.94916	706.33301	 23.80	
 15.299	 45.015	  4.36198	  3.77052	  0.41819	  3.68251	  0.52997	 -0.17383	  4.95427	706.21399	 23.80	
 15.293	 38.572	  4.36560	  3.95917	  0.27428	  3.47321	  0.70090	 -0.17772	  4.95968	706.15802	 23.80	
 15.288	 32.146	  4.36834	  4.12274	  0.15059	  3.25098	  0.88546	 -0.17997	  4.96963	706.30798	 23.80	
 15.300	 25.739	  4.35675	  4.24678	  0.04749	  3.00605	  1.08355	 -0.18275	  4.96225	706.33600	 23.80	
 15.307	 19.324	  4.34556	  4.33887	 -0.02914	  2.74586	  1.30367	 -0.18352	  4.95303	706.15503	 23.80	
 15.291	 12.833	  4.33870	  4.40523	 -0.08497	  2.48169	  1.53943	 -0.18181	  4.94634	706.29102	 23.80	
 15.298	  6.413	  4.33869	  4.44842	 -0.11741	  2.22553	  1.77946	 -0.18176	  4.94703	706.33899	 23.80	
 15.300	  0.000	  4.34226	  4.46426	 -0.12826	  1.96834	  2.03557	 -0.17508	  4.95311	706.27002	 23.80	
 15.298	 -6.413	  4.35359	  4.46241	 -0.11809	  1.72082	  2.29686	 -0.17817	  4.97048	706.19702	 23.80	
 15.291	-12.833	  4.34516	  4.40214	 -0.08350	  1.47247	  2.55073	 -0.18052	  4.95904	706.25702	 23.80	
 15.307	-19.324	  4.33203	  4.31148	 -0.02588	  1.23190	  2.80288	 -0.18665	  4.94484	706.36401	 23.80	
 15.300	-25.739	  4.33968	  4.20955	  0.05610	  1.01714	  3.05573	 -0.18658	  4.95224	706.28497	 23.80	
 15.288	-32.146	  4.33648	  4.06759	  0.16044	  0.81622	  3.28865	 -0.18528	  4.94546	706.26599	 23.80	
 15.293	-38.572	  4.34577	  3.91406	  0.28546	  0.62998	  3.52409	 -0.18802	  4.96140	706.28802	 23.80	
 15.299	-45.015	  4.33783	  3.71335	  0.43062	  0.46152	  3.72375	 -0.19053	  4.94819	706.16998	 23.80	
 15.305	-51.417	  4.34285	  3.50807	  0.60195	  0.32232	  3.90664	 -0.19691	  4.94924	706.26001	 23.80	
 15.309	-57.858	  4.35514	  3.28856	  0.78967	  0.19953	  4.07747	 -0.19651	  4.96032	706.37500	 23.90	
 15.304	-64.289	  4.35052	  3.03922	  0.99525	  0.10028	  4.20469	 -0.19390	  4.95175	706.31500	 23.90	
 15.297	-70.709	  4.34455	  2.78085	  1.21587	  0.02112	  4.30237	 -0.19546	  4.94161	706.33002	 23.90	
 15.293	-77.103	  4.34999	  2.52438	  1.45134	 -0.03767	  4.38342	 -0.19929	  4.94624	706.22803	 23.90	
 15.293	-83.542	  4.35055	  2.26349	  1.69832	 -0.06841	  4.42767	 -0.20455	  4.94098	706.32501	 23.90	
 15.300	-90.000	  4.36427	  2.00901	  1.95635	 -0.08139	  4.45470	 -0.20756	  4.95247	706.38300	 23.90	
 15.293	-96.458	  4.37706	  1.75779	  2.22328	 -0.06372	  4.44629	 -0.21199	  4.96050	706.38702	 23.90	
 15.293	-102.897	  4.36828	  1.50739	  2.47887	 -0.02729	  4.38686	 -0.21593	  4.94523	706.37000	 23.90	
 15.297	-109.291	  4.37157	  1.27890	  2.73663	  0.03210	  4.31281	 -0.21249	  4.94386	706.38000	 23.90	
 15.304	-115.711	  4.38609	  1.06350	  2.99594	  0.11376	  4.21788	 -0.21042	  4.95639	706.38702	 23.80	
 15.309	-122.142	  4.39082	  0.86133	  3.23894	  0.21924	  4.08377	 -0.20429	  4.95722	706.40601	 23.80	
 15.305	-128.583	  4.38198	  0.67295	  3.45676	  0.34693	  3.91099	 -0.19963	  4.94023	706.23700	 23.80	
 15.299	-134.985	  4.39614	  0.51127	  3.67389	  0.49148	  3.73908	 -0.20386	  4.95321	706.15900	 23.80	
 15.293	-141.428	  4.39328	  0.37058	  3.85116	  0.66456	  3.52413	 -0.20856	  4.93916	706.26501	 23.90	
 15.288	-147.854	  4.39325	  0.25097	  4.01102	  0.85629	  3.29640	 -0.21674	  4.93897	706.33002	 23.80	
 15.300	-154.261	  4.41846	  0.15465	  4.16675	  1.06638	  3.07395	 -0.22591	  4.95880	706.26599	 23.80	
 15.307	-160.676	  4.42277	  0.07752	  4.27486	  1.28853	  2.82638	 -0.22925	  4.95890	706.36298	 23.80	
 15.291	-167.167	  4.42151	  0.02603	  4.34464	  1.53314	  2.56162	 -0.22639	  4.95362	706.14899	 23.90	
 15.298	-173.587	  4.42408	 -0.00320	  4.39037	  1.78019	  2.30442	 -0.21983	  4.95201	706.13202	 23.80	
 15.300	180.000	  4.43028	 -0.00740	  4.40840	  2.03521	  2.05284	 -0.21281	  4.95289	706.15503	 23.80	
 17.000	180.000	  4.28908	 -0.29303	  4.54889	  1.92760	  1.94016	 -0.23819	  4.96192	706.23102	 23.90	
 16.990	-174.179	  4.27164	 -0.28770	  4.52273	  1.66904	  2.18704	 -0.24436	  4.94555	706.13599	 23.90	
 17.009	-168.383	  4.28035	 -0.26783	  4.49899	  1.42814	  2.44805	 -0.25014	  4.96208	706.17297	 23.90	
 17.000	-162.596	  4.26252	 -0.21747	  4.41285	  1.18542	  2.69912	 -0.24793	  4.94638	706.21802	 23.80	
 16.990	-156.759	  4.25837	 -0.14838	  4.31634	  0.96234	  2.94614	 -0.25000	  4.94575	706.14203	 23.90	
 16.995	-150.919	  4.24860	 -0.06747	  4.18841	  0.75021	  3.18688	 -0.24455	  4.93912	706.25098	 23.90	
 16.988	-145.161	  4.25720	  0.03745	  4.04988	  0.55461	  3.42706	 -0.24066	  4.95234	706.13202	 23.90	
 17.014	-139.343	  4.25097	  0.15723	  3.88151	  0.37419	  3.64505	 -0.23818	  4.95401	706.24500	 23.80	
 17.007	-133.546	  4.23847	  0.30219	  3.67885	  0.21822	  3.83345	 -0.22800	  4.94286	706.21997	 23.80	
 17.001	-127.699	  4.23935	  0.46772	  3.46899	  0.07854	  4.01713	 -0.22641	  4.94764	706.18903	 23.80	
 17.006	-121.937	  4.23209	  0.64793	  3.24151	 -0.04401	  4.17526	 -0.22590	  4.94808	706.23700	 23.80	
 17.002	-116.134	  4.22995	  0.84515	  2.99984	 -0.14704	  4.30937	 -0.22473	  4.94956	706.19501	 23.80	
 17.001	-110.310	  4.22840	  1.05699	  2.75325	 -0.22793	  4.42005	 -0.22510	  4.95313	706.14899	 23.80	
 16.988	-104.517	  4.22152	  1.28448	  2.49359	 -0.28509	  4.49491	 -0.22289	  4.94985	706.23901	 23.80	
 17.008	-98.662	  4.22494	  1.52309	  2.23821	 -0.32993	  4.55918	 -0.21409	  4.95997	706.22302	 23.80	
 16.996	-92.909	  4.21310	  1.76457	  1.97936	 -0.34861	  4.57265	 -0.20646	  4.94894	706.18597	 23.80	
 16.996	-87.091	  4.21581	  2.02064	  1.72387	 -0.35423	  4.58123	 -0.20109	  4.95712	706.15002	 23.80	
 17.012	-81.253	  4.19655	  2.27164	  1.46930	 -0.33648	  4.54083	 -0.18900	  4.94275	706.20599	 23.80	
 16.988	-75.483	  4.20725	  2.53669	  1.23497	 -0.29683	  4.49820	 -0.18808	  4.95462	706.07703	 23.80	
 17.001	-69.690	  4.19790	  2.78842	  1.00047	 -0.24599	  4.41485	 -0.18632	  4.95230	706.13300	 23.80	
 17.002	-63.866	  4.19963	  3.04233	  0.78954	 -0.16291	  4.31031	 -0.18796	  4.95553	706.11603	 23.80	
 17.006	-58.063	  4.19426	  3.28009	  0.58933	 -0.06381	  4.16998	 -0.19479	  4.94858	706.10400	 23.80	
 17.001	-52.301	  4.18852	  3.50445	  0.40549	  0.05530	  4.00576	 -0.19140	  4.94590	706.11603	 23.80	
 17.007	-46.454	  4.18137	  3.71493	  0.23819	  0.18954	  3.82192	 -0.18816	  4.94104	706.17499	 23.90	
 17.014	-40.657	  4.17648	  3.90773	  0.08580	  0.33961	  3.62514	 -0.18832	  4.93910	706.28802	 23.90	
 16.988	-34.839	  4.19114	  4.09195	 -0.03920	  0.51758	  3.41781	 -0.18459	  4.95526	706.23700	 23.90	
 16.995	-29.081	  4.17344	  4.22495	 -0.14873	  0.70259	  3.17569	 -0.18786	  4.93478	706.23102	 23.90	
 16.990	-23.241	  4.17652	  4.35317	 -0.23953	  0.91150	  2.93354	 -0.19106	  4.94019	706.11902	 23.90	
 17.000	-17.404	  4.17925	  4.45542	 -0.31282	  1.12884	  2.68551	 -0.18479	  4.94557	706.15503	 23.90	
 17.009	-11.617	  4.18388	  4.53371	 -0.36038	  1.36355	  2.43521	 -0.18208	  4.95031	706.06799	 23.90	
 16.990	 -5.821	  4.18651	  4.57368	 -0.38995	  1.60482	  2.17881	 -0.17427	  4.95147	706.11603	 23.90	
 17.000	  0.000	  4.18233	  4.58928	 -0.40244	  1.85255	  1.92476	 -0.17202	  4.94832	706.33301	 23.90	
 16.990	  5.821	  4.18031	  4.57513	 -0.39407	  2.10795	  1.67119	 -0.17586	  4.94571	706.30103	 23.90	
 17.009	 11.617	  4.18477	  4.54526	 -0.36529	  2.36566	  1.43636	 -0.17881	  4.94885	706.19702	 23.90	
 17.000	 17.404	  4.18805	  4.48124	 -0.31543	  2.62090	  1.20420	 -0.17979	  4.94959	706.25897	 23.90	
 16.990	 23.241	  4.19232	  4.39091	 -0.24777	  2.87888	  0.98205	 -0.18019	  4.94963	706.29602	 23.90	
 16.995	 29.081	  4.19161	  4.26826	 -0.15611	  3.12001	  0.77565	 -0.18184	  4.94534	706.32098	 23.90	
 16.988	 34.839	  4.20043	  4.13210	 -0.05157	  3.35699	  0.58968	 -0.18535	  4.95113	706.15802	 23.90	
 17.014	 40.657	  4.19767	  3.96467	  0.07043	  3.57883	  0.40949	 -0.18711	  4.94599	706.28998	 23.90	
 17.007	 46.454	  4.21008	  3.78254	  0.21846	  3.79163	  0.25447	 -0.19455	  4.95577	706.19397	 23.90	
 17.001	 52.301	  4.21075	  3.57140	  0.38431	  3.97172	  0.11907	 -0.19369	  4.95103	706.19000	 23.90	
 17.006	 58.063	  4.21571	  3.35149	  0.56219	  4.13521	  0.00118	 -0.19677	  4.95053	706.23401	 23.90	
 17.002	 63.866	  4.22638	  3.12177	  0.75930	  4.27928	 -0.10083	 -0.19892	  4.95649	706.25098	 23.90	
 17.001	 69.690	  4.23194	  2.87516	  0.97390	  4.39728	 -0.17973	 -0.20387	  4.95664	706.29102	 23.90	
 16.988	 75.483	  4.22819	  2.61680	  1.19843	  4.47141	 -0.23707	 -0.20558	  4.94510	706.14899	 23.90	
 17.012	 81.253	  4.23530	  2.36601	  1.43451	  4.53748	 -0.28190	 -0.20840	  4.94909	706.13202	 23.90	
 16.996	 87.091	  4.24682	  2.11168	  1.68797	  4.56996	 -0.29513	 -0.20801	  4.95336	706.26501	 23.90	
 16.996	 92.909	  4.24330	  1.85480	  1.94370	  4.56382	 -0.29194	 -0.20623	  4.94125	706.29602	 23.90	
 17.008	 98.662	  4.26055	  1.61481	  2.20395	  4.55610	 -0.27537	 -0.20801	  4.95499	706.15601	 23.90	
 16.988	104.517	  4.26252	  1.37419	  2.46689	  4.50005	 -0.23412	 -0.21038	  4.95057	706.28198	 23.90	
 17.001	110.310	  4.26831	  1.14641	  2.72351	  4.42450	 -0.17356	 -0.21735	  4.95190	706.29602	 23.90	
 17.002	116.134	  4.26876	  0.92891	  2.97406	  4.31294	 -0.09382	 -0.21886	  4.94368	706.20300	 23.90	
 17.006	121.937	  4.27552	  0.72941	  3.21866	  4.18487	  0.00500	 -0.22255	  4.94860	706.29901	 23.90	
 17.001	127.699	  4.28243	  0.54599	  3.45347	  4.03357	  0.12042	 -0.22643	  4.95365	706.28198	 23.90	
 17.007	133.546	  4.28891	  0.37433	  3.67219	  3.85960	  0.25664	 -0.22342	  4.95785	706.07397	 23.90	
 17.014	139.343	  4.27908	  0.22025	  3.85984	  3.64895	  0.41122	 -0.22439	  4.94642	706.26001	 23.80	
 16.988	145.161	  4.27959	  0.09495	  4.02934	  3.42585	  0.59025	 -0.22463	  4.94018	706.21100	 23.80	
 16.995	150.919	  4.28646	 -0.01837	  4.18631	  3.20030	  0.78138	 -0.23103	  4.95033	706.17798	 23.80	
 16.990	156.759	  4.28931	 -0.11123	  4.31431	  2.95920	  0.98868	 -0.23434	  4.95416	706.21198	 23.80	
 17.000	162.596	  4.28708	 -0.18640	  4.41235	  2.70172	  1.21157	 -0.23900	  4.95194	706.10498	 23.90	
 17.009	168.383	  4.28492	 -0.24368	  4.48402	  2.44427	  1.44270	 -0.23948	  4.95184	706.17798	 23.80	
 16.990	174.179	  4.28713	 -0.27611	  4.52751	  2.18835	  1.68553	 -0.23715	  4.95508	706.18103	 23.90	
 18.709	174.675	  4.12314	 -0.54923	  4.64622	  2.06823	  1.56599	 -0.25399	  4.95360	706.30499	 23.80	
 18.703	169.441	  4.11950	 -0.51800	  4.60513	  2.31694	  1.32937	 -0.25679	  4.94879	706.19800	 23.80	
 18.691	164.085	  4.11887	 -0.46582	  4.53508	  2.57442	  1.09626	 -0.25886	  4.94213	706.11798	 23.80	
 18.706	158.818	  4.13088	 -0.40309	  4.46155	  2.83530	  0.87854	 -0.25593	  4.95764	706.27301	 23.90	
 18.695	153.537	  4.12325	 -0.32185	  4.33822	  3.07214	  0.67029	 -0.24926	  4.94570	706.23901	 23.90	
 18.704	148.255	  4.12141	 -0.22373	  4.20151	  3.30900	  0.47661	 -0.24598	  4.94537	706.20001	 23.90	
 18.698	142.952	  4.13540	 -0.10354	  4.05263	  3.54838	  0.29972	 -0.24333	  4.96134	706.14203	 23.80	
 18.699	137.625	  4.12200	  0.02821	  3.85912	  3.75121	  0.13418	 -0.23732	  4.94544	706.14697	 23.80	
 18.705	132.343	  4.12061	  0.17919	  3.66044	  3.94173	 -0.00837	 -0.23458	  4.94650	706.17999	 23.90	
 18.713	127.067	  4.12879	  0.34180	  3.45614	  4.13169	 -0.14162	 -0.23117	  4.96488	706.11798	 23.90	
 18.700	121.794	  4.10215	  0.52197	  3.20635	  4.26156	 -0.25030	 -0.22192	  4.93474	706.08801	 23.90	
 18.698	116.504	  4.11583	  0.72009	  2.97834	  4.41124	 -0.34801	 -0.21625	  4.95763	706.26599	 23.90	
 18.707	111.165	  4.10006	  0.92646	  2.71894	  4.50776	 -0.42809	 -0.21047	  4.94629	706.22900	 23.90	
 18.690	105.863	  4.10448	  1.15099	  2.46906	  4.59434	 -0.48316	 -0.20440	  4.95111	706.28802	 23.90	
 18.696	100.583	  4.09379	  1.37879	  2.20588	  4.64522	 -0.52779	 -0.19754	  4.94717	706.25098	 23.90	
 18.700	 95.309	  4.10002	  1.62103	  1.95798	  4.68915	 -0.55454	 -0.19483	  4.96357	706.19800	 23.90	
 18.700	 90.000	  4.08754	  1.86502	  1.69773	  4.68944	 -0.56383	 -0.19824	  4.95277	706.33899	 23.90	
 18.700	 84.691	  4.06802	  2.11143	  1.44367	  4.65604	 -0.55192	 -0.20626	  4.93462	706.23700	 23.90	
 18.696	 79.417	  4.08107	  2.37162	  1.20563	  4.63847	 -0.53085	 -0.21129	  4.96012	706.28198	 23.90	
 18.690	 74.137	  4.06993	  2.61832	  0.97615	  4.56575	 -0.48705	 -0.21328	  4.95309	706.22803	 23.90	
 18.707	 68.835	  4.05835	  2.86400	  0.75138	  4.47273	 -0.43329	 -0.21275	  4.94964	706.36401	 23.90	
 18.698	 63.496	  4.04476	  3.10377	  0.54253	  4.34763	 -0.35316	 -0.21120	  4.94010	706.36401	 23.90	
 18.700	 58.206	  4.04013	  3.33659	  0.35432	  4.20747	 -0.25680	 -0.21226	  4.94031	706.24200	 23.90	
 18.713	 52.933	  4.04601	  3.56847	  0.17481	  4.06031	 -0.14755	 -0.20793	  4.95692	706.29303	 23.90	
 18.705	 47.657	  4.03712	  3.77039	  0.01626	  3.86988	 -0.01586	 -0.20553	  4.94635	706.30701	 23.90	
 18.699	 42.375	  4.03086	  3.95847	 -0.13260	  3.67246	  0.12417	 -0.19893	  4.94615	706.28802	 23.90	
 18.698	 37.048	  4.02387	  4.12993	 -0.26050	  3.45530	  0.28527	 -0.18782	  4.94504	706.24597	 23.90	
 18.704	 31.745	  4.02830	  4.29210	 -0.37213	  3.22864	  0.47094	 -0.17832	  4.95405	706.19800	 23.90	
 18.695	 26.463	  4.02306	  4.41673	 -0.46324	  2.98581	  0.66103	 -0.17237	  4.94728	706.12402	 23.90	
 18.706	 21.182	  4.02615	  4.53102	 -0.54627	  2.74633	  0.86420	 -0.16863	  4.95993	706.20599	 23.90	
 18.691	 15.915	  4.02753	  4.61394	 -0.60257	  2.49582	  1.08979	 -0.16976	  4.96536	706.20398	 23.90	
 18.703	 10.559	  4.01561	  4.66145	 -0.64360	  2.22969	  1.31990	 -0.16719	  4.95222	706.18298	 23.90	
 18.709	  5.325	  4.01783	  4.69977	 -0.67137	  1.98340	  1.55344	 -0.16578	  4.95917	706.18298	 23.90	
 18.700	  0.000	  4.00998	  4.69820	 -0.67376	  1.72594	  1.80107	 -0.16618	  4.94808	706.12500	 23.90	
 18.709	 -5.325	  4.00824	  4.68262	 -0.66756	  1.47966	  2.05091	 -0.16984	  4.94809	706.27600	 23.90	
 18.703	-10.559	  4.01008	  4.64563	 -0.64230	  1.24454	  2.30060	 -0.17306	  4.94859	706.14697	 23.90	
 18.691	-15.915	  4.00456	  4.57344	 -0.59683	  1.00793	  2.55608	 -0.17787	  4.93879	706.24298	 23.90	
 18.706	-21.182	  4.01437	  4.49722	 -0.53883	  0.79323	  2.80756	 -0.18187	  4.94918	706.26801	 23.90	
 18.695	-26.463	  4.02093	  4.38917	 -0.45565	  0.59277	  3.05595	 -0.18683	  4.95701	706.21399	 23.90	
 18.704	-31.745	  4.01567	  4.24737	 -0.36073	  0.39706	  3.29037	 -0.18858	  4.95002	706.28400	 23.90	
 18.698	-37.048	  4.01770	  4.08881	 -0.24601	  0.22113	  3.51380	 -0.18031	  4.94956	706.23700	 23.90	
 18.699	-42.375	  4.02649	  3.91725	 -0.11432	  0.06014	  3.73038	 -0.18738	  4.95870	706.19397	 23.90	
 18.705	-47.657	  4.00850	  3.70181	  0.03076	 -0.09092	  3.90956	 -0.18342	  4.93896	706.14899	 23.90	
 18.713	-52.933	  4.01255	  3.48913	  0.19250	 -0.21832	  4.08703	 -0.18432	  4.94043	706.16602	 23.90	
 18.700	-58.206	  4.02623	  3.26901	  0.37224	 -0.33180	  4.25699	 -0.17706	  4.95736	706.25299	 23.90	
 18.698	-63.496	  4.02647	  3.03027	  0.57017	 -0.41817	  4.38211	 -0.16929	  4.95132	706.23401	 23.90	
 18.707	-68.835	  4.02420	  2.77759	  0.78047	 -0.49503	  4.48745	 -0.17025	  4.94594	706.29102	 23.90	
 18.690	-74.137	  4.02517	  2.52188	  1.00397	 -0.55045	  4.56556	 -0.17132	  4.93826	706.29102	 23.90	
 18.696	-79.417	  4.04067	  2.27519	  1.23878	 -0.59132	  4.63840	 -0.17443	  4.95392	706.37701	 23.90	
 18.700	-84.691	  4.02903	  2.01288	  1.47427	 -0.61597	  4.66173	 -0.18105	  4.93801	706.35999	 23.90	
 18.700	-90.000	  4.04143	  1.75942	  1.72703	 -0.62968	  4.68624	 -0.18631	  4.94811	706.23700	 23.90	
 18.700	-95.309	  4.04783	  1.51440	  1.98259	 -0.61884	  4.67792	 -0.19639	  4.95142	706.44598	 23.90	
 18.696	-100.583	  4.04404	  1.27827	  2.23686	 -0.58535	  4.63214	 -0.20749	  4.93918	706.32397	 23.90	
 18.690	-105.863	  4.04919	  1.04677	  2.49123	 -0.54088	  4.57282	 -0.21377	  4.94183	706.46997	 23.90	
 18.707	-111.165	  4.06137	  0.83069	  2.75091	 -0.47994	  4.50057	 -0.22610	  4.95326	706.31799	 23.90	
 18.698	-116.504	  4.06385	  0.62597	  2.99810	 -0.39909	  4.38843	 -0.23470	  4.94850	706.29797	 23.90	
 18.700	-121.794	  4.06059	  0.43214	  3.23088	 -0.30440	  4.25043	 -0.23687	  4.94030	706.27600	 23.90	
 18.713	-127.067	  4.07352	  0.25656	  3.46469	 -0.19029	  4.10854	 -0.24452	  4.95350	706.31097	 23.90	
 18.705	-132.343	  4.08062	  0.10024	  3.68201	 -0.05314	  3.93401	 -0.25345	  4.95340	706.21802	 23.90	
 18.699	-137.625	  4.07218	 -0.03969	  3.86371	  0.10075	  3.72696	 -0.25627	  4.93705	706.18903	 23.90	
 18.698	-142.952	  4.08385	 -0.16816	  4.05263	  0.26512	  3.52330	 -0.25931	  4.94630	706.39203	 23.90	
 18.704	-148.255	  4.08625	 -0.27839	  4.20731	  0.44658	  3.29741	 -0.25709	  4.94362	706.23499	 23.90	
 18.695	-153.537	  4.08947	 -0.36665	  4.34029	  0.64712	  3.05779	 -0.25263	  4.93614	706.27698	 23.90	
 18.706	-158.818	  4.09864	 -0.44219	  4.45832	  0.85621	  2.82057	 -0.25539	  4.94939	706.29901	 23.90	
 18.691	-164.085	  4.09109	 -0.49418	  4.52864	  1.07479	  2.56722	 -0.25474	  4.93307	706.36298	 23.90	
 18.703	-169.441	  4.11896	 -0.53525	  4.61770	  1.32213	  2.32376	 -0.25903	  4.96135	706.37799	 23.90	
 18.709	-174.675	  4.10248	 -0.55262	  4.63284	  1.55597	  2.06476	 -0.25209	  4.93942	706.30103	 23.90	
 18.700	180.000	  4.11844	 -0.55997	  4.65738	  1.80862	  1.81826	 -0.24948	  4.95199	706.18597	 23.90	
 20.400	180.000	  3.92978	 -0.84707	  4.74667	  1.66854	  1.67178	 -0.24607	  4.94349	706.23102	 23.90	
 20.401	-175.153	  3.93166	 -0.85036	  4.75074	  1.42370	  1.91840	 -0.24429	  4.95361	706.04602	 23.90	
 20.407	-170.264	  3.91000	 -0.82947	  4.69522	  1.17699	  2.16203	 -0.24152	  4.93079	706.20801	 23.90	
 20.410	-165.423	  3.92170	 -0.79788	  4.65696	  0.94781	  2.42095	 -0.24167	  4.94798	706.33801	 23.90	
 20.392	-160.496	  3.91393	 -0.74523	  4.57130	  0.72605	  2.66723	 -0.24243	  4.93970	706.26001	 23.90	
 20.401	-155.705	  3.90877	 -0.68987	  4.47344	  0.51398	  2.90979	 -0.23990	  4.94316	706.22803	 23.90	
 20.405	-150.835	  3.91307	 -0.61257	  4.36148	  0.31164	  3.15729	 -0.24717	  4.95561	706.27002	 23.90	
 20.397	-145.903	  3.90801	 -0.51406	  4.21109	  0.12442	  3.38927	 -0.25620	  4.95274	706.21198	 23.90	
 20.392	-141.062	  3.89848	 -0.40073	  4.03917	 -0.04436	  3.60010	 -0.25693	  4.94575	706.08197	 23.90	
 20.396	-136.227	  3.88658	 -0.27445	  3.84874	 -0.20677	  3.80069	 -0.25733	  4.93998	706.15503	 23.90	
 20.408	-131.372	  3.89327	 -0.13960	  3.65858	 -0.35393	  4.00256	 -0.25508	  4.95441	706.17200	 23.90	
 20.410	-126.511	  3.88854	  0.01836	  3.44361	 -0.47654	  4.17339	 -0.24671	  4.95406	706.22900	 23.90	
 20.400	-121.604	  3.88195	  0.19458	  3.21138	 -0.58462	  4.32143	 -0.24205	  4.95093	706.26801	 23.90	
 20.403	-116.741	  3.87193	  0.38137	  2.96735	 -0.67924	  4.44674	 -0.22734	  4.94345	706.29901	 23.90	
 20.413	-111.900	  3.86862	  0.57340	  2.72314	 -0.76423	  4.56051	 -0.21638	  4.94874	706.33801	 23.90	
 20.398	-107.004	  3.86587	  0.79062	  2.47243	 -0.82543	  4.64764	 -0.20652	  4.94903	706.33600	 23.90	
 20.394	-102.132	  3.85842	  1.01421	  2.21381	 -0.87267	  4.71033	 -0.19203	  4.94437	706.34698	 23.90	
 20.403	-97.332	  3.85556	  1.24169	  1.96277	 -0.90821	  4.75537	 -0.18158	  4.94736	706.31299	 23.90	
 20.392	-92.440	  3.85414	  1.48604	  1.70942	 -0.92704	  4.77783	 -0.17414	  4.94945	706.31500	 23.90	
 20.392	-87.560	  3.84532	  1.73068	  1.45743	 -0.92644	  4.77095	 -0.16632	  4.94151	706.18903	 23.90	
 20.403	-82.668	  3.83717	  1.98200	  1.21007	 -0.91522	  4.74855	 -0.15945	  4.94142	706.31299	 23.90	
 20.394	-77.868	  3.84291	  2.23568	  0.97997	 -0.88717	  4.71299	 -0.16077	  4.94898	706.33899	 23.90	
 20.398	-72.996	  3.83177	  2.48838	  0.75222	 -0.84212	  4.63985	 -0.15524	  4.93939	706.40802	 23.90	
 20.413	-68.100	  3.82742	  2.73981	  0.53476	 -0.78102	  4.55090	 -0.15462	  4.94111	706.40302	 23.90	
 20.403	-63.259	  3.83344	  2.99055	  0.33525	 -0.70274	  4.44560	 -0.15895	  4.94859	706.20599	 23.90	
 20.400	-58.396	  3.83032	  3.22869	  0.14298	 -0.61466	  4.31292	 -0.16213	  4.94482	706.14398	 23.90	
 20.410	-53.489	  3.83090	  3.46252	 -0.03694	 -0.51062	  4.16520	 -0.16837	  4.95139	706.12402	 23.90	
 20.408	-48.628	  3.82020	  3.67099	 -0.20100	 -0.39193	  3.98258	 -0.16590	  4.94282	706.15900	 23.90	
 20.396	-43.773	  3.81990	  3.87286	 -0.34473	 -0.25083	  3.79289	 -0.17068	  4.93980	706.29602	 23.90	
 20.392	-38.938	  3.82540	  4.06356	 -0.47486	 -0.09641	  3.59435	 -0.16656	  4.94767	706.21198	 23.90	
 20.397	-34.097	  3.82258	  4.22829	 -0.59014	  0.06864	  3.37624	 -0.16896	  4.94741	706.14697	 23.90	
 20.405	-29.165	  3.81824	  4.37414	 -0.69346	  0.24809	  3.14301	 -0.16357	  4.94708	706.29797	 23.90	
 20.401	-24.295	  3.82176	  4.50485	 -0.77993	  0.44635	  2.90315	 -0.16762	  4.95143	706.33899	 23.90	
 20.392	-19.504	  3.83145	  4.61619	 -0.84864	  0.65173	  2.66551	 -0.17040	  4.96157	706.18903	 23.90	
 20.410	-14.577	  3.82081	  4.69017	 -0.90410	  0.86637	  2.40997	 -0.16251	  4.95160	706.37799	 23.90	
 20.407	 -9.736	  3.82129	  4.74757	 -0.94352	  1.09784	  2.15755	 -0.16243	  4.95349	706.36902	 24.00	
 20.401	 -4.847	  3.81738	  4.77588	 -0.96401	  1.33185	  1.90229	 -0.15671	  4.94461	706.24597	 24.00	
 20.400	  0.000	  3.81913	  4.79418	 -0.97371	  1.57407	  1.65970	 -0.15240	  4.95172	706.24597	 24.00	
 20.401	  4.847	  3.81666	  4.78145	 -0.96764	  1.82307	  1.40943	 -0.14902	  4.94447	706.26001	 24.00	
 20.407	  9.736	  3.82007	  4.75853	 -0.94623	  2.07442	  1.17463	 -0.15018	  4.95249	706.31097	 24.00	
 20.410	 14.577	  3.82661	  4.71274	 -0.90918	  2.33114	  0.94736	 -0.15158	  4.95466	706.19501	 24.00	
 20.392	 19.504	  3.82015	  4.62402	 -0.85187	  2.58298	  0.72251	 -0.14742	  4.94114	706.17499	 24.00	
 20.401	 24.295	  3.82158	  4.52873	 -0.78444	  2.82454	  0.52037	 -0.14990	  4.93984	706.25897	 24.00	
 20.405	 29.165	  3.82823	  4.41669	 -0.70687	  3.07119	  0.32458	 -0.15811	  4.94373	706.25403	 24.00	
 20.397	 34.097	  3.83087	  4.27349	 -0.60282	  3.30942	  0.14113	 -0.16660	  4.94455	706.22601	 24.00	
 20.392	 38.938	  3.84360	  4.12356	 -0.48976	  3.53795	 -0.02314	 -0.17750	  4.95351	706.19397	 24.00	
 20.396	 43.773	  3.84209	  3.94077	 -0.36084	  3.74123	 -0.17203	 -0.19121	  4.94626	706.26599	 24.00	
 20.408	 48.628	  3.83880	  3.73978	 -0.22107	  3.93222	 -0.31445	 -0.19530	  4.93816	706.20300	 24.00	
 20.410	 53.489	  3.85404	  3.54002	 -0.06221	  4.12434	 -0.44051	 -0.20633	  4.95506	706.21100	 24.00	
 20.400	 58.396	  3.85299	  3.31117	  0.11330	  4.27845	 -0.54556	 -0.20369	  4.94731	706.21198	 24.00	
 20.403	 63.259	  3.85760	  3.07726	  0.30456	  4.41518	 -0.63225	 -0.20665	  4.94036	706.21399	 24.00	
 20.413	 68.100	  3.86821	  2.84301	  0.50423	  4.53628	 -0.70823	 -0.20740	  4.94838	706.20300	 24.00	
 20.398	 72.996	  3.87986	  2.59887	  0.72154	  4.63805	 -0.76709	 -0.20634	  4.95303	706.24597	 24.00	
 20.394	 77.868	  3.87868	  2.34347	  0.94727	  4.70041	 -0.81031	 -0.20186	  4.94429	706.23499	 24.00	
 20.403	 82.668	  3.88124	  2.09489	  1.17494	  4.74694	 -0.83845	 -0.19416	  4.94354	706.21503	 24.00	
 20.392	 87.560	  3.88562	  1.84488	  1.41951	  4.76769	 -0.85087	 -0.18606	  4.93872	706.26801	 24.00	
 20.392	 92.440	  3.89320	  1.59830	  1.67547	  4.77065	 -0.84452	 -0.17866	  4.94099	706.32202	 24.00	
 20.403	 97.332	  3.89934	  1.35757	  1.92915	  4.75537	 -0.82857	 -0.17359	  4.94001	706.30499	 24.00	
 20.394	102.132	  3.90486	  1.12744	  2.18359	  4.71857	 -0.79883	 -0.17603	  4.93851	706.31799	 24.00	
 20.398	107.004	  3.92663	  0.90968	  2.45143	  4.67381	 -0.75382	 -0.18549	  4.95812	706.29602	 23.90	
 20.413	111.900	  3.91873	  0.69072	  2.69664	  4.57616	 -0.69426	 -0.18959	  4.94539	706.17999	 23.90	
 20.403	116.741	  3.93319	  0.49075	  2.95117	  4.48276	 -0.61829	 -0.20025	  4.95654	706.32898	 23.90	
 20.400	121.604	  3.92962	  0.29667	  3.18456	  4.34549	 -0.53205	 -0.20951	  4.94777	706.39502	 23.90	
 20.410	126.511	  3.92867	  0.11844	  3.41566	  4.18934	 -0.42483	 -0.22052	  4.94081	706.15900	 24.00	
 20.408	131.372	  3.93999	 -0.04155	  3.63885	  4.02323	 -0.29842	 -0.22923	  4.95112	706.35498	 24.00	
 20.396	136.227	  3.93885	 -0.18647	  3.83744	  3.82668	 -0.15877	 -0.23824	  4.94415	706.34698	 23.90	
 20.392	141.062	  3.93734	 -0.31842	  4.01869	  3.62177	 -0.00436	 -0.24395	  4.94054	706.33899	 23.90	
 20.397	145.903	  3.94153	 -0.44113	  4.18936	  3.40722	  0.15692	 -0.24635	  4.94482	706.38599	 23.90	
 20.405	150.835	  3.93368	 -0.54583	  4.33296	  3.16523	  0.34190	 -0.24742	  4.93517	706.34399	 23.90	
 20.401	155.705	  3.94904	 -0.63457	  4.47511	  2.93410	  0.53805	 -0.25427	  4.95476	706.25098	 23.90	
 20.392	160.496	  3.92841	 -0.70763	  4.55400	  2.67970	  0.73756	 -0.25577	  4.93028	706.43201	 23.90	
 20.410	165.423	  3.92956	 -0.76716	  4.63976	  2.42413	  0.95871	 -0.25813	  4.93472	706.41901	 23.90	
 20.407	170.264	  3.94239	 -0.80984	  4.71147	  2.17755	  1.19209	 -0.25808	  4.95002	706.47400	 23.90	
 20.401	175.153	  3.93213	 -0.83369	  4.73430	  1.92152	  1.42813	 -0.24900	  4.94023	706.51001	 23.90	
  0.141	 45.000	  4.95002	  2.60948	  2.48185	  2.55961	  2.57428	  0.04198	  4.94291	706.33301	 23.90	
  4.001	128.691	  4.93408	  2.18632	  2.80447	  2.96209	  2.08992	  0.01836	  4.93529	706.23901	 23.90	
  4.002	 76.995	  4.94440	  2.68473	  2.29903	  3.08456	  1.98736	  0.02071	  4.95202	706.24500	 23.90	
  4.002	 25.892	  4.92261	  3.09001	  1.91327	  2.73629	  2.26376	  0.01469	  4.93391	706.31299	 23.90	
  4.002	-25.892	  4.92258	  3.08327	  1.91611	  2.21713	  2.78604	  0.00727	  4.93884	706.33301	 23.90	
  4.002	-76.995	  4.92604	  2.65892	  2.29413	  1.92705	  3.12501	  0.00345	  4.93985	706.21503	 23.90	
  4.001	-128.691	  4.94466	  2.17134	  2.82130	  2.04572	  3.01086	  0.00998	  4.95166	706.26001	 23.90	
  4.000	180.000	  4.92943	  1.97621	  3.04593	  2.48189	  2.52440	  0.01501	  4.93193	706.18597	 23.90	
  8.000	180.000	  4.83612	  1.27918	  3.59791	  2.37931	  2.41519	 -0.04338	  4.92802	706.26202	 23.90	
  7.991	-152.370	  4.84443	  1.39589	  3.46138	  1.83281	  2.99796	 -0.05478	  4.94258	706.15198	 23.90	
  7.997	-124.550	  4.83807	  1.74242	  3.04629	  1.42040	  3.46293	 -0.05857	  4.94814	706.33301	 23.90	
  8.006	-96.837	  4.80795	  2.25228	  2.46666	  1.22339	  3.66786	 -0.07128	  4.92662	706.30499	 23.90	
  7.988	-69.228	  4.81760	  2.84744	  1.89717	  1.28425	  3.60004	 -0.07728	  4.94484	706.29901	 23.90	
  7.997	-41.563	  4.80104	  3.35190	  1.43733	  1.57103	  3.24368	 -0.06411	  4.93561	706.23499	 23.90	
  8.008	-13.821	  4.78952	  3.64382	  1.18467	  2.05712	  2.69445	 -0.06166	  4.92568	706.33801	 23.90	
  8.008	 13.821	  4.81131	  3.66666	  1.18542	  2.65104	  2.12069	 -0.05040	  4.94271	706.33002	 23.90	
  7.997	 41.563	  4.81331	  3.37968	  1.43127	  3.19183	  1.63357	 -0.03946	  4.93814	706.35999	 24.00	
  7.988	 69.228	  4.82131	  2.88016	  1.88052	  3.55152	  1.33972	 -0.03869	  4.93439	706.26001	 23.90	
  8.006	 96.837	  4.85357	  2.31166	  2.46354	  3.65781	  1.28621	 -0.04186	  4.95792	706.30402	 24.00	
  7.997	124.550	  4.83431	  1.77609	  3.01961	  3.42260	  1.46432	 -0.04456	  4.92999	706.27399	 24.00	
  7.991	152.370	  4.84620	  1.41936	  3.44637	  2.96331	  1.87484	 -0.04364	  4.93513	706.40802	 24.00	
 12.009	161.059	  4.66209	  0.66573	  3.97026	  2.82632	  1.66927	 -0.13387	  4.94792	706.29901	 24.00	
 12.013	142.081	  4.63954	  0.91628	  3.63750	  3.37463	  1.16750	 -0.12756	  4.92310	706.38300	 24.00	
 12.006	123.113	  4.65206	  1.32293	  3.17085	  3.81459	  0.81735	 -0.14146	  4.94466	706.29901	 24.00	
 12.007	104.200	  4.63422	  1.83761	  2.58083	  4.06185	  0.60838	 -0.14496	  4.93640	706.33002	 24.00	
 11.989	 85.301	  4.62636	  2.42727	  1.97373	  4.10616	  0.56719	 -0.13278	  4.93884	706.27698	 24.00	
 12.013	 66.294	  4.60712	  3.01675	  1.40718	  3.93176	  0.68373	 -0.12157	  4.93358	706.36902	 24.00	
 12.012	 47.388	  4.59763	  3.54150	  0.94692	  3.56936	  0.96843	 -0.11520	  4.93526	706.32098	 24.00	
 11.990	 28.440	  4.59578	  3.93020	  0.62843	  3.06387	  1.39370	 -0.13664	  4.94284	706.22198	 24.00	
 11.991	  9.464	  4.58629	  4.12823	  0.46631	  2.46996	  1.92940	 -0.13972	  4.94092	706.32098	 24.00	
 11.991	 -9.464	  4.56932	  4.10659	  0.46784	  1.86627	  2.51914	 -0.14122	  4.92428	706.32501	 24.00	
 11.990	-28.440	  4.58849	  3.90706	  0.63819	  1.33110	  3.12060	 -0.14583	  4.94477	706.23499	 24.00	
 12.012	-47.388	  4.59629	  3.50830	  0.96409	  0.90587	  3.62806	 -0.15484	  4.94823	706.36700	 24.00	
 12.013	-66.294	  4.59688	  2.96883	  1.43159	  0.62086	  3.97900	 -0.16754	  4.94362	706.30701	 24.00	
 11.989	-85.301	  4.59263	  2.35950	  1.99520	  0.50806	  4.12221	 -0.17108	  4.92775	706.28003	 24.00	
 12.007	-104.200	  4.60374	  1.77260	  2.60221	  0.55134	  4.07680	 -0.16191	  4.92980	706.30499	 24.00	
 12.006	-123.113	  4.62720	  1.26420	  3.18832	  0.76414	  3.83363	 -0.14313	  4.94394	706.25299	 24.00	
 12.013	-142.081	  4.64594	  0.87458	  3.67215	  1.13605	  3.40448	 -0.14022	  4.95213	706.28400	 24.00	
 12.009	-161.059	  4.64334	  0.63845	  3.97359	  1.62955	  2.84110	 -0.14935	  4.93924	706.24902	 24.00	
 16.000	180.000	  4.35866	 -0.12474	  4.45150	  1.98475	  2.00069	 -0.22271	  4.94184	706.25897	 24.00	
 15.990	-165.604	  4.35076	 -0.08137	  4.37816	  1.40351	  2.59679	 -0.23736	  4.94197	706.41101	 24.00	
 16.002	-151.165	  4.34054	  0.08641	  4.13770	  0.87915	  3.18097	 -0.23275	  4.94377	706.36902	 24.00	
 16.002	-136.836	  4.32925	  0.36689	  3.75333	  0.44350	  3.69879	 -0.21603	  4.94293	706.26501	 24.00	
 15.995	-122.439	  4.32320	  0.76357	  3.25112	  0.12244	  4.10599	 -0.21136	  4.94293	706.35498	 24.00	
 15.993	-107.966	  4.31067	  1.25194	  2.67249	 -0.09341	  4.38365	 -0.21930	  4.94528	706.34601	 24.00	
 16.005	-93.629	  4.28306	  1.80140	  2.05783	 -0.19047	  4.48464	 -0.20673	  4.92654	706.32202	 24.00	
 15.992	-79.234	  4.29530	  2.41143	  1.47496	 -0.16529	  4.46497	 -0.19428	  4.94890	706.36298	 24.00	
 16.009	-64.774	  4.27653	  3.00554	  0.93206	 -0.02188	  4.25525	 -0.18954	  4.93761	706.36298	 24.00	
 15.997	-50.364	  4.26852	  3.54879	  0.48215	  0.24074	  3.90296	 -0.19253	  4.93352	706.42603	 24.00	
 15.997	-36.045	  4.27069	  4.00292	  0.13159	  0.60649	  3.44145	 -0.18485	  4.94220	706.28802	 24.00	
 16.000	-21.597	  4.26465	  4.31882	 -0.10752	  1.07540	  2.88406	 -0.19076	  4.94051	706.43903	 24.00	
 16.003	 -7.169	  4.26864	  4.48714	 -0.22747	  1.62684	  2.28691	 -0.17766	  4.94136	706.46503	 24.00	
 16.003	  7.169	  4.26851	  4.49259	 -0.23036	  2.21682	  1.69502	 -0.17822	  4.94115	706.38000	 24.00	
 16.000	 21.597	  4.26420	  4.33543	 -0.11422	  2.81258	  1.14431	 -0.18133	  4.92994	706.42499	 24.00	
 15.997	 36.045	  4.27892	  4.03838	  0.11434	  3.37965	  0.67473	 -0.18156	  4.93664	706.48102	 24.00	
 15.997	 50.364	  4.29698	  3.61486	  0.45812	  3.86792	  0.30450	 -0.18329	  4.94890	706.51898	 24.00	
 16.009	 64.774	  4.30447	  3.08135	  0.90211	  4.22370	  0.04318	 -0.18773	  4.94492	706.41498	 24.00	
 15.992	 79.234	  4.31702	  2.49229	  1.43821	  4.43390	 -0.10319	 -0.20165	  4.94113	706.40002	 24.00	
 16.005	 93.629	  4.31930	  1.89051	  2.02737	  4.47324	 -0.13144	 -0.20670	  4.92911	706.43103	 24.00	
 15.993	107.966	  4.34879	  1.33740	  2.64348	  4.37930	 -0.03899	 -0.21340	  4.94636	706.46301	 24.00	
 15.995	122.439	  4.34874	  0.83680	  3.21992	  4.10132	  0.16880	 -0.21745	  4.93495	706.38599	 24.00	
 16.002	136.836	  4.36567	  0.42990	  3.73922	  3.70458	  0.48530	 -0.20909	  4.94932	706.39099	 24.00	
 16.002	151.165	  4.34904	  0.13191	  4.10902	  3.17252	  0.90589	 -0.21387	  4.92555	706.41498	 24.00	
 15.990	165.604	  4.35818	 -0.05424	  4.36295	  2.58764	  1.42721	 -0.22160	  4.93219	706.47101	 24.00	
 20.003	168.362	  3.98282	 -0.72338	  4.66524	  2.29659	  1.14994	 -0.25842	  4.94594	706.33899	 24.00	
 20.008	156.764	  3.97648	 -0.58433	  4.46677	  2.88347	  0.63017	 -0.25728	  4.93571	706.54999	 24.00	
 20.000	145.147	  3.98593	 -0.36081	  4.15684	  3.44452	  0.18827	 -0.25017	  4.94916	706.47699	 24.00	
 19.995	133.545	  3.97140	 -0.04864	  3.71454	  3.91553	 -0.17224	 -0.23564	  4.93126	706.51202	 24.00	
 20.009	121.926	  3.96557	  0.34017	  3.20046	  4.31227	 -0.45668	 -0.21522	  4.93947	706.57202	 24.00	
 20.005	110.327	  3.94825	  0.80568	  2.62346	  4.57011	 -0.64232	 -0.19223	  4.92674	706.43402	 24.00	
 19.989	 98.733	  3.93912	  1.32982	  2.02891	  4.71223	 -0.74595	 -0.18088	  4.92766	706.43402	 24.00	
 19.999	 87.075	  3.93683	  1.90422	  1.44026	  4.74751	 -0.77365	 -0.19110	  4.94302	706.51801	 24.00	
 19.992	 75.457	  3.91197	  2.47875	  0.88513	  4.62977	 -0.71201	 -0.20964	  4.93087	706.54401	 24.00	
 20.009	 63.844	  3.90764	  3.06044	  0.38689	  4.41340	 -0.57250	 -0.21121	  4.94212	706.57501	 24.00	
 19.989	 52.269	  3.88753	  3.58148	 -0.03564	  4.05295	 -0.33305	 -0.20312	  4.93269	706.33899	 24.00	
 19.999	 40.602	  3.87325	  4.03607	 -0.37945	  3.59472	 -0.01491	 -0.18546	  4.92963	706.36298	 24.00	
 20.004	 29.051	  3.87051	  4.39581	 -0.63394	  3.07011	  0.38791	 -0.16483	  4.93672	706.46997	 24.00	
 20.005	 17.433	  3.85051	  4.62607	 -0.80447	  2.48843	  0.86203	 -0.15225	  4.92546	706.45898	 24.00	
 20.006	  5.780	  3.85397	  4.74442	 -0.88947	  1.89918	  1.40104	 -0.15671	  4.93140	706.55798	 24.00	
 20.006	 -5.780	  3.85840	  4.74494	 -0.88675	  1.32828	  1.97757	 -0.15731	  4.93851	706.37000	 24.00	
 20.005	-17.433	  3.86226	  4.61926	 -0.79988	  0.78931	  2.57403	 -0.17042	  4.94328	706.46301	 24.10	
 20.004	-29.051	  3.86154	  4.36122	 -0.62520	  0.31232	  3.14167	 -0.17495	  4.93983	706.51300	 24.10	
 19.999	-40.602	  3.87650	  3.99857	 -0.36262	 -0.08541	  3.66885	 -0.17838	  4.95030	706.42603	 24.10	
 19.989	-52.269	  3.87458	  3.51945	 -0.01407	 -0.41269	  4.11029	 -0.17423	  4.94791	706.57397	 24.10	
 20.009	-63.844	  3.86895	  2.96829	  0.41428	 -0.63774	  4.42934	 -0.16147	  4.92887	706.49597	 24.10	
 19.992	-75.457	  3.87995	  2.38735	  0.91877	 -0.78157	  4.64715	 -0.15654	  4.93242	706.50403	 24.10	
 19.999	-87.075	  3.89385	  1.79839	  1.47159	 -0.84636	  4.75039	 -0.16461	  4.94195	706.36401	 24.10	
 19.989	-98.733	  3.91258	  1.22749	  2.07007	 -0.82266	  4.73113	 -0.18474	  4.95445	706.34698	 24.10	
 20.005	-110.327	  3.90875	  0.69888	  2.65786	 -0.70893	  4.56777	 -0.21585	  4.93927	706.35303	 24.10	
 20.009	-121.926	  3.91583	  0.24552	  3.22225	 -0.50714	  4.28914	 -0.23822	  4.93533	706.29797	 24.10	
 19.995	-133.545	  3.93706	 -0.13277	  3.73993	 -0.21989	  3.90887	 -0.25583	  4.94444	706.40302	 24.10	
 20.000	-145.147	  3.94950	 -0.42567	  4.16994	  0.15815	  3.42594	 -0.25635	  4.94850	706.45398	 24.10	
 20.008	-156.764	  3.95248	 -0.62880	  4.47628	  0.61655	  2.87063	 -0.24536	  4.93826	706.41101	 24.10	
 20.003	-168.362	  3.96665	 -0.74573	  4.66901	  1.13556	  2.29371	 -0.24623	  4.94338	706.20801	 24.10	
 20.000	180.000	  3.96694	 -0.77414	  4.71618	  1.70037	  1.70700	 -0.24938	  4.93028	706.28400	 24.10	
