FileType=PCF
NHL=14
Date=05/31/19	09:01:47
Facility=APL
Serial=16071-13
Customer=NASA
NP=6
Mach=0.080000
Calibration=1:1
CalPts=490
TstPts=95
PortNumbering=AP Standard
Units=Torr C m/s kg/m^3 deg mm 
Theta[deg]	Phi[deg]	P1[Torr]	P2[Torr]	P3[Torr]	P4[Torr]	P5[Torr]	P6[Torr]	Pt[Torr]	Ps[Abs,Torr]	Ts[C]	
  0.000	  0.000	  3.16882	  1.31753	  1.43470	  1.44304	  1.26665	  0.07300	  3.16010	702.12000	 31.50	
  1.691	128.401	  3.16319	  1.20169	  1.49934	  1.54225	  1.13306	  0.06401	  3.15845	702.04999	 31.40	
  1.692	 77.194	  3.16907	  1.32845	  1.37676	  1.58149	  1.10468	  0.06698	  3.16185	702.08002	 31.50	
  1.699	 26.182	  3.16767	  1.44130	  1.28500	  1.49485	  1.18651	  0.06985	  3.16182	702.12000	 31.50	
  1.699	-26.182	  3.16920	  1.44507	  1.29872	  1.37147	  1.31594	  0.07058	  3.16150	702.06000	 31.40	
  1.692	-77.194	  3.16710	  1.34106	  1.40173	  1.29964	  1.40634	  0.07108	  3.15704	702.06000	 31.50	
  1.691	-128.401	  3.16875	  1.22853	  1.50746	  1.32509	  1.36883	  0.06755	  3.16012	701.97998	 31.40	
  1.700	180.000	  3.16667	  1.16326	  1.55736	  1.41890	  1.24830	  0.06339	  3.15994	702.03998	 31.40	
  3.400	180.000	  3.15688	  0.97419	  1.72838	  1.40046	  1.22478	  0.04710	  3.15858	702.09998	 31.50	
  3.388	-152.325	  3.16205	  1.02442	  1.68642	  1.25653	  1.38082	  0.05052	  3.15931	702.00000	 31.50	
  3.397	-124.529	  3.16632	  1.12676	  1.57989	  1.17117	  1.49709	  0.05516	  3.16076	702.08002	 31.40	
  3.399	-96.763	  3.16866	  1.26662	  1.44021	  1.13077	  1.55635	  0.06092	  3.16137	702.03003	 31.40	
  3.394	-69.283	  3.16783	  1.41426	  1.30404	  1.14491	  1.54537	  0.06278	  3.16119	702.03998	 31.50	
  3.400	-41.398	  3.16740	  1.54605	  1.18438	  1.22449	  1.44901	  0.06215	  3.16113	702.03003	 31.50	
  3.401	-14.021	  3.16670	  1.61683	  1.11779	  1.35139	  1.30934	  0.06257	  3.16075	702.03998	 31.50	
  3.401	 14.021	  3.16220	  1.60912	  1.10714	  1.50582	  1.14808	  0.06167	  3.15959	702.04999	 31.40	
  3.400	 41.398	  3.15886	  1.52845	  1.16378	  1.63948	  1.01737	  0.06168	  3.15960	702.03998	 31.50	
  3.394	 69.283	  3.15604	  1.38349	  1.28241	  1.72824	  0.93989	  0.05721	  3.15961	701.98999	 31.50	
  3.399	 96.763	  3.14987	  1.22879	  1.42679	  1.73859	  0.92004	  0.05422	  3.15633	702.03998	 31.40	
  3.397	124.529	  3.15515	  1.09034	  1.57655	  1.67882	  0.97004	  0.04896	  3.16121	702.03998	 31.50	
  3.388	152.325	  3.15566	  0.99864	  1.68791	  1.54933	  1.07984	  0.04671	  3.15963	702.02002	 31.50	
  5.099	161.165	  3.13367	  0.80607	  1.85949	  1.53617	  1.04250	  0.02489	  3.15775	702.00000	 31.50	
  5.109	142.013	  3.12869	  0.86342	  1.77523	  1.68648	  0.90777	  0.02666	  3.15703	702.01001	 31.50	
  5.095	123.033	  3.12846	  0.97219	  1.64328	  1.80994	  0.80431	  0.03146	  3.15768	702.15002	 31.50	
  5.105	104.191	  3.12751	  1.11372	  1.48770	  1.88770	  0.74266	  0.03515	  3.15754	702.07001	 31.50	
  5.093	 85.207	  3.12553	  1.27608	  1.32321	  1.90714	  0.72748	  0.03977	  3.15449	702.14001	 31.50	
  5.104	 66.290	  3.13276	  1.44481	  1.17313	  1.87450	  0.76087	  0.04414	  3.15781	702.09998	 31.50	
  5.094	 47.331	  3.14200	  1.59648	  1.05308	  1.78060	  0.85144	  0.04785	  3.16205	702.00000	 31.50	
  5.089	 28.397	  3.14187	  1.70910	  0.96709	  1.64331	  0.96996	  0.05134	  3.15663	702.03998	 31.50	
  5.096	  9.576	  3.14807	  1.77321	  0.92874	  1.49274	  1.11566	  0.04963	  3.15857	702.06000	 31.50	
  5.096	 -9.576	  3.15355	  1.78711	  0.92755	  1.32880	  1.28326	  0.04958	  3.16008	701.97998	 31.50	
  5.089	-28.397	  3.15512	  1.72984	  0.98141	  1.18643	  1.44278	  0.04967	  3.15652	702.01001	 31.50	
  5.094	-47.331	  3.15758	  1.62674	  1.07130	  1.06342	  1.58629	  0.05011	  3.15930	702.03998	 31.50	
  5.104	-66.290	  3.15592	  1.48843	  1.19569	  0.98224	  1.67943	  0.05170	  3.15577	701.98999	 31.50	
  5.093	-85.207	  3.15671	  1.32544	  1.34682	  0.94665	  1.72561	  0.05026	  3.15820	701.95001	 31.50	
  5.105	-104.191	  3.15769	  1.16583	  1.50558	  0.95425	  1.71377	  0.04494	  3.16052	702.02002	 31.50	
  5.095	-123.033	  3.15250	  1.02268	  1.65202	  1.00746	  1.63676	  0.04067	  3.15933	701.95001	 31.50	
  5.109	-142.013	  3.14948	  0.90791	  1.77922	  1.09588	  1.51927	  0.03333	  3.15931	702.03003	 31.50	
  5.099	-161.165	  3.14454	  0.82661	  1.86259	  1.22297	  1.36718	  0.02925	  3.15970	702.02002	 31.50	
  5.100	180.000	  3.13616	  0.79773	  1.88729	  1.37234	  1.19840	  0.02683	  3.15701	702.09998	 31.50	
  6.800	180.000	  3.10916	  0.60891	  2.04713	  1.34073	  1.17325	  0.00306	  3.16075	702.04999	 31.50	
  6.796	-166.229	  3.11213	  0.63194	  2.02616	  1.18993	  1.33361	  0.00486	  3.15868	701.98999	 31.50	
  6.808	-152.311	  3.11657	  0.68541	  1.96652	  1.05192	  1.48921	  0.00902	  3.15661	702.00000	 31.50	
  6.795	-138.383	  3.12431	  0.77466	  1.87007	  0.93689	  1.63683	  0.01318	  3.16043	702.08002	 31.50	
  6.792	-124.591	  3.12956	  0.89092	  1.74201	  0.84809	  1.75885	  0.01756	  3.16169	702.08002	 31.50	
  6.787	-110.754	  3.13307	  1.02038	  1.59885	  0.79383	  1.83868	  0.02437	  3.15938	702.07001	 31.50	
  6.800	-96.985	  3.13571	  1.17817	  1.44033	  0.75966	  1.88377	  0.02822	  3.15841	702.06000	 31.50	
  6.800	-83.015	  3.13617	  1.33784	  1.28021	  0.76334	  1.88428	  0.03038	  3.15713	702.08002	 31.50	
  6.787	-69.246	  3.13606	  1.49997	  1.12822	  0.79657	  1.83827	  0.03372	  3.15695	702.19000	 31.50	
  6.792	-55.409	  3.13961	  1.65736	  0.99302	  0.85870	  1.75786	  0.03194	  3.16283	702.07001	 31.50	
  6.795	-41.617	  3.13419	  1.78209	  0.88037	  0.95419	  1.64040	  0.03190	  3.15901	701.97998	 31.50	
  6.808	-27.689	  3.13087	  1.87775	  0.80026	  1.08316	  1.48951	  0.03180	  3.15832	701.96997	 31.50	
  6.796	-13.771	  3.12886	  1.93590	  0.74824	  1.22483	  1.33176	  0.03082	  3.15814	702.09998	 31.50	
  6.800	  0.000	  3.12872	  1.95494	  0.72710	  1.38528	  1.16677	  0.03002	  3.16277	702.10999	 31.50	
  6.796	 13.771	  3.11806	  1.91994	  0.74073	  1.54434	  1.00477	  0.03290	  3.15618	702.00000	 31.50	
  6.808	 27.689	  3.11475	  1.84848	  0.78880	  1.70031	  0.86146	  0.03330	  3.15987	702.06000	 31.50	
  6.795	 41.617	  3.10603	  1.73652	  0.86943	  1.83447	  0.73678	  0.02982	  3.15403	701.98999	 31.50	
  6.792	 55.409	  3.10691	  1.60358	  0.97802	  1.94924	  0.64351	  0.02711	  3.16041	702.03998	 31.50	
  6.787	 69.246	  3.10208	  1.44757	  1.10600	  2.02272	  0.57817	  0.02615	  3.15953	702.04999	 31.50	
  6.800	 83.015	  3.09578	  1.28083	  1.25195	  2.06133	  0.54118	  0.02036	  3.15816	702.15997	 31.50	
  6.800	 96.985	  3.09317	  1.11641	  1.41384	  2.05556	  0.54085	  0.01420	  3.15819	702.01001	 31.50	
  6.787	110.754	  3.09333	  0.96307	  1.57498	  2.00706	  0.57859	  0.01161	  3.15726	702.10999	 31.50	
  6.792	124.591	  3.09259	  0.82843	  1.72593	  1.91835	  0.64774	  0.00785	  3.15702	702.07001	 31.50	
  6.795	138.383	  3.09684	  0.72656	  1.85799	  1.80087	  0.74389	  0.00186	  3.15961	702.09998	 31.50	
  6.808	152.311	  3.09779	  0.65497	  1.95815	  1.65424	  0.86896	 -0.00123	  3.15772	702.14001	 31.50	
  6.796	166.229	  3.10145	  0.61546	  2.02213	  1.49794	  1.01305	  0.00170	  3.15740	702.10999	 31.50	
  8.491	168.704	  3.05880	  0.42202	  2.17221	  1.46226	  0.96564	 -0.02746	  3.15798	702.12000	 31.50	
  8.502	157.493	  3.05599	  0.45182	  2.12275	  1.62505	  0.81771	 -0.02795	  3.16132	702.07001	 31.50	
  8.494	146.194	  3.04895	  0.51316	  2.02972	  1.77843	  0.68128	 -0.03088	  3.15646	702.14001	 31.50	
  8.495	135.039	  3.04607	  0.59290	  1.91629	  1.92027	  0.56395	 -0.02747	  3.15593	702.10999	 31.50	
  8.487	123.723	  3.04756	  0.70551	  1.77591	  2.04111	  0.47094	 -0.02088	  3.15916	702.10999	 31.50	
  8.492	112.575	  3.04716	  0.83692	  1.62119	  2.12844	  0.40465	 -0.01653	  3.15842	702.20001	 31.50	
  8.510	101.220	  3.04623	  0.99058	  1.45362	  2.18611	  0.36174	 -0.01469	  3.15864	702.14001	 31.50	
  8.500	 90.000	  3.04940	  1.15264	  1.29218	  2.21090	  0.35244	 -0.00926	  3.15925	702.19000	 31.50	
  8.510	 78.780	  3.05255	  1.32058	  1.13370	  2.20234	  0.36026	 -0.00233	  3.15796	702.22998	 31.50	
  8.492	 67.425	  3.05702	  1.49116	  0.98692	  2.15368	  0.40067	  0.00295	  3.16032	702.10999	 31.50	
  8.487	 56.277	  3.06046	  1.65126	  0.85342	  2.07343	  0.46456	  0.00389	  3.15786	702.19000	 31.50	
  8.495	 44.961	  3.06530	  1.79881	  0.73966	  1.96241	  0.55622	  0.00629	  3.15832	702.16998	 31.50	
  8.494	 33.806	  3.07180	  1.91930	  0.65243	  1.83052	  0.67069	  0.00993	  3.15885	702.15002	 31.50	
  8.502	 22.507	  3.07521	  2.01612	  0.58441	  1.67623	  0.80608	  0.01145	  3.15799	702.12000	 31.50	
  8.491	 11.296	  3.08685	  2.07842	  0.55017	  1.52495	  0.95819	  0.01124	  3.16157	702.08002	 31.50	
  8.500	  0.000	  3.08841	  2.10632	  0.53649	  1.35350	  1.12335	  0.00759	  3.15938	702.12000	 31.50	
  8.491	-11.296	  3.09238	  2.08959	  0.55787	  1.19012	  1.29732	  0.01059	  3.15616	702.16998	 31.50	
  8.502	-22.507	  3.09740	  2.04989	  0.59527	  1.03551	  1.46417	  0.01023	  3.15821	702.10999	 31.50	
  8.494	-33.806	  3.10209	  1.96629	  0.66843	  0.90298	  1.62465	  0.01158	  3.15926	702.17999	 31.50	
  8.495	-44.961	  3.10606	  1.85071	  0.76413	  0.78850	  1.76655	  0.01073	  3.16005	702.12000	 31.50	
  8.487	-56.277	  3.10296	  1.71200	  0.87658	  0.69009	  1.88339	  0.01096	  3.15468	702.15002	 31.50	
  8.492	-67.425	  3.10535	  1.56116	  1.00982	  0.61668	  1.97819	  0.01145	  3.15870	702.15997	 31.50	
  8.510	-78.780	  3.10273	  1.39332	  1.16033	  0.57588	  2.03017	  0.00876	  3.15744	702.10999	 31.50	
  8.500	-90.000	  3.10184	  1.22713	  1.32030	  0.56691	  2.04735	  0.00590	  3.15863	702.14001	 31.50	
  8.510	-101.220	  3.09960	  1.06423	  1.48222	  0.57337	  2.03043	  0.00311	  3.15807	702.13000	 31.50	
  8.492	-112.575	  3.09433	  0.90583	  1.64650	  0.61183	  1.97481	  0.00058	  3.15644	702.09003	 31.50	
  8.487	-123.723	  3.09155	  0.77114	  1.79744	  0.67047	  1.88828	 -0.00736	  3.15859	702.16998	 31.50	
  8.495	-135.039	  3.08611	  0.65215	  1.93125	  0.76219	  1.76641	 -0.01147	  3.15645	702.12000	 31.50	
  8.494	-146.194	  3.08230	  0.55672	  2.04443	  0.86668	  1.62649	 -0.01571	  3.15883	702.17999	 31.50	
  8.502	-157.493	  3.07371	  0.48371	  2.12669	  0.99563	  1.46661	 -0.01950	  3.15615	702.02002	 31.50	
  8.491	-168.704	  3.07079	  0.43570	  2.18014	  1.13772	  1.30521	 -0.02459	  3.15970	702.06000	 31.50	
  8.500	180.000	  3.06732	  0.41671	  2.19868	  1.30204	  1.13128	 -0.02612	  3.16268	702.15002	 31.50	
 10.200	180.000	  3.00733	  0.22131	  2.33665	  1.24233	  1.08565	 -0.05798	  3.15878	702.09003	 31.50	
 10.191	-170.497	  3.01543	  0.24059	  2.32440	  1.08666	  1.25287	 -0.05802	  3.15949	702.06000	 31.50	
 10.210	-161.034	  3.01895	  0.28248	  2.27985	  0.93584	  1.42608	 -0.05437	  3.15874	702.15002	 31.50	
 10.194	-151.526	  3.02948	  0.34078	  2.21100	  0.80160	  1.59431	 -0.04834	  3.16044	702.08002	 31.50	
 10.190	-142.105	  3.03569	  0.42525	  2.10821	  0.68322	  1.74824	 -0.04298	  3.16115	702.10999	 31.50	
 10.215	-132.646	  3.03983	  0.52915	  1.98391	  0.57999	  1.88807	 -0.04023	  3.15986	702.14001	 31.50	
 10.203	-123.092	  3.04265	  0.65261	  1.84117	  0.49719	  2.00326	 -0.03579	  3.15769	702.02002	 31.50	
 10.192	-113.678	  3.04746	  0.78181	  1.69230	  0.43473	  2.09788	 -0.02899	  3.15860	702.03998	 31.50	
 10.208	-104.249	  3.05561	  0.93992	  1.52928	  0.39579	  2.16135	 -0.02644	  3.15901	702.02002	 31.50	
 10.210	-94.801	  3.05693	  1.10109	  1.36356	  0.37123	  2.19731	 -0.02412	  3.15958	702.12000	 31.50	
 10.210	-85.199	  3.05981	  1.27169	  1.19813	  0.37502	  2.19956	 -0.02201	  3.16032	702.09998	 31.50	
 10.208	-75.751	  3.06219	  1.44697	  1.03541	  0.40335	  2.16475	 -0.01673	  3.16133	702.03003	 31.50	
 10.192	-66.322	  3.06179	  1.61364	  0.88852	  0.45241	  2.09676	 -0.01247	  3.15998	702.12000	 31.50	
 10.203	-56.908	  3.06043	  1.76709	  0.75528	  0.51872	  2.00883	 -0.01460	  3.16023	702.21002	 31.50	
 10.215	-47.354	  3.05817	  1.91508	  0.63242	  0.60393	  1.89261	 -0.01541	  3.15962	702.03003	 31.50	
 10.190	-37.895	  3.05772	  2.03483	  0.53884	  0.72167	  1.74954	 -0.01339	  3.15883	702.12000	 31.50	
 10.194	-28.474	  3.05454	  2.13076	  0.46235	  0.84853	  1.59485	 -0.01195	  3.15974	702.06000	 31.50	
 10.210	-18.966	  3.05042	  2.20397	  0.40094	  0.99473	  1.42682	 -0.01238	  3.15821	702.09998	 31.50	
 10.191	 -9.503	  3.04502	  2.24261	  0.36462	  1.14954	  1.25381	 -0.01431	  3.15949	702.15997	 31.50	
 10.200	  0.000	  3.04117	  2.24684	  0.35408	  1.30997	  1.08536	 -0.01557	  3.15824	702.15997	 31.50	
 10.191	  9.503	  3.03355	  2.22428	  0.35849	  1.47829	  0.91319	 -0.01426	  3.15966	702.22998	 31.50	
 10.210	 18.966	  3.02671	  2.16935	  0.38657	  1.64427	  0.75498	 -0.01267	  3.15885	702.25000	 31.50	
 10.194	 28.474	  3.01669	  2.08361	  0.44011	  1.80226	  0.60946	 -0.01232	  3.15483	702.27002	 31.50	
 10.190	 37.895	  3.01598	  1.97800	  0.51846	  1.94843	  0.48837	 -0.01550	  3.15832	702.21997	 31.50	
 10.215	 47.354	  3.01077	  1.84520	  0.61001	  2.08312	  0.37413	 -0.02121	  3.16119	702.25000	 31.50	
 10.203	 56.908	  3.00110	  1.69025	  0.72551	  2.18798	  0.28802	 -0.02293	  3.15520	702.17999	 31.50	
 10.192	 66.322	  2.99984	  1.52714	  0.85936	  2.27088	  0.22830	 -0.02351	  3.15854	702.15002	 31.50	
 10.208	 75.751	  2.99303	  1.35701	  1.00214	  2.32403	  0.18184	 -0.02855	  3.15593	702.12000	 31.50	
 10.210	 85.199	  2.99210	  1.18543	  1.16287	  2.35093	  0.16284	 -0.03589	  3.15873	702.14001	 31.50	
 10.210	 94.801	  2.98821	  1.01576	  1.32629	  2.34723	  0.15597	 -0.04157	  3.15867	702.15997	 31.50	
 10.208	104.249	  2.98707	  0.85454	  1.49285	  2.30867	  0.18119	 -0.04417	  3.15746	702.09003	 31.50	
 10.192	113.678	  2.98836	  0.70636	  1.66211	  2.24362	  0.22741	 -0.04572	  3.15963	702.21997	 31.50	
 10.203	123.092	  2.99139	  0.57963	  1.81871	  2.14892	  0.29833	 -0.05067	  3.16195	702.20001	 31.50	
 10.215	132.646	  2.98994	  0.45927	  1.96551	  2.03655	  0.38057	 -0.05743	  3.16100	702.09003	 31.50	
 10.190	142.105	  2.99049	  0.37289	  2.08603	  1.89807	  0.48854	 -0.06133	  3.15786	702.17999	 31.50	
 10.194	151.526	  2.99368	  0.30149	  2.19123	  1.74545	  0.61515	 -0.06243	  3.15797	702.10999	 31.50	
 10.210	161.034	  2.99676	  0.25060	  2.27077	  1.57841	  0.76266	 -0.06088	  3.15779	702.03998	 31.50	
 10.191	170.497	  3.00647	  0.23095	  2.31711	  1.41308	  0.92141	 -0.05906	  3.16157	702.12000	 31.50	
 11.899	171.783	  2.93422	  0.03652	  2.44887	  1.35668	  0.86193	 -0.09173	  3.15839	702.08002	 31.50	
 11.890	163.610	  2.93136	  0.06089	  2.40717	  1.52539	  0.70335	 -0.09102	  3.15756	702.03003	 31.50	
 11.889	155.445	  2.92577	  0.10151	  2.33651	  1.68941	  0.55994	 -0.09244	  3.15696	702.09998	 31.50	
 11.909	147.299	  2.91883	  0.15671	  2.24513	  1.84956	  0.42226	 -0.09518	  3.15490	702.19000	 31.50	
 11.902	139.148	  2.91837	  0.23107	  2.13270	  1.99766	  0.30810	 -0.09332	  3.15735	702.03003	 31.50	
 11.894	130.867	  2.91917	  0.33192	  1.99862	  2.13381	  0.20640	 -0.08780	  3.15968	702.06000	 31.50	
 11.897	122.732	  2.91755	  0.44371	  1.84896	  2.25006	  0.12281	 -0.08249	  3.15905	702.09003	 31.50	
 11.903	114.597	  2.91974	  0.57405	  1.69467	  2.34393	  0.05932	 -0.07757	  3.16098	702.15002	 31.50	
 11.893	106.346	  2.92160	  0.71835	  1.52700	  2.41719	  0.01361	 -0.07520	  3.16207	702.15002	 31.50	
 11.892	 98.155	  2.92361	  0.87544	  1.35755	  2.46688	 -0.01872	 -0.07317	  3.16435	702.13000	 31.50	
 11.900	 90.000	  2.91786	  1.04015	  1.18594	  2.47931	 -0.03024	 -0.06944	  3.15505	702.17999	 31.50	
 11.892	 81.845	  2.92480	  1.21226	  1.02802	  2.47382	 -0.01954	 -0.06313	  3.16012	702.14001	 31.50	
 11.893	 73.654	  2.92799	  1.38845	  0.86683	  2.44081	  0.00465	 -0.05732	  3.16228	702.09003	 31.50	
 11.903	 65.403	  2.93042	  1.55796	  0.72539	  2.37946	  0.05023	 -0.05384	  3.15850	702.03003	 31.50	
 11.897	 57.268	  2.93778	  1.72250	  0.59775	  2.29722	  0.11586	 -0.05189	  3.16033	702.09998	 31.50	
 11.894	 49.133	  2.94545	  1.87864	  0.48446	  2.18697	  0.20304	 -0.05145	  3.16160	702.10999	 31.50	
 11.902	 40.852	  2.94656	  2.02003	  0.38029	  2.06122	  0.29998	 -0.04622	  3.15954	702.09003	 31.40	
 11.909	 32.701	  2.95780	  2.14017	  0.30380	  1.91901	  0.42306	 -0.04050	  3.16147	702.12000	 31.50	
 11.889	 24.555	  2.96201	  2.24049	  0.24032	  1.76445	  0.55301	 -0.03627	  3.15995	702.00000	 31.50	
 11.890	 16.390	  2.96710	  2.31294	  0.19743	  1.59856	  0.70129	 -0.04017	  3.15743	702.04999	 31.50	
 11.899	  8.217	  2.97346	  2.36063	  0.17179	  1.43011	  0.86304	 -0.04199	  3.15757	702.03003	 31.50	
 11.900	  0.000	  2.97939	  2.38896	  0.16275	  1.26421	  1.02689	 -0.04133	  3.15793	702.07001	 31.40	
 11.899	 -8.217	  2.98873	  2.38492	  0.17755	  1.10207	  1.20271	 -0.03873	  3.16073	702.15002	 31.50	
 11.890	-16.390	  2.99309	  2.34515	  0.20982	  0.94906	  1.37596	 -0.03654	  3.15889	702.07001	 31.50	
 11.889	-24.555	  2.99507	  2.28362	  0.25789	  0.79877	  1.54911	 -0.03552	  3.15886	702.15997	 31.50	
 11.909	-32.701	  2.99893	  2.20348	  0.32389	  0.65929	  1.71328	 -0.03986	  3.15948	702.06000	 31.50	
 11.902	-40.852	  3.00494	  2.09396	  0.40926	  0.54514	  1.86263	 -0.04347	  3.16083	702.09003	 31.50	
 11.894	-49.133	  3.00433	  1.96379	  0.51021	  0.43656	  2.00098	 -0.04208	  3.16001	702.04999	 31.40	
 11.897	-57.268	  3.00433	  1.81548	  0.62814	  0.35239	  2.11438	 -0.04364	  3.15760	702.14001	 31.50	
 11.903	-65.403	  3.00655	  1.65709	  0.76035	  0.27564	  2.21534	 -0.04229	  3.16124	702.12000	 31.50	
 11.893	-73.654	  3.00485	  1.48921	  0.90748	  0.23048	  2.27930	 -0.04768	  3.15906	702.21997	 31.50	
 11.892	-81.845	  3.00531	  1.31469	  1.06630	  0.19716	  2.32878	 -0.05151	  3.16154	702.04999	 31.40	
 11.900	-90.000	  3.00045	  1.14006	  1.22565	  0.18459	  2.34036	 -0.05533	  3.15813	702.14001	 31.40	
 11.892	-98.155	  2.99475	  0.97230	  1.39163	  0.19112	  2.32427	 -0.05608	  3.15667	702.17999	 31.40	
 11.893	-106.346	  2.99357	  0.80983	  1.56280	  0.21632	  2.28364	 -0.05707	  3.15817	702.06000	 31.40	
 11.903	-114.597	  2.98957	  0.65819	  1.72658	  0.26066	  2.21370	 -0.05904	  3.15851	702.09998	 31.40	
 11.897	-122.732	  2.98324	  0.52401	  1.87936	  0.32075	  2.11836	 -0.06435	  3.15824	702.06000	 31.40	
 11.894	-130.867	  2.98061	  0.40209	  2.02818	  0.39671	  2.00445	 -0.06798	  3.16083	702.08002	 31.40	
 11.902	-139.148	  2.97308	  0.29447	  2.15672	  0.49773	  1.86160	 -0.07146	  3.15815	702.03003	 31.40	
 11.909	-147.299	  2.96688	  0.20390	  2.26747	  0.60491	  1.71687	 -0.07494	  3.15903	701.96002	 31.40	
 11.889	-155.445	  2.96349	  0.14086	  2.35269	  0.73441	  1.55320	 -0.07928	  3.15953	701.97998	 31.40	
 11.890	-163.610	  2.95642	  0.08428	  2.41752	  0.87367	  1.38161	 -0.08290	  3.16036	701.97998	 31.40	
 11.899	-171.783	  2.95132	  0.05028	  2.45700	  1.02852	  1.20469	 -0.08646	  3.16145	702.01001	 31.40	
 11.900	180.000	  2.94330	  0.03667	  2.46602	  1.18736	  1.03393	 -0.08886	  3.16100	701.94000	 31.40	
 13.600	180.000	  2.86354	 -0.14914	  2.58622	  1.11746	  0.97683	 -0.11827	  3.16012	702.03003	 31.40	
 13.608	-172.853	  2.86741	 -0.13886	  2.57446	  0.95941	  1.14411	 -0.11583	  3.15758	702.02002	 31.40	
 13.611	-165.583	  2.87597	 -0.10903	  2.54482	  0.80466	  1.32147	 -0.11246	  3.15991	701.96997	 31.40	
 13.601	-158.353	  2.88325	 -0.05708	  2.48453	  0.65934	  1.49720	 -0.10946	  3.15907	701.98999	 31.40	
 13.609	-151.210	  2.88853	 -0.00008	  2.40778	  0.52971	  1.66123	 -0.10608	  3.15753	702.03998	 31.40	
 13.611	-143.999	  2.89780	  0.07337	  2.31139	  0.41135	  1.82714	 -0.10044	  3.16247	702.08002	 31.40	
 13.601	-136.825	  2.90346	  0.16038	  2.19585	  0.30975	  1.96996	 -0.10091	  3.16195	702.08002	 31.40	
 13.596	-129.640	  2.90690	  0.27428	  2.05748	  0.22078	  2.10282	 -0.09503	  3.15840	702.06000	 31.40	
 13.611	-122.431	  2.91410	  0.39212	  1.91242	  0.14250	  2.22440	 -0.09321	  3.16315	702.10999	 31.40	
 13.604	-115.211	  2.91866	  0.53021	  1.75391	  0.08675	  2.31685	 -0.09112	  3.15988	702.01001	 31.40	
 13.595	-108.042	  2.92310	  0.67650	  1.59007	  0.04285	  2.38971	 -0.08755	  3.15898	702.08002	 31.40	
 13.607	-100.793	  2.92359	  0.83517	  1.41840	  0.01150	  2.44206	 -0.08632	  3.15867	702.08002	 31.40	
 13.601	-93.617	  2.93065	  1.00635	  1.25239	  0.00516	  2.46362	 -0.08790	  3.15863	702.09998	 31.40	
 13.601	-86.383	  2.93475	  1.17246	  1.08920	  0.00818	  2.46633	 -0.08510	  3.16059	702.03003	 31.40	
 13.607	-79.207	  2.93485	  1.34916	  0.92530	  0.02494	  2.43861	 -0.08191	  3.15893	702.00000	 31.40	
 13.595	-71.958	  2.93635	  1.52231	  0.77413	  0.06233	  2.38918	 -0.07756	  3.15911	702.02002	 31.40	
 13.604	-64.789	  2.93893	  1.69047	  0.63048	  0.10650	  2.32220	 -0.07239	  3.16181	702.12000	 31.40	
 13.611	-57.569	  2.93393	  1.85413	  0.49550	  0.17470	  2.21892	 -0.07431	  3.15847	702.07001	 31.40	
 13.596	-50.360	  2.93598	  1.99913	  0.38269	  0.26295	  2.10568	 -0.07399	  3.16039	702.09003	 31.40	
 13.601	-43.175	  2.93442	  2.13592	  0.27978	  0.35657	  1.97341	 -0.07627	  3.16161	701.95001	 31.40	
 13.611	-36.001	  2.93133	  2.25729	  0.18958	  0.47008	  1.82220	 -0.07123	  3.16309	702.08002	 31.40	
 13.609	-28.790	  2.92925	  2.35222	  0.11719	  0.59454	  1.66745	 -0.06718	  3.16185	701.98999	 31.40	
 13.601	-21.647	  2.92266	  2.42588	  0.06002	  0.73404	  1.49271	 -0.06594	  3.15829	701.98999	 31.40	
 13.611	-14.417	  2.91642	  2.47745	  0.01683	  0.88140	  1.31962	 -0.06565	  3.15792	702.02002	 31.40	
 13.608	 -7.147	  2.91313	  2.51116	 -0.01139	  1.04626	  1.14038	 -0.06492	  3.16048	702.09003	 31.40	
 13.600	  0.000	  2.90588	  2.51311	 -0.02049	  1.20761	  0.96748	 -0.06767	  3.15819	702.13000	 31.40	
 13.608	  7.147	  2.90368	  2.49606	 -0.01488	  1.37775	  0.80005	 -0.06894	  3.16251	702.09998	 31.40	
 13.611	 14.417	  2.89974	  2.45090	  0.00849	  1.54395	  0.64604	 -0.06871	  3.16323	702.04999	 31.40	
 13.601	 21.647	  2.88895	  2.38135	  0.04397	  1.71174	  0.49329	 -0.06489	  3.16026	702.07001	 31.40	
 13.609	 28.790	  2.88081	  2.28656	  0.09714	  1.87357	  0.35220	 -0.06944	  3.15885	702.03003	 31.40	
 13.611	 36.001	  2.87456	  2.17546	  0.16745	  2.02406	  0.22921	 -0.07423	  3.15804	701.97998	 31.40	
 13.601	 43.175	  2.87621	  2.04873	  0.25418	  2.16446	  0.12554	 -0.07860	  3.16427	702.10999	 31.40	
 13.596	 50.360	  2.86488	  1.90523	  0.35286	  2.28442	  0.02618	 -0.08137	  3.16061	702.00000	 31.40	
 13.611	 57.569	  2.85557	  1.74968	  0.46250	  2.39099	 -0.05439	 -0.08398	  3.15972	702.03003	 31.40	
 13.604	 64.789	  2.85560	  1.57922	  0.59643	  2.47775	 -0.11142	 -0.08322	  3.16154	702.08002	 31.40	
 13.595	 71.958	  2.85040	  1.41001	  0.73418	  2.54415	 -0.16240	 -0.08645	  3.16221	701.97998	 31.40	
 13.607	 79.207	  2.84661	  1.23210	  0.88561	  2.58615	 -0.19339	 -0.09204	  3.16234	702.12000	 31.40	
 13.601	 86.383	  2.84546	  1.06732	  1.04358	  2.59998	 -0.20466	 -0.09768	  3.16157	702.12000	 31.40	
 13.601	 93.617	  2.84198	  0.89468	  1.20928	  2.59475	 -0.20632	 -0.10095	  3.16105	702.06000	 31.40	
 13.607	100.793	  2.83816	  0.72982	  1.37771	  2.56430	 -0.19058	 -0.10350	  3.16076	702.08002	 31.40	
 13.595	108.042	  2.83544	  0.57498	  1.54714	  2.51443	 -0.16384	 -0.10606	  3.16048	702.10999	 31.40	
 13.604	115.211	  2.83856	  0.43667	  1.71504	  2.43855	 -0.11116	 -0.10656	  3.16082	702.04999	 31.40	
 13.611	122.431	  2.83553	  0.30762	  1.87551	  2.34127	 -0.04927	 -0.11227	  3.15881	701.98999	 31.40	
 13.596	129.640	  2.83741	  0.19503	  2.02568	  2.22369	  0.03336	 -0.11944	  3.15906	702.02002	 31.40	
 13.601	136.825	  2.84234	  0.09684	  2.16811	  2.09160	  0.13046	 -0.12292	  3.16275	702.08002	 31.40	
 13.611	143.999	  2.84252	  0.01860	  2.28660	  1.94738	  0.23417	 -0.12517	  3.16046	702.04999	 31.40	
 13.609	151.210	  2.84829	 -0.04551	  2.39092	  1.79323	  0.35976	 -0.12313	  3.16221	702.07001	 31.40	
 13.601	158.353	  2.85022	 -0.09731	  2.47300	  1.63390	  0.49290	 -0.12306	  3.16139	702.08002	 31.40	
 13.611	165.583	  2.85495	 -0.13106	  2.53699	  1.46130	  0.64524	 -0.12189	  3.16280	702.08002	 31.40	
 13.608	172.853	  2.85928	 -0.14563	  2.57251	  1.28620	  0.80735	 -0.11993	  3.16148	702.10999	 31.40	
 15.298	173.587	  2.77189	 -0.32650	  2.68396	  1.21501	  0.74493	 -0.14281	  3.16095	702.06000	 31.40	
 15.291	167.167	  2.76594	 -0.31284	  2.64895	  1.38356	  0.58405	 -0.14380	  3.16047	702.10999	 31.40	
 15.307	160.676	  2.75835	 -0.28933	  2.59781	  1.55602	  0.42967	 -0.14550	  3.16044	702.02002	 31.40	
 15.300	154.261	  2.75510	 -0.24376	  2.51916	  1.71968	  0.29511	 -0.14787	  3.15944	702.02002	 31.40	
 15.288	147.854	  2.75546	 -0.18407	  2.42474	  1.88331	  0.16896	 -0.14988	  3.16270	701.94000	 31.40	
 15.293	141.428	  2.75212	 -0.11566	  2.31372	  2.03481	  0.05617	 -0.14968	  3.16189	701.97998	 31.40	
 15.299	134.985	  2.74716	 -0.03261	  2.18256	  2.18112	 -0.05339	 -0.14866	  3.15918	702.09003	 31.40	
 15.305	128.583	  2.74616	  0.06473	  2.04175	  2.31158	 -0.13865	 -0.14488	  3.16089	702.09998	 31.40	
 15.309	122.142	  2.74533	  0.17397	  1.89100	  2.42260	 -0.21258	 -0.13857	  3.16065	702.03998	 31.40	
 15.304	115.711	  2.74256	  0.30171	  1.72514	  2.52206	 -0.27969	 -0.13517	  3.16097	702.01001	 31.40	
 15.297	109.291	  2.74684	  0.43626	  1.56316	  2.60193	 -0.32384	 -0.13195	  3.16341	701.97998	 31.40	
 15.293	102.897	  2.74562	  0.58227	  1.39306	  2.65728	 -0.35972	 -0.13189	  3.16105	702.03003	 31.40	
 15.293	 96.458	  2.75041	  0.73824	  1.22869	  2.69350	 -0.37194	 -0.13090	  3.16213	701.96002	 31.40	
 15.300	 90.000	  2.74870	  0.90727	  1.05632	  2.70803	 -0.38320	 -0.12806	  3.16003	702.12000	 31.40	
 15.293	 83.542	  2.74909	  1.07471	  0.89359	  2.70500	 -0.38159	 -0.12381	  3.15802	701.95001	 31.40	
 15.293	 77.103	  2.75953	  1.25085	  0.74791	  2.67547	 -0.34898	 -0.11948	  3.15974	702.07001	 31.40	
 15.297	 70.709	  2.76123	  1.42347	  0.59770	  2.63019	 -0.32312	 -0.11663	  3.16051	702.09998	 31.40	
 15.304	 64.289	  2.76510	  1.59352	  0.46179	  2.56522	 -0.27791	 -0.11509	  3.16077	702.09998	 31.40	
 15.309	 57.858	  2.76686	  1.76340	  0.33345	  2.47871	 -0.21897	 -0.11608	  3.16028	702.09998	 31.40	
 15.305	 51.417	  2.77560	  1.91942	  0.22523	  2.37525	 -0.14245	 -0.11273	  3.16171	702.07001	 31.40	
 15.299	 45.015	  2.78000	  2.06703	  0.12305	  2.25492	 -0.05746	 -0.11050	  3.16092	702.02002	 31.40	
 15.293	 38.572	  2.78619	  2.20327	  0.03477	  2.11872	  0.04137	 -0.10669	  3.16241	702.02002	 31.40	
 15.288	 32.146	  2.79659	  2.32315	 -0.03395	  1.97129	  0.16447	 -0.10183	  3.16205	702.09998	 31.40	
 15.300	 25.739	  2.80195	  2.43008	 -0.09952	  1.81572	  0.28694	 -0.09740	  3.16596	702.14001	 31.40	
 15.307	 19.324	  2.80856	  2.50846	 -0.14041	  1.65087	  0.42915	 -0.09622	  3.16374	702.15002	 31.40	
 15.291	 12.833	  2.81474	  2.56863	 -0.17003	  1.48356	  0.58068	 -0.09561	  3.16220	702.10999	 31.40	
 15.298	  6.413	  2.82050	  2.61177	 -0.19253	  1.31523	  0.73892	 -0.09320	  3.16144	702.03003	 31.40	
 15.300	  0.000	  2.82803	  2.63312	 -0.19660	  1.14676	  0.90619	 -0.09185	  3.16381	702.03003	 31.40	
 15.298	 -6.413	  2.83450	  2.62849	 -0.18750	  0.98203	  1.08131	 -0.08997	  3.16297	702.13000	 31.40	
 15.291	-12.833	  2.83893	  2.60317	 -0.16508	  0.82805	  1.25177	 -0.08550	  3.16130	702.09003	 31.40	
 15.307	-19.324	  2.84644	  2.55606	 -0.12379	  0.67976	  1.42932	 -0.08627	  3.16162	702.10999	 31.30	
 15.300	-25.739	  2.84512	  2.48936	 -0.07926	  0.53418	  1.59753	 -0.08919	  3.15977	702.03003	 31.40	
 15.288	-32.146	  2.85366	  2.40346	 -0.01418	  0.40804	  1.76347	 -0.09568	  3.16274	702.03998	 31.40	
 15.293	-38.572	  2.85723	  2.29181	  0.06670	  0.28989	  1.92428	 -0.10056	  3.16162	702.03998	 31.30	
 15.299	-45.015	  2.86081	  2.17089	  0.15654	  0.18365	  2.07073	 -0.10209	  3.16345	702.03998	 31.30	
 15.305	-51.417	  2.85713	  2.02983	  0.25498	  0.08327	  2.20264	 -0.10298	  3.16125	702.00000	 31.30	
 15.309	-57.858	  2.86007	  1.88249	  0.36790	  0.00688	  2.31884	 -0.10149	  3.16336	702.09003	 31.30	
 15.304	-64.289	  2.86092	  1.71813	  0.50133	 -0.05389	  2.41232	 -0.10200	  3.16167	702.03998	 31.30	
 15.297	-70.709	  2.85870	  1.54746	  0.63938	 -0.10479	  2.48820	 -0.10584	  3.16002	702.13000	 31.30	
 15.293	-77.103	  2.86141	  1.37995	  0.78895	 -0.14081	  2.54475	 -0.10842	  3.16208	702.13000	 31.30	
 15.293	-83.542	  2.85561	  1.20298	  0.94357	 -0.16343	  2.57749	 -0.11371	  3.15841	702.14001	 31.30	
 15.300	-90.000	  2.85190	  1.02867	  1.10406	 -0.17976	  2.59317	 -0.11521	  3.15994	702.15997	 31.30	
 15.293	-96.458	  2.85131	  0.86182	  1.27227	 -0.17240	  2.57925	 -0.11629	  3.16255	702.13000	 31.30	
 15.293	-102.897	  2.84584	  0.69731	  1.43904	 -0.15688	  2.54607	 -0.11565	  3.16372	702.02002	 31.30	
 15.297	-109.291	  2.84102	  0.54781	  1.60247	 -0.12901	  2.49234	 -0.11379	  3.16140	702.14001	 31.30	
 15.304	-115.711	  2.83907	  0.40207	  1.77122	 -0.08108	  2.41469	 -0.11535	  3.16169	702.10999	 31.30	
 15.309	-122.142	  2.83457	  0.26475	  1.93113	 -0.02738	  2.31973	 -0.11642	  3.16423	702.07001	 31.30	
 15.305	-128.583	  2.82571	  0.14333	  2.07900	  0.04399	  2.20043	 -0.11929	  3.16049	702.02002	 31.30	
 15.299	-134.985	  2.81970	  0.03958	  2.21404	  0.12664	  2.07167	 -0.11958	  3.16008	702.06000	 31.30	
 15.293	-141.428	  2.81574	 -0.05101	  2.33920	  0.22570	  1.92343	 -0.12193	  3.16151	702.09003	 31.30	
 15.288	-147.854	  2.81129	 -0.12859	  2.44710	  0.34053	  1.76325	 -0.12514	  3.16042	702.04999	 31.30	
 15.300	-154.261	  2.80435	 -0.19872	  2.54031	  0.45820	  1.60421	 -0.12778	  3.16317	702.01001	 31.30	
 15.307	-160.676	  2.80090	 -0.24891	  2.61251	  0.59384	  1.43128	 -0.13073	  3.16508	702.06000	 31.30	
 15.291	-167.167	  2.79244	 -0.28727	  2.66046	  0.73939	  1.25526	 -0.13428	  3.16398	701.96997	 31.30	
 15.298	-173.587	  2.78117	 -0.31174	  2.68439	  0.88743	  1.08204	 -0.13904	  3.15888	702.09003	 31.30	
 15.300	180.000	  2.77499	 -0.32593	  2.69399	  1.05052	  0.90616	 -0.14098	  3.15854	702.06000	 31.30	
 17.000	180.000	  2.68314	 -0.49186	  2.79664	  0.97959	  0.84520	 -0.15675	  3.16488	702.06000	 31.30	
 16.990	-174.179	  2.68439	 -0.48091	  2.78384	  0.81564	  1.01368	 -0.15396	  3.15844	702.09998	 31.30	
 17.009	-168.383	  2.69577	 -0.46438	  2.76614	  0.67000	  1.18284	 -0.14828	  3.16632	702.06000	 31.30	
 17.000	-162.596	  2.69729	 -0.42915	  2.71533	  0.52177	  1.35544	 -0.14580	  3.16073	702.07001	 31.30	
 16.990	-156.759	  2.70749	 -0.38174	  2.65255	  0.38642	  1.53176	 -0.14444	  3.16392	702.06000	 31.30	
 16.995	-150.919	  2.71295	 -0.32850	  2.57256	  0.26007	  1.69925	 -0.14340	  3.16324	702.17999	 31.30	
 16.988	-145.161	  2.71552	 -0.26362	  2.47415	  0.14371	  1.85895	 -0.14102	  3.16344	702.20001	 31.30	
 17.014	-139.343	  2.72082	 -0.18022	  2.35743	  0.04578	  2.00987	 -0.13884	  3.15877	702.23999	 31.30	
 17.007	-133.546	  2.73014	 -0.08433	  2.23143	 -0.04547	  2.15720	 -0.13522	  3.16482	702.20001	 31.30	
 17.001	-127.699	  2.73356	  0.02079	  2.09105	 -0.12001	  2.28639	 -0.13418	  3.16180	702.16998	 31.30	
 17.006	-121.937	  2.74019	  0.13339	  1.94258	 -0.19549	  2.40394	 -0.13226	  3.16601	702.27002	 31.30	
 17.002	-116.134	  2.74581	  0.26781	  1.78333	 -0.24704	  2.49950	 -0.13320	  3.16362	702.32001	 31.30	
 17.001	-110.310	  2.74816	  0.40863	  1.61876	 -0.28926	  2.57947	 -0.13263	  3.16258	702.12000	 31.30	
 16.988	-104.517	  2.75651	  0.55848	  1.45358	 -0.31924	  2.63903	 -0.13621	  3.16473	702.13000	 31.30	
 17.008	-98.662	  2.75688	  0.72104	  1.27946	 -0.34672	  2.68284	 -0.13906	  3.16454	702.07001	 31.30	
 16.996	-92.909	  2.76230	  0.88457	  1.11610	 -0.34643	  2.69733	 -0.14031	  3.16173	702.08002	 31.30	
 16.996	-87.091	  2.76846	  1.05210	  0.95902	 -0.34286	  2.70112	 -0.13969	  3.16541	702.17999	 31.30	
 17.012	-81.253	  2.76587	  1.22292	  0.79803	 -0.33123	  2.68130	 -0.13945	  3.16063	702.03998	 31.30	
 16.988	-75.483	  2.76619	  1.39730	  0.64376	 -0.30571	  2.63700	 -0.13731	  3.16041	702.08002	 31.30	
 17.001	-69.690	  2.76847	  1.56821	  0.50177	 -0.26829	  2.57758	 -0.13261	  3.16216	702.16998	 31.30	
 17.002	-63.866	  2.77016	  1.73466	  0.37087	 -0.21171	  2.49554	 -0.13058	  3.15912	702.10999	 31.30	
 17.006	-58.063	  2.77233	  1.89552	  0.24769	 -0.15141	  2.40455	 -0.12991	  3.16252	702.07001	 31.30	
 17.001	-52.301	  2.77214	  2.05251	  0.13412	 -0.07373	  2.28706	 -0.12871	  3.16378	702.01001	 31.30	
 17.007	-46.454	  2.76814	  2.19043	  0.03601	  0.01524	  2.15750	 -0.12968	  3.16236	702.07001	 31.30	
 17.014	-40.657	  2.76471	  2.32054	 -0.05809	  0.11102	  2.01447	 -0.12573	  3.16085	702.14001	 31.30	
 16.988	-34.839	  2.76341	  2.43201	 -0.13510	  0.22664	  1.85864	 -0.12405	  3.16069	702.19000	 31.30	
 16.995	-29.081	  2.76295	  2.52927	 -0.19810	  0.34626	  1.70340	 -0.11876	  3.16391	702.16998	 31.30	
 16.990	-23.241	  2.75984	  2.60971	 -0.25608	  0.47440	  1.53589	 -0.11322	  3.16506	702.13000	 31.30	
 17.000	-17.404	  2.75220	  2.67074	 -0.30054	  0.61821	  1.35995	 -0.10800	  3.16167	702.12000	 31.30	
 17.009	-11.617	  2.74662	  2.71388	 -0.33463	  0.76988	  1.18170	 -0.10678	  3.16087	702.03998	 31.30	
 16.990	 -5.821	  2.73994	  2.73028	 -0.35169	  0.91958	  1.01330	 -0.11023	  3.15914	702.09998	 31.30	
 17.000	  0.000	  2.73121	  2.73505	 -0.36372	  1.08172	  0.84021	 -0.11404	  3.15956	702.09003	 31.30	
 16.990	  5.821	  2.72630	  2.71724	 -0.36207	  1.25348	  0.67228	 -0.11589	  3.16198	702.12000	 31.30	
 17.009	 11.617	  2.72244	  2.68291	 -0.34733	  1.41542	  0.51905	 -0.11947	  3.16393	702.03003	 31.30	
 17.000	 17.404	  2.71810	  2.62279	 -0.31407	  1.58870	  0.36795	 -0.12175	  3.16584	701.96997	 31.30	
 16.990	 23.241	  2.71100	  2.54430	 -0.27609	  1.75271	  0.22600	 -0.12403	  3.16297	702.03998	 31.30	
 16.995	 29.081	  2.70365	  2.45172	 -0.22423	  1.90740	  0.10016	 -0.13173	  3.16124	702.09998	 31.30	
 16.988	 34.839	  2.69785	  2.34216	 -0.16195	  2.06168	 -0.01875	 -0.13501	  3.16345	702.03003	 31.30	
 17.014	 40.657	  2.68762	  2.21422	 -0.08970	  2.20501	 -0.13412	 -0.13795	  3.16279	702.04999	 31.30	
 17.007	 46.454	  2.68298	  2.07771	 -0.00096	  2.33068	 -0.21843	 -0.14048	  3.16090	701.97998	 31.30	
 17.001	 52.301	  2.67611	  1.92913	  0.09822	  2.44972	 -0.30271	 -0.14140	  3.16145	702.02002	 31.30	
 17.006	 58.063	  2.67148	  1.77090	  0.20755	  2.55465	 -0.37054	 -0.14137	  3.16329	701.97998	 31.30	
 17.002	 63.866	  2.66565	  1.60658	  0.32580	  2.63999	 -0.42915	 -0.14226	  3.16166	702.01001	 31.20	
 17.001	 69.690	  2.65932	  1.43109	  0.45949	  2.71176	 -0.48180	 -0.14475	  3.16152	702.03003	 31.30	
 16.988	 75.483	  2.65730	  1.25857	  0.60259	  2.76198	 -0.51402	 -0.14643	  3.16245	702.01001	 31.30	
 17.012	 81.253	  2.65726	  1.09260	  0.74779	  2.79626	 -0.53350	 -0.14884	  3.16511	702.08002	 31.30	
 16.996	 87.091	  2.65433	  0.92167	  0.90828	  2.81018	 -0.54556	 -0.14967	  3.16528	702.09998	 31.30	
 16.996	 92.909	  2.65020	  0.75253	  1.06673	  2.80202	 -0.54763	 -0.15006	  3.16183	702.10999	 31.30	
 17.008	 98.662	  2.64804	  0.59122	  1.23539	  2.78490	 -0.54056	 -0.15265	  3.16667	702.03003	 31.30	
 16.988	104.517	  2.65001	  0.44057	  1.40688	  2.73598	 -0.50928	 -0.15355	  3.16499	702.15002	 31.20	
 17.001	110.310	  2.64667	  0.30130	  1.56959	  2.67392	 -0.47572	 -0.15528	  3.16378	702.20001	 31.20	
 17.002	116.134	  2.64458	  0.16763	  1.73562	  2.59141	 -0.42850	 -0.15914	  3.16047	702.22998	 31.20	
 17.006	121.937	  2.64756	  0.04895	  1.89886	  2.49496	 -0.36780	 -0.16167	  3.16336	702.12000	 31.20	
 17.001	127.699	  2.65004	 -0.05561	  2.04990	  2.38718	 -0.29724	 -0.16564	  3.16392	702.17999	 31.20	
 17.007	133.546	  2.64644	 -0.15951	  2.19372	  2.25273	 -0.21432	 -0.16856	  3.15995	702.15997	 31.20	
 17.014	139.343	  2.64936	 -0.24124	  2.32448	  2.12004	 -0.12185	 -0.17096	  3.16352	702.15002	 31.20	
 16.988	145.161	  2.65252	 -0.31165	  2.44381	  1.96514	 -0.01344	 -0.17005	  3.16167	702.25000	 31.20	
 16.995	150.919	  2.65557	 -0.37102	  2.54811	  1.80813	  0.10592	 -0.16701	  3.16175	702.22998	 31.20	
 16.990	156.759	  2.66126	 -0.41829	  2.63651	  1.64525	  0.23789	 -0.16592	  3.16357	702.22998	 31.20	
 17.000	162.596	  2.66446	 -0.45387	  2.70208	  1.47927	  0.37294	 -0.16254	  3.16228	702.16998	 31.20	
 17.009	168.383	  2.66944	 -0.47797	  2.75212	  1.30491	  0.52350	 -0.16077	  3.16183	702.16998	 31.20	
 16.990	174.179	  2.67438	 -0.49091	  2.78329	  1.14389	  0.67778	 -0.15883	  3.16105	702.21997	 31.20	
 18.709	174.675	  2.56863	 -0.65805	  2.87487	  1.05805	  0.61423	 -0.16784	  3.16628	702.09998	 31.20	
 18.703	169.441	  2.56067	 -0.64673	  2.84495	  1.22239	  0.45736	 -0.17091	  3.16329	702.08002	 31.20	
 18.691	164.085	  2.55861	 -0.61986	  2.79696	  1.39667	  0.30588	 -0.17216	  3.16362	702.15997	 31.20	
 18.706	158.818	  2.55174	 -0.59159	  2.73587	  1.56031	  0.16702	 -0.17184	  3.16285	702.15002	 31.20	
 18.695	153.537	  2.55164	 -0.55089	  2.65838	  1.72487	  0.04105	 -0.17405	  3.16558	702.21002	 31.20	
 18.704	148.255	  2.54289	 -0.50326	  2.56226	  1.88567	 -0.08492	 -0.17512	  3.16332	702.09003	 31.20	
 18.698	142.952	  2.54043	 -0.44166	  2.45419	  2.03562	 -0.19491	 -0.17547	  3.16316	702.20001	 31.20	
 18.699	137.625	  2.53876	 -0.36918	  2.32999	  2.18604	 -0.29354	 -0.17684	  3.16344	702.13000	 31.20	
 18.705	132.343	  2.53649	 -0.28280	  2.19296	  2.32226	 -0.38011	 -0.17882	  3.16212	702.23999	 31.20	
 18.713	127.067	  2.53685	 -0.18964	  2.04946	  2.44417	 -0.45731	 -0.17673	  3.16231	702.20001	 31.20	
 18.700	121.794	  2.53455	 -0.08482	  1.89598	  2.56061	 -0.53051	 -0.17526	  3.16437	702.27002	 31.20	
 18.698	116.504	  2.53506	  0.02853	  1.73817	  2.65623	 -0.58515	 -0.17450	  3.16488	702.25000	 31.20	
 18.707	111.165	  2.53171	  0.15323	  1.57155	  2.73437	 -0.63401	 -0.17311	  3.16131	702.17999	 31.20	
 18.690	105.863	  2.53729	  0.29646	  1.40373	  2.80121	 -0.66688	 -0.17091	  3.16367	702.22998	 31.20	
 18.696	100.583	  2.53780	  0.44049	  1.23669	  2.85298	 -0.69510	 -0.16638	  3.16550	702.23999	 31.20	
 18.700	 95.309	  2.53914	  0.59591	  1.07060	  2.88097	 -0.70860	 -0.16564	  3.16353	702.15002	 31.20	
 18.700	 90.000	  2.54201	  0.75589	  0.90904	  2.89506	 -0.71331	 -0.16556	  3.16426	702.21002	 31.20	
 18.700	 84.691	  2.53633	  0.91887	  0.74601	  2.88981	 -0.71371	 -0.16347	  3.15882	702.16998	 31.20	
 18.696	 79.417	  2.54437	  1.08709	  0.59830	  2.87221	 -0.69864	 -0.16225	  3.16278	702.15002	 31.20	
 18.690	 74.137	  2.55027	  1.26092	  0.45299	  2.83476	 -0.66816	 -0.16338	  3.16434	702.14001	 31.20	
 18.707	 68.835	  2.55190	  1.43096	  0.31578	  2.78123	 -0.63650	 -0.16212	  3.16175	702.06000	 31.20	
 18.698	 63.496	  2.55715	  1.60279	  0.18711	  2.70873	 -0.59058	 -0.16075	  3.16339	702.09998	 31.20	
 18.700	 58.206	  2.56100	  1.76743	  0.06657	  2.62333	 -0.53654	 -0.16259	  3.16518	702.09003	 31.20	
 18.713	 52.933	  2.56085	  1.92321	 -0.04352	  2.51892	 -0.47379	 -0.16357	  3.16102	702.04999	 31.20	
 18.705	 47.657	  2.56941	  2.07770	 -0.13976	  2.40293	 -0.39212	 -0.16261	  3.16121	702.14001	 31.20	
 18.699	 42.375	  2.57745	  2.22173	 -0.22311	  2.27044	 -0.29457	 -0.16187	  3.16250	702.12000	 31.20	
 18.698	 37.048	  2.58212	  2.34866	 -0.30189	  2.13474	 -0.20751	 -0.16163	  3.16138	702.15002	 31.20	
 18.704	 31.745	  2.58830	  2.46218	 -0.36408	  1.98472	 -0.09091	 -0.15697	  3.15822	702.16998	 31.20	
 18.695	 26.463	  2.59932	  2.57116	 -0.42068	  1.83030	  0.02917	 -0.15167	  3.16518	702.09003	 31.20	
 18.706	 21.182	  2.60418	  2.65683	 -0.46651	  1.67235	  0.15917	 -0.14773	  3.16456	702.15002	 31.20	
 18.691	 15.915	  2.61062	  2.72524	 -0.49944	  1.50938	  0.29596	 -0.14113	  3.16232	702.19000	 31.20	
 18.703	 10.559	  2.61697	  2.78090	 -0.52368	  1.33402	  0.45152	 -0.13604	  3.16255	702.15997	 31.20	
 18.709	  5.325	  2.62199	  2.81478	 -0.53706	  1.17526	  0.59818	 -0.13306	  3.16214	702.06000	 31.20	
 18.700	  0.000	  2.63200	  2.82980	 -0.53521	  1.01080	  0.77008	 -0.13031	  3.16227	702.23999	 31.20	
 18.709	 -5.325	  2.63638	  2.82869	 -0.52887	  0.85197	  0.93569	 -0.12748	  3.16043	702.14001	 31.20	
 18.703	-10.559	  2.64217	  2.81253	 -0.51105	  0.69772	  1.10383	 -0.12607	  3.16292	702.15997	 31.20	
 18.691	-15.915	  2.64931	  2.77855	 -0.48265	  0.54856	  1.27855	 -0.12648	  3.16551	702.14001	 31.20	
 18.706	-21.182	  2.65649	  2.72212	 -0.44199	  0.41025	  1.45417	 -0.12940	  3.16615	702.15997	 31.20	
 18.695	-26.463	  2.65923	  2.64782	 -0.39159	  0.27604	  1.62262	 -0.13322	  3.16321	702.17999	 31.20	
 18.704	-31.745	  2.66247	  2.56134	 -0.33492	  0.15328	  1.78683	 -0.13907	  3.16479	702.12000	 31.20	
 18.698	-37.048	  2.66409	  2.45373	 -0.26136	  0.04219	  1.94599	 -0.14434	  3.16160	702.09003	 31.20	
 18.699	-42.375	  2.66353	  2.33092	 -0.18052	 -0.06158	  2.09458	 -0.14679	  3.15782	702.06000	 31.20	
 18.705	-47.657	  2.67106	  2.20656	 -0.09344	 -0.15179	  2.23475	 -0.14848	  3.16391	702.02002	 31.20	
 18.713	-52.933	  2.66983	  2.06049	  0.00379	 -0.23642	  2.36271	 -0.14871	  3.16310	702.04999	 31.20	
 18.700	-58.206	  2.66700	  1.90711	  0.11325	 -0.30788	  2.47323	 -0.15080	  3.15962	702.04999	 31.20	
 18.698	-63.496	  2.66977	  1.74721	  0.23735	 -0.36556	  2.57381	 -0.15513	  3.16236	702.00000	 31.20	
 18.707	-68.835	  2.66925	  1.58005	  0.36689	 -0.41843	  2.65763	 -0.15413	  3.16295	701.94000	 31.20	
 18.690	-74.137	  2.67424	  1.41339	  0.50825	 -0.45401	  2.72127	 -0.15584	  3.16541	702.03998	 31.20	
 18.696	-79.417	  2.66889	  1.24048	  0.65085	 -0.48087	  2.76397	 -0.15785	  3.16146	702.09998	 31.20	
 18.700	-84.691	  2.66671	  1.07245	  0.80414	 -0.50076	  2.79094	 -0.15655	  3.16222	701.98999	 31.20	
 18.700	-90.000	  2.66454	  0.90247	  0.96219	 -0.51122	  2.80250	 -0.15566	  3.16495	702.03003	 31.20	
 18.700	-95.309	  2.66183	  0.73540	  1.12654	 -0.51028	  2.79587	 -0.15425	  3.16664	701.95001	 31.20	
 18.696	-100.583	  2.65699	  0.57302	  1.29214	 -0.49775	  2.76706	 -0.15195	  3.16230	702.06000	 31.20	
 18.690	-105.863	  2.65204	  0.42273	  1.45706	 -0.47803	  2.71911	 -0.15024	  3.16232	702.09998	 31.20	
 18.707	-111.165	  2.64569	  0.28150	  1.62045	 -0.44512	  2.65526	 -0.14695	  3.16087	702.12000	 31.20	
 18.698	-116.504	  2.63982	  0.13945	  1.78308	 -0.40564	  2.57492	 -0.14738	  3.16150	702.01001	 31.20	
 18.700	-121.794	  2.63713	  0.01506	  1.94536	 -0.34791	  2.47320	 -0.14598	  3.16171	701.96002	 31.20	
 18.713	-127.067	  2.63084	 -0.10090	  2.09131	 -0.29035	  2.36488	 -0.14791	  3.16281	702.07001	 31.20	
 18.705	-132.343	  2.62146	 -0.20470	  2.22927	 -0.21811	  2.23687	 -0.14600	  3.15948	702.04999	 31.20	
 18.699	-137.625	  2.61908	 -0.29596	  2.36266	 -0.13405	  2.10169	 -0.14453	  3.16313	702.01001	 31.20	
 18.698	-142.952	  2.61691	 -0.38068	  2.48510	 -0.03341	  1.94765	 -0.14749	  3.16521	702.07001	 31.20	
 18.704	-148.255	  2.60947	 -0.45330	  2.59230	  0.06882	  1.78780	 -0.14970	  3.16469	702.03998	 31.20	
 18.695	-153.537	  2.60227	 -0.50708	  2.67826	  0.18517	  1.62350	 -0.14858	  3.16108	702.09998	 31.20	
 18.706	-158.818	  2.59594	 -0.55921	  2.75335	  0.30676	  1.45812	 -0.15222	  3.16409	702.01001	 31.20	
 18.691	-164.085	  2.59246	 -0.60032	  2.81453	  0.44288	  1.28558	 -0.15242	  3.16607	702.03003	 31.20	
 18.703	-169.441	  2.58392	 -0.62865	  2.85401	  0.58930	  1.11163	 -0.15728	  3.16313	701.98999	 31.20	
 18.709	-174.675	  2.57493	 -0.65083	  2.87619	  0.73488	  0.94043	 -0.16146	  3.16222	701.95001	 31.20	
 18.700	180.000	  2.57314	 -0.65662	  2.88242	  0.90009	  0.77390	 -0.16389	  3.16383	702.00000	 31.20	
 20.400	180.000	  2.44924	 -0.83165	  2.95863	  0.80168	  0.69109	 -0.15742	  3.16170	702.03003	 31.20	
 20.401	-175.153	  2.45331	 -0.82655	  2.95264	  0.64859	  0.85064	 -0.15828	  3.16063	701.96002	 31.20	
 20.407	-170.264	  2.46158	 -0.80539	  2.93121	  0.49621	  1.02363	 -0.15348	  3.16215	701.96002	 31.20	
 20.410	-165.423	  2.46948	 -0.78142	  2.89785	  0.35219	  1.19466	 -0.15094	  3.16671	701.98999	 31.20	
 20.392	-160.496	  2.47505	 -0.74576	  2.84328	  0.21637	  1.36656	 -0.14956	  3.16571	702.03998	 31.20	
 20.401	-155.705	  2.48127	 -0.70005	  2.77519	  0.09333	  1.53541	 -0.14709	  3.16410	702.04999	 31.20	
 20.405	-150.835	  2.48451	 -0.64528	  2.68645	 -0.02128	  1.70270	 -0.14806	  3.16152	702.03003	 31.20	
 20.397	-145.903	  2.49615	 -0.57734	  2.59208	 -0.13154	  1.87122	 -0.14680	  3.16541	702.09998	 31.20	
 20.392	-141.062	  2.50214	 -0.50435	  2.48218	 -0.22317	  2.01972	 -0.14763	  3.16320	702.02002	 31.20	
 20.396	-136.227	  2.50572	 -0.42813	  2.35957	 -0.31692	  2.17126	 -0.14935	  3.16570	701.96002	 31.20	
 20.408	-131.372	  2.51375	 -0.33515	  2.22878	 -0.39249	  2.30445	 -0.14666	  3.16506	701.97998	 31.20	
 20.410	-126.511	  2.51531	 -0.23284	  2.08416	 -0.46548	  2.43083	 -0.14809	  3.16461	702.03003	 31.20	
 20.400	-121.604	  2.52195	 -0.11977	  1.93186	 -0.52483	  2.54591	 -0.14669	  3.16599	701.98999	 31.20	
 20.403	-116.741	  2.52655	  0.00503	  1.77341	 -0.57537	  2.64327	 -0.14628	  3.16445	701.95001	 31.20	
 20.413	-111.900	  2.53108	  0.13903	  1.61174	 -0.60965	  2.71704	 -0.14916	  3.15998	702.03998	 31.20	
 20.398	-107.004	  2.53772	  0.27889	  1.44930	 -0.64128	  2.78906	 -0.15246	  3.16330	702.02002	 31.20	
 20.394	-102.132	  2.53974	  0.42091	  1.28354	 -0.66714	  2.83863	 -0.15272	  3.16220	702.03998	 31.10	
 20.403	-97.332	  2.54200	  0.57755	  1.11362	 -0.68767	  2.87336	 -0.15803	  3.16476	701.98999	 31.10	
 20.392	-92.440	  2.55152	  0.74191	  0.95525	 -0.68734	  2.88817	 -0.15893	  3.16440	701.97998	 31.10	
 20.392	-87.560	  2.55206	  0.90348	  0.79551	 -0.68534	  2.88913	 -0.15943	  3.16437	702.01001	 31.10	
 20.403	-82.668	  2.55499	  1.07502	  0.64063	 -0.67103	  2.86950	 -0.16342	  3.16204	701.98999	 31.10	
 20.394	-77.868	  2.55713	  1.24307	  0.49423	 -0.64844	  2.83585	 -0.16118	  3.16168	702.00000	 31.10	
 20.398	-72.996	  2.55507	  1.41454	  0.35156	 -0.62042	  2.78543	 -0.16444	  3.16229	702.02002	 31.20	
 20.413	-68.100	  2.56193	  1.58429	  0.21692	 -0.58077	  2.72462	 -0.16202	  3.16651	701.96002	 31.10	
 20.403	-63.259	  2.55828	  1.74316	  0.09357	 -0.53459	  2.63927	 -0.16221	  3.16193	701.91998	 31.10	
 20.400	-58.396	  2.55986	  1.90796	 -0.02514	 -0.47499	  2.53800	 -0.15962	  3.16140	701.96997	 31.10	
 20.410	-53.489	  2.55711	  2.06032	 -0.13706	 -0.41260	  2.42798	 -0.15768	  3.16410	702.03003	 31.10	
 20.408	-48.628	  2.55432	  2.20279	 -0.23697	 -0.33889	  2.30347	 -0.15476	  3.16230	702.09003	 31.10	
 20.396	-43.773	  2.55816	  2.34045	 -0.32329	 -0.24719	  2.16782	 -0.15379	  3.16569	702.00000	 31.10	
 20.392	-38.938	  2.55600	  2.46094	 -0.40503	 -0.15334	  2.02141	 -0.15076	  3.16641	702.02002	 31.10	
 20.397	-34.097	  2.54760	  2.57488	 -0.47835	 -0.04823	  1.85842	 -0.14737	  3.16325	702.04999	 31.10	
 20.405	-29.165	  2.54474	  2.67140	 -0.54378	  0.06563	  1.69895	 -0.14309	  3.16515	701.96002	 31.10	
 20.401	-24.295	  2.54100	  2.75013	 -0.59567	  0.18770	  1.53072	 -0.14063	  3.16326	702.04999	 31.10	
 20.392	-19.504	  2.53914	  2.81507	 -0.63510	  0.31783	  1.36428	 -0.13624	  3.16292	702.06000	 31.10	
 20.410	-14.577	  2.53292	  2.86523	 -0.67171	  0.46375	  1.18782	 -0.13510	  3.16284	702.06000	 31.10	
 20.407	 -9.736	  2.52804	  2.89932	 -0.69962	  0.61128	  1.01437	 -0.13468	  3.16444	702.12000	 31.10	
 20.401	 -4.847	  2.52017	  2.91487	 -0.71680	  0.75959	  0.84686	 -0.13503	  3.16339	702.09003	 31.10	
 20.400	  0.000	  2.51559	  2.91570	 -0.72337	  0.91817	  0.68272	 -0.13762	  3.16549	702.03998	 31.10	
 20.401	  4.847	  2.50855	  2.89892	 -0.72067	  1.08315	  0.51674	 -0.13975	  3.16325	702.09998	 31.10	
 20.407	  9.736	  2.49825	  2.86410	 -0.71341	  1.24362	  0.36309	 -0.14280	  3.16167	702.03003	 31.10	
 20.410	 14.577	  2.48685	  2.81287	 -0.69385	  1.41227	  0.20918	 -0.14920	  3.15889	702.16998	 31.10	
 20.392	 19.504	  2.48697	  2.75050	 -0.66018	  1.58070	  0.07265	 -0.15206	  3.16306	702.08002	 31.10	
 20.401	 24.295	  2.47919	  2.67251	 -0.62441	  1.73876	 -0.05610	 -0.15971	  3.16200	702.09998	 31.10	
 20.405	 29.165	  2.47251	  2.57985	 -0.57880	  1.89779	 -0.17889	 -0.16277	  3.16573	702.14001	 31.10	
 20.397	 34.097	  2.46478	  2.46680	 -0.51947	  2.05163	 -0.29563	 -0.16643	  3.16455	701.96997	 31.10	
 20.392	 38.938	  2.46356	  2.34229	 -0.44561	  2.19788	 -0.38992	 -0.16754	  3.16358	702.08002	 31.10	
 20.396	 43.773	  2.45281	  2.21164	 -0.37565	  2.33393	 -0.48791	 -0.16770	  3.16264	702.12000	 31.10	
 20.408	 48.628	  2.44758	  2.06875	 -0.29306	  2.46370	 -0.57538	 -0.17031	  3.16671	702.13000	 31.10	
 20.410	 53.489	  2.44233	  1.91453	 -0.19410	  2.57578	 -0.64568	 -0.16674	  3.16391	702.06000	 31.10	
 20.400	 58.396	  2.43911	  1.74933	 -0.08227	  2.67994	 -0.70793	 -0.16741	  3.16541	701.95001	 31.10	
 20.403	 63.259	  2.42795	  1.58285	  0.02816	  2.76375	 -0.76394	 -0.16705	  3.16044	702.02002	 31.10	
 20.413	 68.100	  2.42746	  1.42254	  0.15212	  2.83655	 -0.80524	 -0.16799	  3.16521	702.07001	 31.10	
 20.398	 72.996	  2.42475	  1.24548	  0.29183	  2.89472	 -0.84028	 -0.16674	  3.16305	702.08002	 31.10	
 20.394	 77.868	  2.42052	  1.07424	  0.43073	  2.93572	 -0.86663	 -0.16600	  3.16344	702.08002	 31.10	
 20.403	 82.668	  2.41430	  0.91021	  0.57354	  2.96099	 -0.88746	 -0.16765	  3.16281	702.03003	 31.10	
 20.392	 87.560	  2.41489	  0.73630	  0.73402	  2.97606	 -0.90111	 -0.16588	  3.16501	702.07001	 31.10	
 20.392	 92.440	  2.41209	  0.57522	  0.89349	  2.96763	 -0.89475	 -0.16648	  3.16265	702.08002	 31.10	
 20.403	 97.332	  2.41221	  0.42390	  1.05639	  2.94795	 -0.88728	 -0.16656	  3.16517	702.10999	 31.10	
 20.394	102.132	  2.41167	  0.27174	  1.22501	  2.91164	 -0.86572	 -0.16783	  3.16568	702.10999	 31.10	
 20.398	107.004	  2.41025	  0.14189	  1.38706	  2.85541	 -0.83542	 -0.16714	  3.16197	702.04999	 31.10	
 20.413	111.900	  2.41190	  0.00126	  1.56096	  2.78601	 -0.79889	 -0.17050	  3.16287	702.03003	 31.10	
 20.403	116.741	  2.40397	 -0.12233	  1.71773	  2.70238	 -0.76010	 -0.17165	  3.15940	702.04999	 31.10	
 20.400	121.604	  2.40703	 -0.23223	  1.87853	  2.60800	 -0.70248	 -0.17151	  3.16207	701.97998	 31.10	
 20.410	126.511	  2.41062	 -0.33959	  2.03869	  2.50157	 -0.64003	 -0.17294	  3.16597	701.96002	 31.10	
 20.408	131.372	  2.41121	 -0.43059	  2.18560	  2.37393	 -0.56196	 -0.17239	  3.16493	702.06000	 31.10	
 20.396	136.227	  2.41288	 -0.51416	  2.32308	  2.23947	 -0.47920	 -0.17061	  3.16303	702.09003	 31.10	
 20.392	141.062	  2.41371	 -0.58914	  2.44657	  2.10141	 -0.39279	 -0.17251	  3.16385	702.08002	 31.10	
 20.397	145.903	  2.41545	 -0.65111	  2.56228	  1.94567	 -0.28413	 -0.17066	  3.16148	701.97998	 31.10	
 20.405	150.835	  2.42265	 -0.70183	  2.66665	  1.79089	 -0.17209	 -0.16966	  3.16480	702.07001	 31.10	
 20.401	155.705	  2.42737	 -0.74466	  2.75558	  1.62243	 -0.04177	 -0.17071	  3.16360	702.08002	 31.10	
 20.392	160.496	  2.42960	 -0.78234	  2.82556	  1.46179	  0.08297	 -0.16947	  3.16321	702.03998	 31.10	
 20.410	165.423	  2.43580	 -0.80955	  2.88582	  1.29018	  0.22464	 -0.16473	  3.16555	702.04999	 31.10	
 20.407	170.264	  2.43850	 -0.82558	  2.92356	  1.12816	  0.36756	 -0.16429	  3.16131	701.97998	 31.10	
 20.401	175.153	  2.44543	 -0.83703	  2.95145	  0.96228	  0.52698	 -0.15959	  3.16489	702.01001	 31.10	
  0.141	 45.000	  3.17865	  1.32684	  1.43318	  1.45786	  1.26325	  0.07566	  3.16622	702.04999	 31.10	
  4.001	128.691	  3.15660	  1.03251	  1.63514	  1.71093	  0.93500	  0.04504	  3.16595	702.06000	 31.10	
  4.002	 76.995	  3.15646	  1.35036	  1.30586	  1.80381	  0.86692	  0.05429	  3.16401	702.07001	 31.10	
  4.002	 25.892	  3.16517	  1.63861	  1.07486	  1.58939	  1.06225	  0.06096	  3.16440	702.01001	 31.10	
  4.002	-25.892	  3.16950	  1.65281	  1.08668	  1.26432	  1.39580	  0.06100	  3.16247	702.03003	 31.10	
  4.002	-76.995	  3.17272	  1.38915	  1.32396	  1.08109	  1.61717	  0.06212	  3.16267	702.03998	 31.10	
  4.001	-128.691	  3.16889	  1.07183	  1.63898	  1.12917	  1.53350	  0.05272	  3.16416	702.01001	 31.10	
  4.000	180.000	  3.16074	  0.91823	  1.79324	  1.39783	  1.21815	  0.04253	  3.16529	702.00000	 31.10	
  8.000	180.000	  3.08186	  0.47249	  2.15525	  1.31300	  1.14705	 -0.01653	  3.16094	702.04999	 31.10	
  7.991	-152.370	  3.09550	  0.56385	  2.06181	  0.96920	  1.53446	 -0.00888	  3.16215	702.06000	 31.10	
  7.997	-124.550	  3.11082	  0.80399	  1.79459	  0.73624	  1.84379	  0.00208	  3.16338	702.02002	 31.10	
  8.006	-96.837	  3.12078	  1.14622	  1.43139	  0.63086	  2.00455	  0.01249	  3.16606	702.06000	 31.10	
  7.988	-69.228	  3.11812	  1.52983	  1.06519	  0.66749	  1.94823	  0.02127	  3.16127	702.04999	 31.10	
  7.997	-41.563	  3.12098	  1.86286	  0.77979	  0.86258	  1.70604	  0.01832	  3.16646	702.04999	 31.10	
  8.008	-13.821	  3.11272	  2.04683	  0.62169	  1.18089	  1.34028	  0.01866	  3.16354	702.06000	 31.10	
  8.008	 13.821	  3.09894	  2.03190	  0.61117	  1.55225	  0.95314	  0.01867	  3.16370	701.96002	 31.10	
  7.997	 41.563	  3.08983	  1.81333	  0.76276	  1.90589	  0.63594	  0.01546	  3.16679	702.13000	 31.10	
  7.988	 69.228	  3.07811	  1.46432	  1.04136	  2.12678	  0.45130	  0.01227	  3.16602	701.97998	 31.10	
  8.006	 96.837	  3.06652	  1.07338	  1.40330	  2.16122	  0.41337	 -0.00402	  3.15972	702.08002	 31.10	
  7.997	124.550	  3.06786	  0.73931	  1.77446	  2.00438	  0.52965	 -0.01100	  3.16367	701.97998	 31.10	
  7.991	152.370	  3.07501	  0.53314	  2.05072	  1.68880	  0.79231	 -0.01967	  3.16447	702.07001	 31.10	
 12.009	161.059	  2.92770	  0.06147	  2.39732	  1.57400	  0.65744	 -0.09336	  3.16177	701.94000	 31.10	
 12.013	142.081	  2.92182	  0.19242	  2.18926	  1.94922	  0.34445	 -0.09642	  3.16526	702.00000	 31.10	
 12.006	123.113	  2.91671	  0.42857	  1.86515	  2.25375	  0.11816	 -0.08348	  3.16333	701.92999	 31.10	
 12.007	104.200	  2.91861	  0.75281	  1.48399	  2.43941	 -0.00529	 -0.07539	  3.16486	701.92999	 31.10	
 11.989	 85.301	  2.92014	  1.13988	  1.09039	  2.48972	 -0.03679	 -0.06838	  3.16244	701.90002	 31.10	
 12.013	 66.294	  2.93025	  1.54116	  0.73718	  2.39864	  0.03717	 -0.05511	  3.16486	701.98999	 31.10	
 12.012	 47.388	  2.94029	  1.91571	  0.45219	  2.16803	  0.21024	 -0.05242	  3.16245	701.94000	 31.10	
 11.990	 28.440	  2.95411	  2.20033	  0.25952	  1.84197	  0.47942	 -0.03949	  3.16175	702.04999	 31.10	
 11.991	  9.464	  2.97150	  2.36675	  0.16763	  1.45644	  0.83436	 -0.04299	  3.16162	702.04999	 31.10	
 11.991	 -9.464	  2.98914	  2.38701	  0.17199	  1.06805	  1.23763	 -0.04067	  3.16637	701.94000	 31.10	
 11.990	-28.440	  2.99925	  2.25725	  0.28155	  0.72677	  1.63318	 -0.03990	  3.16408	701.98999	 31.10	
 12.012	-47.388	  3.00188	  1.99661	  0.48066	  0.44896	  1.98023	 -0.04633	  3.16130	701.91998	 31.10	
 12.013	-66.294	  3.00548	  1.64429	  0.77001	  0.25901	  2.23529	 -0.04167	  3.16570	701.83002	 31.10	
 11.989	-85.301	  3.00431	  1.23932	  1.13172	  0.18115	  2.34920	 -0.05448	  3.16552	701.94000	 31.10	
 12.007	-104.200	  2.99163	  0.84481	  1.51693	  0.19347	  2.31135	 -0.05867	  3.16303	701.83002	 31.10	
 12.006	-123.113	  2.98118	  0.51011	  1.89071	  0.31199	  2.12381	 -0.06481	  3.16159	702.02002	 31.10	
 12.013	-142.081	  2.97100	  0.24922	  2.20830	  0.52664	  1.81852	 -0.07365	  3.16358	701.84998	 31.10	
 12.009	-161.059	  2.95451	  0.09031	  2.40660	  0.81846	  1.43853	 -0.08527	  3.16157	701.90002	 31.10	
 16.000	180.000	  2.74333	 -0.39298	  2.73918	  1.02512	  0.88218	 -0.14835	  3.16519	701.91998	 31.10	
 15.990	-165.604	  2.75790	 -0.34990	  2.69188	  0.65839	  1.28862	 -0.13996	  3.16601	702.09003	 31.10	
 16.002	-151.165	  2.77008	 -0.23765	  2.53448	  0.33968	  1.69181	 -0.13447	  3.16699	701.98999	 31.10	
 16.002	-136.836	  2.78466	 -0.05062	  2.27623	  0.08953	  2.05635	 -0.12777	  3.16675	702.02002	 31.10	
 15.995	-122.439	  2.79736	  0.20445	  1.94807	 -0.08916	  2.34725	 -0.12267	  3.16496	702.07001	 31.10	
 15.993	-107.966	  2.80819	  0.52886	  1.56837	 -0.20463	  2.54813	 -0.12418	  3.16482	702.04999	 31.10	
 16.005	-93.629	  2.81637	  0.90578	  1.17389	 -0.25381	  2.63916	 -0.12721	  3.16537	702.06000	 31.10	
 15.992	-79.234	  2.82530	  1.30870	  0.80098	 -0.22209	  2.60593	 -0.12381	  3.16429	702.09998	 31.10	
 16.009	-64.774	  2.82103	  1.70713	  0.45552	 -0.13468	  2.46107	 -0.11672	  3.16277	702.07001	 31.10	
 15.997	-50.364	  2.82827	  2.07683	  0.18125	  0.04361	  2.21003	 -0.11516	  3.16627	702.04999	 31.10	
 15.997	-36.045	  2.81959	  2.36891	 -0.02881	  0.27825	  1.87765	 -0.11126	  3.16473	701.90997	 31.10	
 16.000	-21.597	  2.81443	  2.57621	 -0.17736	  0.57923	  1.49290	 -0.09580	  3.16527	701.94000	 31.10	
 16.003	 -7.169	  2.80218	  2.67139	 -0.25233	  0.93260	  1.08614	 -0.09733	  3.16518	702.07001	 31.10	
 16.003	  7.169	  2.78855	  2.65171	 -0.25644	  1.31815	  0.69034	 -0.10304	  3.16632	702.10999	 31.00	
 16.000	 21.597	  2.76553	  2.51805	 -0.19602	  1.71077	  0.32809	 -0.10920	  3.16255	702.01001	 31.10	
 15.997	 36.045	  2.75398	  2.27973	 -0.05659	  2.07321	  0.03968	 -0.11733	  3.16324	702.03998	 31.10	
 15.997	 50.364	  2.73702	  1.95945	  0.14653	  2.38139	 -0.19042	 -0.12438	  3.16397	701.94000	 31.10	
 16.009	 64.774	  2.72800	  1.58008	  0.42061	  2.60889	 -0.34550	 -0.12485	  3.16408	702.03003	 31.10	
 15.992	 79.234	  2.71463	  1.17220	  0.75482	  2.73299	 -0.43578	 -0.13075	  3.16301	702.02002	 31.10	
 16.005	 93.629	  2.71003	  0.77662	  1.12788	  2.74291	 -0.44781	 -0.13847	  3.16125	702.06000	 31.10	
 15.993	107.966	  2.70715	  0.41658	  1.52280	  2.64787	 -0.39575	 -0.14174	  3.16230	701.95001	 31.10	
 15.995	122.439	  2.70800	  0.11496	  1.90502	  2.44774	 -0.26943	 -0.14923	  3.16376	702.02002	 31.00	
 16.002	136.836	  2.71269	 -0.12079	  2.24608	  2.15867	 -0.07818	 -0.15745	  3.16401	701.94000	 31.10	
 16.002	151.165	  2.71845	 -0.28099	  2.51086	  1.80352	  0.18345	 -0.15880	  3.16565	702.03998	 31.00	
 15.990	165.604	  2.72653	 -0.37431	  2.67838	  1.41180	  0.50790	 -0.15189	  3.16434	702.07001	 31.10	
 20.003	168.362	  2.46679	 -0.77659	  2.89367	  1.20661	  0.33984	 -0.16728	  3.16322	702.14001	 31.10	
 20.008	156.764	  2.45583	 -0.71575	  2.75848	  1.59745	  0.01487	 -0.17249	  3.16450	702.04999	 31.00	
 20.000	145.147	  2.44882	 -0.59611	  2.53244	  1.97538	 -0.26518	 -0.17314	  3.16359	702.03003	 31.00	
 19.995	133.545	  2.44545	 -0.42693	  2.24270	  2.31030	 -0.48405	 -0.17393	  3.16411	702.10999	 31.00	
 20.009	121.926	  2.44155	 -0.20352	  1.89313	  2.59320	 -0.65561	 -0.17202	  3.16595	702.03998	 31.00	
 20.005	110.327	  2.44090	  0.07538	  1.51568	  2.79867	 -0.77080	 -0.17156	  3.16434	702.07001	 31.00	
 19.989	 98.733	  2.44406	  0.40500	  1.12682	  2.91981	 -0.83500	 -0.16751	  3.16497	702.06000	 31.00	
 19.999	 87.075	  2.44773	  0.78095	  0.74114	  2.95656	 -0.85440	 -0.16703	  3.16712	702.03003	 31.00	
 19.992	 75.457	  2.45188	  1.17310	  0.39104	  2.90044	 -0.81418	 -0.16799	  3.16176	701.92999	 31.00	
 20.009	 63.844	  2.46123	  1.57280	  0.07924	  2.75783	 -0.72716	 -0.17104	  3.16287	702.09003	 31.00	
 19.989	 52.269	  2.47569	  1.95227	 -0.17666	  2.54098	 -0.58750	 -0.16846	  3.16656	702.03998	 31.00	
 19.999	 40.602	  2.48564	  2.29322	 -0.38600	  2.24285	 -0.39353	 -0.16923	  3.16315	702.08002	 31.00	
 20.004	 29.051	  2.50140	  2.56676	 -0.53419	  1.89986	 -0.14676	 -0.16157	  3.16445	702.03003	 31.00	
 20.005	 17.433	  2.51888	  2.76674	 -0.63335	  1.52513	  0.15527	 -0.15167	  3.16523	702.01001	 31.00	
 20.006	  5.780	  2.53876	  2.87507	 -0.67242	  1.13297	  0.51442	 -0.14056	  3.16432	702.06000	 31.00	
 20.006	 -5.780	  2.55115	  2.89381	 -0.66694	  0.75715	  0.89663	 -0.13321	  3.16375	701.89001	 31.00	
 20.005	-17.433	  2.56430	  2.82481	 -0.61144	  0.40751	  1.30111	 -0.13422	  3.16599	701.91998	 31.00	
 20.004	-29.051	  2.57392	  2.66002	 -0.50173	  0.10183	  1.69921	 -0.14266	  3.16631	702.08002	 31.00	
 19.999	-40.602	  2.58206	  2.41381	 -0.33851	 -0.14899	  2.06754	 -0.15085	  3.16558	702.06000	 31.00	
 19.989	-52.269	  2.58542	  2.09369	 -0.11937	 -0.35184	  2.38620	 -0.15630	  3.16261	702.03003	 31.00	
 20.009	-63.844	  2.58555	  1.73131	  0.13821	 -0.50215	  2.63388	 -0.16155	  3.16475	701.97998	 31.00	
 19.992	-75.457	  2.58818	  1.34104	  0.45159	 -0.59553	  2.79935	 -0.16493	  3.16742	701.98999	 31.00	
 19.999	-87.075	  2.58485	  0.94050	  0.80628	 -0.63817	  2.86987	 -0.16291	  3.16714	702.01001	 31.00	
 19.989	-98.733	  2.57537	  0.55684	  1.18427	 -0.63728	  2.84856	 -0.15493	  3.16798	701.96997	 31.00	
 20.005	-110.327	  2.56088	  0.21069	  1.56881	 -0.58562	  2.73054	 -0.15060	  3.16526	701.95001	 31.00	
 20.009	-121.926	  2.55144	 -0.09061	  1.94586	 -0.47725	  2.52274	 -0.14890	  3.16619	702.02002	 31.00	
 19.995	-133.545	  2.53993	 -0.34116	  2.28591	 -0.31627	  2.23357	 -0.14483	  3.16433	701.92999	 31.00	
 20.000	-145.147	  2.52389	 -0.53089	  2.56536	 -0.10990	  1.89037	 -0.14878	  3.16361	701.95001	 31.00	
 20.008	-156.764	  2.51135	 -0.66912	  2.77806	  0.15559	  1.50729	 -0.15017	  3.16533	701.89001	 31.00	
 20.003	-168.362	  2.49949	 -0.75127	  2.90497	  0.47281	  1.10552	 -0.15609	  3.16627	701.95001	 31.00	
 20.000	180.000	  2.48295	 -0.78952	  2.94555	  0.83126	  0.70892	 -0.16103	  3.16618	702.03003	 31.00	
