FileType=PCF
NHL=14
Date=05/31/19	09:37:13
Facility=APL
Serial=16071-13
Customer=NASA
NP=6
Mach=0.150000
Calibration=1:1
CalPts=490
TstPts=95
PortNumbering=AP Standard
Units=Torr C m/s kg/m^3 deg mm 
Theta[deg]	Phi[deg]	P1[Torr]	P2[Torr]	P3[Torr]	P4[Torr]	P5[Torr]	P6[Torr]	Pt[Torr]	Ps[Abs,Torr]	Ts[C]	
  0.000	  0.000	 11.36449	  4.50613	  5.06321	  5.08104	  4.35959	  0.27894	 11.35805	702.09998	 30.90	
  1.691	128.401	 11.35585	  4.13532	  5.36401	  5.51712	  3.88303	  0.25727	 11.35916	702.15997	 30.90	
  1.692	 77.194	 11.35898	  4.61940	  4.90599	  5.65677	  3.77275	  0.26901	 11.36090	702.10999	 30.90	
  1.699	 26.182	 11.36086	  5.04993	  4.51823	  5.34788	  4.08263	  0.28309	 11.35699	701.98999	 30.80	
  1.699	-26.182	 11.36489	  5.07941	  4.51592	  4.81995	  4.62478	  0.28952	 11.35923	702.03998	 30.90	
  1.692	-77.194	 11.35964	  4.65414	  4.92939	  4.49240	  4.95931	  0.27892	 11.35285	702.09003	 30.80	
  1.691	-128.401	 11.36319	  4.14708	  5.42343	  4.59018	  4.83039	  0.26199	 11.35604	701.96997	 30.80	
  1.700	180.000	 11.35484	  3.91256	  5.62655	  5.01724	  4.35442	  0.25221	 11.35358	701.95001	 30.80	
  3.400	180.000	 11.32460	  3.29006	  6.21477	  4.93719	  4.29455	  0.20674	 11.35639	702.02002	 30.80	
  3.388	-152.325	 11.33869	  3.44708	  6.06568	  4.40792	  4.87520	  0.21322	 11.35916	702.06000	 30.80	
  3.397	-124.529	 11.35501	  3.84060	  5.69024	  4.06273	  5.31624	  0.23144	 11.36272	702.06000	 30.80	
  3.399	-96.763	 11.35706	  4.37114	  5.13552	  3.88221	  5.55786	  0.25386	 11.35481	701.97998	 30.80	
  3.394	-69.283	 11.35755	  4.94769	  4.61232	  3.95564	  5.49470	  0.26347	 11.35771	702.00000	 30.80	
  3.400	-41.398	 11.36257	  5.43936	  4.16362	  4.28580	  5.15061	  0.27223	 11.36269	701.96997	 30.80	
  3.401	-14.021	 11.36170	  5.70435	  3.92047	  4.77152	  4.62471	  0.26978	 11.36364	701.96002	 30.80	
  3.401	 14.021	 11.34699	  5.68265	  3.89319	  5.34827	  4.02834	  0.26644	 11.35862	702.01001	 30.80	
  3.400	 41.398	 11.33252	  5.37480	  4.11541	  5.83434	  3.54532	  0.25333	 11.35434	701.96997	 30.80	
  3.394	 69.283	 11.32927	  4.85396	  4.54901	  6.17062	  3.22190	  0.23809	 11.36230	702.00000	 30.80	
  3.399	 96.763	 11.31242	  4.25826	  5.09672	  6.22848	  3.13119	  0.21609	 11.35997	701.94000	 30.80	
  3.397	124.529	 11.30804	  3.74522	  5.63870	  5.99272	  3.32105	  0.20406	 11.35922	702.06000	 30.80	
  3.388	152.325	 11.31151	  3.39259	  6.04976	  5.52613	  3.72020	  0.19192	 11.35734	701.94000	 30.80	
  5.099	161.165	 11.23992	  2.68930	  6.68928	  5.44081	  3.62981	  0.11973	 11.36142	702.09003	 30.80	
  5.109	142.013	 11.22905	  2.92262	  6.37462	  6.01335	  3.12064	  0.11881	 11.35941	702.06000	 30.80	
  5.095	123.033	 11.22931	  3.32309	  5.90177	  6.46218	  2.75534	  0.13219	 11.36156	702.08002	 30.80	
  5.105	104.191	 11.22915	  3.83311	  5.33888	  6.74420	  2.53409	  0.14268	 11.36052	702.08002	 30.80	
  5.093	 85.207	 11.24193	  4.43488	  4.74778	  6.81256	  2.50102	  0.15978	 11.36325	702.15997	 30.80	
  5.104	 66.290	 11.24990	  5.06096	  4.18350	  6.67829	  2.62942	  0.18297	 11.35701	702.09998	 30.80	
  5.094	 47.331	 11.27755	  5.61444	  3.73358	  6.35186	  2.93708	  0.19154	 11.36824	702.09998	 30.70	
  5.089	 28.397	 11.29200	  6.04962	  3.40716	  5.87147	  3.39489	  0.20670	 11.36685	702.09003	 30.80	
  5.096	  9.576	 11.31134	  6.28300	  3.26066	  5.30936	  3.95155	  0.20550	 11.36697	702.07001	 30.70	
  5.096	 -9.576	 11.32360	  6.31037	  3.28078	  4.72159	  4.55410	  0.22384	 11.36586	702.06000	 30.70	
  5.089	-28.397	 11.33478	  6.11798	  3.47070	  4.18042	  5.13993	  0.22193	 11.36622	701.95001	 30.70	
  5.094	-47.331	 11.33893	  5.74165	  3.80648	  3.73498	  5.64805	  0.22023	 11.36403	702.09003	 30.70	
  5.104	-66.290	 11.34472	  5.22360	  4.27049	  3.42133	  6.01596	  0.22747	 11.37059	702.06000	 30.70	
  5.093	-85.207	 11.33426	  4.62181	  4.80670	  3.27845	  6.16773	  0.21558	 11.36087	702.03998	 30.70	
  5.105	-104.191	 11.32737	  4.04495	  5.37526	  3.29795	  6.09200	  0.19114	 11.36534	702.02002	 30.70	
  5.095	-123.033	 11.31435	  3.48643	  5.93757	  3.47678	  5.82492	  0.17807	 11.36457	702.01001	 30.70	
  5.109	-142.013	 11.30324	  3.04000	  6.40748	  3.81827	  5.38032	  0.15661	 11.36875	702.07001	 30.70	
  5.099	-161.165	 11.27254	  2.75526	  6.69777	  4.29165	  4.80971	  0.13767	 11.36112	702.07001	 30.70	
  5.100	180.000	 11.26227	  2.63056	  6.81101	  4.85889	  4.19897	  0.13122	 11.37012	702.00000	 30.70	
  6.800	180.000	 11.14043	  1.96481	  7.36646	  4.73933	  4.09871	  0.03422	 11.36622	701.98999	 30.70	
  6.796	-166.229	 11.16275	  2.06356	  7.29148	  4.18812	  4.69675	  0.04502	 11.36654	701.96997	 30.70	
  6.808	-152.311	 11.18920	  2.27230	  7.07816	  3.68872	  5.28060	  0.06438	 11.37280	701.94000	 30.70	
  6.795	-138.383	 11.20618	  2.59861	  6.71217	  3.26409	  5.81176	  0.08135	 11.37041	702.12000	 30.70	
  6.792	-124.591	 11.21579	  3.00340	  6.25400	  2.93463	  6.24377	  0.09581	 11.35763	702.08002	 30.70	
  6.787	-110.754	 11.23204	  3.51724	  5.71681	  2.72335	  6.55178	  0.11669	 11.35797	702.10999	 30.70	
  6.800	-96.985	 11.25892	  4.09002	  5.15526	  2.61915	  6.72484	  0.13066	 11.36975	702.06000	 30.70	
  6.800	-83.015	 11.26272	  4.69421	  4.57712	  2.63653	  6.72968	  0.13313	 11.36337	702.03998	 30.70	
  6.787	-69.246	 11.27004	  5.28147	  4.04163	  2.77792	  6.58379	  0.14824	 11.36845	702.03998	 30.70	
  6.792	-55.409	 11.26273	  5.82527	  3.55744	  3.02299	  6.27760	  0.14522	 11.36332	702.10999	 30.70	
  6.795	-41.617	 11.27166	  6.28343	  3.16276	  3.39020	  5.84375	  0.13340	 11.37122	702.02002	 30.70	
  6.808	-27.689	 11.26068	  6.64184	  2.85851	  3.83486	  5.32592	  0.13333	 11.36972	702.06000	 30.70	
  6.796	-13.771	 11.24429	  6.85868	  2.65180	  4.36700	  4.73241	  0.13252	 11.36615	701.98999	 30.70	
  6.800	  0.000	 11.23497	  6.90201	  2.57962	  4.93171	  4.13516	  0.12829	 11.36863	702.04999	 30.70	
  6.796	 13.771	 11.21875	  6.79609	  2.61732	  5.50889	  3.54090	  0.13220	 11.36782	702.01001	 30.70	
  6.808	 27.689	 11.20366	  6.53389	  2.79120	  6.06551	  3.01478	  0.13157	 11.37076	702.00000	 30.70	
  6.795	 41.617	 11.17520	  6.13379	  3.07777	  6.56530	  2.54424	  0.12143	 11.36727	702.13000	 30.70	
  6.792	 55.409	 11.15509	  5.63152	  3.46472	  6.97464	  2.18672	  0.10692	 11.36842	702.15997	 30.70	
  6.787	 69.246	 11.13566	  5.05887	  3.94508	  7.24571	  1.94471	  0.09888	 11.36594	702.07001	 30.70	
  6.800	 83.015	 11.12025	  4.44938	  4.48861	  7.38034	  1.81728	  0.07159	 11.36541	702.06000	 30.70	
  6.800	 96.985	 11.11233	  3.84792	  5.07534	  7.35668	  1.82066	  0.05239	 11.36964	702.15002	 30.70	
  6.787	110.754	 11.10783	  3.29505	  5.65263	  7.17727	  1.95936	  0.04320	 11.36986	702.10999	 30.70	
  6.792	124.591	 11.10245	  2.82482	  6.19399	  6.86585	  2.18902	  0.03486	 11.36869	702.15002	 30.70	
  6.795	138.383	 11.10532	  2.43346	  6.67158	  6.41844	  2.54849	  0.01939	 11.36609	702.04999	 30.70	
  6.808	152.311	 11.12053	  2.16361	  7.04510	  5.90114	  2.99408	  0.01924	 11.37356	702.08002	 30.70	
  6.796	166.229	 11.13077	  2.01696	  7.27341	  5.32266	  3.52728	  0.02754	 11.36671	702.09003	 30.70	
  8.491	168.704	 10.97219	  1.30918	  7.82460	  5.18077	  3.36099	 -0.07893	 11.37261	702.08002	 30.70	
  8.502	157.493	 10.94993	  1.41552	  7.62838	  5.77254	  2.80629	 -0.09279	 11.36540	702.03998	 30.70	
  8.494	146.194	 10.94069	  1.63621	  7.30745	  6.34995	  2.30667	 -0.10302	 11.37154	702.10999	 30.70	
  8.495	135.039	 10.93393	  1.94754	  6.88897	  6.85005	  1.89983	 -0.09336	 11.36591	702.00000	 30.70	
  8.487	123.723	 10.93033	  2.35235	  6.37929	  7.28084	  1.56334	 -0.07549	 11.36740	701.96997	 30.70	
  8.492	112.575	 10.93013	  2.84071	  5.81555	  7.61683	  1.31318	 -0.06726	 11.36894	701.87000	 30.70	
  8.510	101.220	 10.93752	  3.38245	  5.22834	  7.83845	  1.16107	 -0.06567	 11.36883	702.01001	 30.70	
  8.500	 90.000	 10.95088	  3.98051	  4.63125	  7.91789	  1.11696	 -0.05268	 11.37259	702.01001	 30.70	
  8.510	 78.780	 10.96034	  4.60460	  4.04390	  7.88114	  1.15897	 -0.02236	 11.36761	702.03003	 30.70	
  8.492	 67.425	 10.97718	  5.23062	  3.49116	  7.71004	  1.30494	  0.00363	 11.36694	702.01001	 30.70	
  8.487	 56.277	 10.99950	  5.81408	  3.01872	  7.42611	  1.54441	  0.00984	 11.36920	701.96997	 30.70	
  8.495	 44.961	 11.02254	  6.34545	  2.60902	  7.03242	  1.88601	  0.01724	 11.37881	702.03003	 30.70	
  8.494	 33.806	 11.03731	  6.79848	  2.27642	  6.55427	  2.29767	  0.03765	 11.36928	701.97998	 30.70	
  8.502	 22.507	 11.06004	  7.14875	  2.03456	  5.99641	  2.80001	  0.04668	 11.36615	702.03003	 30.70	
  8.491	 11.296	 11.08808	  7.36922	  1.91278	  5.41419	  3.36988	  0.03886	 11.37137	702.00000	 30.70	
  8.500	  0.000	 11.11139	  7.47461	  1.87151	  4.80629	  3.97945	  0.03312	 11.37318	701.90002	 30.70	
  8.491	-11.296	 11.12485	  7.42745	  1.93264	  4.21633	  4.59889	  0.04061	 11.37158	701.97998	 30.70	
  8.502	-22.507	 11.13490	  7.25694	  2.08655	  3.66575	  5.20349	  0.04400	 11.36759	702.01001	 30.70	
  8.494	-33.806	 11.15122	  6.95382	  2.35213	  3.16590	  5.78887	  0.04079	 11.37122	702.03003	 30.70	
  8.495	-44.961	 11.15294	  6.54454	  2.69418	  2.72732	  6.31090	  0.04081	 11.37152	701.98999	 30.70	
  8.487	-56.277	 11.15903	  6.03606	  3.12259	  2.38829	  6.74201	  0.04661	 11.37076	702.09998	 30.70	
  8.492	-67.425	 11.15873	  5.48893	  3.59954	  2.13604	  7.05564	  0.05344	 11.37285	702.01001	 30.70	
  8.510	-78.780	 11.15545	  4.87874	  4.14877	  1.97420	  7.25231	  0.04441	 11.37253	702.03998	 30.70	
  8.500	-90.000	 11.14519	  4.26826	  4.72815	  1.92093	  7.31084	  0.02839	 11.36920	702.06000	 30.70	
  8.510	-101.220	 11.12670	  3.67024	  5.31203	  1.93802	  7.24901	  0.03122	 11.37090	702.02002	 30.70	
  8.492	-112.575	 11.11189	  3.08240	  5.91307	  2.07829	  7.03871	  0.01701	 11.37019	702.01001	 30.70	
  8.487	-123.723	 11.09598	  2.57721	  6.46282	  2.30409	  6.71834	 -0.00330	 11.37179	702.01001	 30.70	
  8.495	-135.039	 11.07470	  2.14175	  6.94973	  2.61542	  6.28093	 -0.01883	 11.36888	702.04999	 30.70	
  8.494	-146.194	 11.05952	  1.80212	  7.35556	  3.01352	  5.76635	 -0.02998	 11.37488	701.96002	 30.70	
  8.502	-157.493	 11.03826	  1.52978	  7.66395	  3.48367	  5.18666	 -0.05005	 11.37711	702.01001	 30.70	
  8.491	-168.704	 11.01397	  1.35337	  7.85031	  4.00464	  4.58501	 -0.06988	 11.37414	702.00000	 30.70	
  8.500	180.000	 10.98855	  1.27296	  7.90680	  4.58314	  3.95632	 -0.07839	 11.37156	702.03998	 30.70	
 10.200	180.000	 10.78503	  0.57930	  8.40837	  4.38510	  3.78776	 -0.19857	 11.37108	702.03003	 30.70	
 10.191	-170.497	 10.80955	  0.64773	  8.36438	  3.80725	  4.41714	 -0.19500	 11.37720	702.06000	 30.70	
 10.210	-161.034	 10.82343	  0.78822	  8.20336	  3.26419	  5.02659	 -0.17779	 11.36716	701.96002	 30.70	
 10.194	-151.526	 10.84686	  1.01173	  7.93720	  2.76218	  5.64323	 -0.15557	 11.36942	702.06000	 30.70	
 10.190	-142.105	 10.87228	  1.31129	  7.57908	  2.33356	  6.20701	 -0.13605	 11.36749	702.03998	 30.70	
 10.215	-132.646	 10.89361	  1.68648	  7.13807	  1.95629	  6.71898	 -0.12291	 11.36845	702.03003	 30.70	
 10.203	-123.092	 10.92889	  2.14105	  6.63552	  1.66477	  7.15369	 -0.10967	 11.38155	702.06000	 30.70	
 10.192	-113.678	 10.94477	  2.64305	  6.07647	  1.43352	  7.49144	 -0.09232	 11.37462	702.15002	 30.70	
 10.208	-104.249	 10.96226	  3.20645	  5.48161	  1.28991	  7.72901	 -0.08039	 11.37839	702.07001	 30.70	
 10.210	-94.801	 10.97275	  3.80056	  4.88108	  1.22041	  7.84734	 -0.07940	 11.37665	702.17999	 30.70	
 10.210	-85.199	 10.98345	  4.42697	  4.27717	  1.23733	  7.84662	 -0.07239	 11.36715	702.12000	 30.70	
 10.208	-75.751	 10.99454	  5.06282	  3.69308	  1.32651	  7.73786	 -0.05498	 11.37433	701.97998	 30.70	
 10.192	-66.322	 10.99345	  5.66896	  3.15052	  1.49234	  7.50952	 -0.04663	 11.37058	701.96002	 30.70	
 10.203	-56.908	 11.00185	  6.24251	  2.66665	  1.75036	  7.18198	 -0.05905	 11.37878	701.96997	 30.70	
 10.215	-47.354	 10.99560	  6.76546	  2.22504	  2.08086	  6.75889	 -0.06835	 11.37635	701.96997	 30.70	
 10.190	-37.895	 10.99197	  7.20631	  1.86935	  2.49177	  6.24330	 -0.06348	 11.37136	701.92999	 30.70	
 10.194	-28.474	 10.98688	  7.57619	  1.57929	  2.96609	  5.67679	 -0.05045	 11.38013	701.96997	 30.70	
 10.210	-18.966	 10.96586	  7.82473	  1.36091	  3.49317	  5.06388	 -0.04728	 11.36801	702.03998	 30.70	
 10.191	 -9.503	 10.96455	  7.97430	  1.24105	  4.06479	  4.44994	 -0.05721	 11.38389	702.03998	 30.70	
 10.200	  0.000	 10.94285	  8.00425	  1.18579	  4.65867	  3.81693	 -0.06768	 11.37941	702.02002	 30.70	
 10.191	  9.503	 10.91972	  7.91163	  1.21692	  5.27596	  3.20164	 -0.06314	 11.37704	701.97998	 30.70	
 10.210	 18.966	 10.88957	  7.72531	  1.31658	  5.87378	  2.61827	 -0.05228	 11.37983	701.89001	 30.70	
 10.194	 28.474	 10.87112	  7.40905	  1.52550	  6.45380	  2.10300	 -0.05280	 11.37379	701.96997	 30.70	
 10.190	 37.895	 10.84620	  7.00452	  1.79862	  6.98645	  1.63268	 -0.07268	 11.37593	701.95001	 30.70	
 10.215	 47.354	 10.81736	  6.52517	  2.13056	  7.46451	  1.21887	 -0.08622	 11.37871	701.96997	 30.70	
 10.203	 56.908	 10.79845	  5.95417	  2.56772	  7.84814	  0.91068	 -0.09974	 11.37590	702.01001	 30.70	
 10.192	 66.322	 10.77945	  5.36461	  3.04195	  8.13877	  0.67895	 -0.10112	 11.37249	701.98999	 30.70	
 10.208	 75.751	 10.76306	  4.74467	  3.57526	  8.34066	  0.52003	 -0.12327	 11.37791	701.92999	 30.70	
 10.210	 85.199	 10.74022	  4.10221	  4.14612	  8.42943	  0.43016	 -0.15971	 11.37097	701.96002	 30.70	
 10.210	 94.801	 10.73246	  3.48571	  4.74977	  8.39773	  0.43976	 -0.17759	 11.37049	702.03003	 30.70	
 10.208	104.249	 10.73033	  2.90940	  5.35409	  8.27093	  0.51826	 -0.18650	 11.38148	702.08002	 30.70	
 10.192	113.678	 10.72793	  2.35759	  5.96647	  8.02733	  0.69252	 -0.18343	 11.37951	701.96002	 30.70	
 10.203	123.092	 10.72051	  1.88137	  6.52921	  7.68777	  0.92622	 -0.19456	 11.37559	701.95001	 30.70	
 10.215	132.646	 10.72541	  1.46580	  7.06049	  7.26181	  1.23552	 -0.21352	 11.37786	702.00000	 30.70	
 10.190	142.105	 10.72696	  1.13457	  7.51117	  6.75459	  1.63414	 -0.22454	 11.37252	701.91998	 30.70	
 10.194	151.526	 10.74303	  0.87268	  7.89655	  6.20726	  2.08956	 -0.21982	 11.38033	701.95001	 30.70	
 10.210	161.034	 10.74993	  0.68640	  8.17683	  5.60589	  2.60791	 -0.21052	 11.37256	701.94000	 30.70	
 10.191	170.497	 10.76311	  0.59689	  8.34655	  5.00432	  3.17817	 -0.20109	 11.37298	702.07001	 30.70	
 11.899	171.783	 10.53069	 -0.07091	  8.81797	  4.79214	  2.98708	 -0.31845	 11.38151	702.01001	 30.70	
 11.890	163.610	 10.51322	  0.00782	  8.66013	  5.40801	  2.40754	 -0.32323	 11.38377	701.95001	 30.70	
 11.889	155.445	 10.49260	  0.14507	  8.41566	  6.00580	  1.87220	 -0.33718	 11.37646	702.03998	 30.70	
 11.909	147.299	 10.47661	  0.34628	  8.08948	  6.58857	  1.38920	 -0.34590	 11.37851	702.06000	 30.70	
 11.902	139.148	 10.47346	  0.62189	  7.68122	  7.12941	  0.96230	 -0.34292	 11.37850	702.06000	 30.70	
 11.894	130.867	 10.47377	  0.99228	  7.18305	  7.62517	  0.60555	 -0.33045	 11.37479	701.91998	 30.70	
 11.897	122.732	 10.46828	  1.39750	  6.64975	  8.04203	  0.31172	 -0.31003	 11.37651	702.00000	 30.70	
 11.903	114.597	 10.47148	  1.85193	  6.08975	  8.39040	  0.07635	 -0.29495	 11.38051	701.95001	 30.70	
 11.893	106.346	 10.47786	  2.39482	  5.47593	  8.65494	 -0.09107	 -0.29525	 11.37837	702.00000	 30.70	
 11.892	 98.155	 10.48503	  2.96846	  4.86135	  8.82157	 -0.19131	 -0.29943	 11.37935	701.91998	 30.70	
 11.900	 90.000	 10.49081	  3.57568	  4.25106	  8.90055	 -0.23969	 -0.28571	 11.37840	701.90997	 30.70	
 11.892	 81.845	 10.50072	  4.20817	  3.65165	  8.87086	 -0.20239	 -0.26365	 11.37303	702.01001	 30.70	
 11.893	 73.654	 10.51987	  4.83958	  3.09631	  8.75809	 -0.11388	 -0.23162	 11.37659	701.84998	 30.70	
 11.903	 65.403	 10.53727	  5.47711	  2.56567	  8.53651	  0.05751	 -0.21731	 11.37876	701.82001	 30.70	
 11.897	 57.268	 10.55999	  6.07586	  2.09457	  8.23704	  0.28821	 -0.21244	 11.38135	702.00000	 30.70	
 11.894	 49.133	 10.57284	  6.64597	  1.66117	  7.84554	  0.57851	 -0.20466	 11.37221	701.94000	 30.70	
 11.902	 40.852	 10.59923	  7.15845	  1.30601	  7.37733	  0.96597	 -0.19020	 11.37288	702.03998	 30.70	
 11.909	 32.701	 10.62310	  7.60249	  1.01310	  6.87273	  1.38860	 -0.16425	 11.37538	702.02002	 30.70	
 11.889	 24.555	 10.65721	  7.95427	  0.80036	  6.31736	  1.88605	 -0.14802	 11.37679	702.03998	 30.70	
 11.890	 16.390	 10.67455	  8.23900	  0.62281	  5.71165	  2.42509	 -0.16578	 11.37354	701.91998	 30.70	
 11.899	  8.217	 10.70716	  8.42383	  0.53782	  5.11013	  3.01123	 -0.17083	 11.38430	702.09998	 30.80	
 11.900	  0.000	 10.72192	  8.49750	  0.50985	  4.49250	  3.62000	 -0.16913	 11.37428	701.96997	 30.70	
 11.899	 -8.217	 10.73864	  8.47542	  0.55446	  3.89140	  4.25562	 -0.15869	 11.37462	702.07001	 30.70	
 11.890	-16.390	 10.76261	  8.35914	  0.66631	  3.31419	  4.89086	 -0.14731	 11.37846	702.13000	 30.70	
 11.889	-24.555	 10.77693	  8.13092	  0.85500	  2.78079	  5.50919	 -0.13809	 11.37855	702.09003	 30.70	
 11.909	-32.701	 10.79228	  7.82348	  1.09579	  2.28468	  6.11608	 -0.15228	 11.38283	702.00000	 30.70	
 11.902	-40.852	 10.79513	  7.42506	  1.40501	  1.84214	  6.66031	 -0.17029	 11.37651	702.10999	 30.70	
 11.894	-49.133	 10.79652	  6.95006	  1.77535	  1.45450	  7.15024	 -0.17583	 11.37080	701.98999	 30.80	
 11.897	-57.268	 10.80070	  6.40863	  2.20822	  1.13562	  7.58286	 -0.16939	 11.37627	701.90997	 30.80	
 11.903	-65.403	 10.79834	  5.83900	  2.68637	  0.88820	  7.91381	 -0.15712	 11.37294	701.96002	 30.70	
 11.893	-73.654	 10.79541	  5.21817	  3.22575	  0.70776	  8.17042	 -0.16162	 11.37571	701.97998	 30.70	
 11.892	-81.845	 10.79407	  4.58197	  3.80276	  0.59210	  8.32490	 -0.18249	 11.38135	702.01001	 30.70	
 11.900	-90.000	 10.77603	  3.94211	  4.39470	  0.54368	  8.37184	 -0.19961	 11.37619	701.92999	 30.70	
 11.892	-98.155	 10.76420	  3.34051	  4.99365	  0.56554	  8.32080	 -0.20076	 11.37810	702.02002	 30.70	
 11.893	-106.346	 10.74528	  2.74311	  5.59913	  0.64780	  8.16412	 -0.20089	 11.37976	702.03003	 30.70	
 11.903	-114.597	 10.72974	  2.17990	  6.20752	  0.79876	  7.91128	 -0.21232	 11.38263	702.02002	 30.80	
 11.897	-122.732	 10.70854	  1.68387	  6.76773	  1.02255	  7.55965	 -0.22618	 11.37967	701.94000	 30.70	
 11.894	-130.867	 10.68482	  1.23387	  7.28863	  1.30245	  7.13162	 -0.23291	 11.37636	701.97998	 30.70	
 11.902	-139.148	 10.65913	  0.84232	  7.76186	  1.64354	  6.63053	 -0.24327	 11.37553	701.96002	 30.70	
 11.909	-147.299	 10.63858	  0.51988	  8.16338	  2.05098	  6.08119	 -0.26182	 11.38004	702.02002	 30.80	
 11.889	-155.445	 10.61534	  0.28553	  8.46687	  2.52395	  5.48242	 -0.28063	 11.37741	701.89001	 30.70	
 11.890	-163.610	 10.59257	  0.09159	  8.70272	  3.03071	  4.86433	 -0.29435	 11.37858	702.07001	 30.80	
 11.899	-171.783	 10.56832	 -0.02644	  8.83780	  3.58815	  4.22852	 -0.30729	 11.37585	702.07001	 30.80	
 11.900	180.000	 10.54418	 -0.08669	  8.87676	  4.17840	  3.59343	 -0.31680	 11.37390	701.96997	 30.70	
 13.600	180.000	 10.25892	 -0.76122	  9.31944	  3.92367	  3.38145	 -0.42082	 11.38168	702.03003	 30.80	
 13.608	-172.853	 10.27942	 -0.70004	  9.27772	  3.33777	  4.00139	 -0.41084	 11.37445	701.96997	 30.80	
 13.611	-165.583	 10.31441	 -0.59460	  9.16673	  2.78606	  4.64374	 -0.39624	 11.38875	701.96997	 30.80	
 13.601	-158.353	 10.33804	 -0.42931	  8.95389	  2.26064	  5.28014	 -0.38311	 11.38427	701.97998	 30.80	
 13.609	-151.210	 10.35048	 -0.22786	  8.67090	  1.78026	  5.88714	 -0.36685	 11.37848	701.94000	 30.80	
 13.611	-143.999	 10.37669	  0.04184	  8.31155	  1.35221	  6.47666	 -0.35141	 11.37967	701.96002	 30.80	
 13.601	-136.825	 10.40560	  0.38548	  7.88771	  0.98925	  7.00730	 -0.34258	 11.37413	701.96997	 30.80	
 13.596	-129.640	 10.42554	  0.76712	  7.40321	  0.65203	  7.50985	 -0.34127	 11.38037	701.95001	 30.80	
 13.611	-122.431	 10.44670	  1.21412	  6.86322	  0.38962	  7.92951	 -0.33781	 11.37719	701.92999	 30.80	
 13.604	-115.211	 10.45886	  1.70286	  6.29216	  0.16811	  8.28202	 -0.33017	 11.37346	701.91998	 30.80	
 13.595	-108.042	 10.48845	  2.24746	  5.70220	  0.02256	  8.55223	 -0.32632	 11.37613	702.02002	 30.80	
 13.607	-100.793	 10.50978	  2.83577	  5.08710	 -0.07644	  8.74722	 -0.32048	 11.38309	702.03003	 30.80	
 13.601	-93.617	 10.52591	  3.44225	  4.48389	 -0.11350	  8.82685	 -0.32077	 11.37956	701.97998	 30.80	
 13.601	-86.383	 10.53666	  4.07323	  3.87834	 -0.10562	  8.83603	 -0.31403	 11.37918	702.03998	 30.80	
 13.607	-79.207	 10.54872	  4.70809	  3.28897	 -0.03927	  8.74989	 -0.29769	 11.38121	702.00000	 30.80	
 13.595	-71.958	 10.55781	  5.34900	  2.73897	  0.09471	  8.56561	 -0.27594	 11.37728	702.03003	 30.80	
 13.604	-64.789	 10.55818	  5.96593	  2.21020	  0.26271	  8.30798	 -0.27977	 11.38505	702.02002	 30.80	
 13.611	-57.569	 10.55174	  6.55259	  1.71984	  0.50130	  7.96302	 -0.28533	 11.38064	702.01001	 30.80	
 13.596	-50.360	 10.55670	  7.09098	  1.31124	  0.81852	  7.53792	 -0.28121	 11.38279	702.00000	 30.80	
 13.601	-43.175	 10.55448	  7.58209	  0.94215	  1.18629	  7.04915	 -0.27773	 11.38056	701.95001	 30.80	
 13.611	-36.001	 10.53940	  8.01088	  0.61194	  1.59043	  6.50948	 -0.26650	 11.37481	701.89001	 30.80	
 13.609	-28.790	 10.52916	  8.37428	  0.34184	  2.05158	  5.92048	 -0.24692	 11.37541	702.03003	 30.80	
 13.601	-21.647	 10.52880	  8.64694	  0.14735	  2.55812	  5.32161	 -0.23557	 11.38264	702.01001	 30.80	
 13.611	-14.417	 10.49829	  8.84660	 -0.02585	  3.09975	  4.68339	 -0.23992	 11.37536	702.03998	 30.80	
 13.608	 -7.147	 10.48670	  8.95629	 -0.12118	  3.68487	  4.03771	 -0.25532	 11.38286	701.95001	 30.80	
 13.600	  0.000	 10.47258	  8.96403	 -0.15043	  4.29397	  3.41048	 -0.27145	 11.37984	702.01001	 30.80	
 13.608	  7.147	 10.44058	  8.89792	 -0.14316	  4.90509	  2.78735	 -0.27253	 11.38191	702.15997	 30.80	
 13.611	 14.417	 10.41710	  8.73344	 -0.06572	  5.51300	  2.20543	 -0.26869	 11.38188	701.96997	 30.80	
 13.601	 21.647	 10.39218	  8.48506	  0.06912	  6.12312	  1.64805	 -0.26693	 11.38417	702.02002	 30.80	
 13.609	 28.790	 10.36244	  8.15115	  0.25931	  6.70404	  1.14467	 -0.26961	 11.37507	701.98999	 30.80	
 13.611	 36.001	 10.34678	  7.74690	  0.52263	  7.24389	  0.70869	 -0.29042	 11.38267	702.06000	 30.80	
 13.601	 43.175	 10.32274	  7.26476	  0.82969	  7.75883	  0.29749	 -0.30922	 11.38227	701.94000	 30.80	
 13.596	 50.360	 10.29400	  6.73683	  1.18636	  8.19463	 -0.04200	 -0.32576	 11.37689	702.06000	 30.80	
 13.611	 57.569	 10.26785	  6.15998	  1.60175	  8.58555	 -0.33675	 -0.32948	 11.37670	702.04999	 30.80	
 13.604	 64.789	 10.24396	  5.54814	  2.07237	  8.88441	 -0.55149	 -0.33470	 11.37280	701.98999	 30.80	
 13.595	 71.958	 10.23311	  4.93227	  2.57450	  9.12039	 -0.71719	 -0.34242	 11.37964	702.02002	 30.80	
 13.607	 79.207	 10.21290	  4.28721	  3.12672	  9.27213	 -0.83408	 -0.36930	 11.37788	702.01001	 30.80	
 13.601	 86.383	 10.20745	  3.65677	  3.71157	  9.33054	 -0.87567	 -0.39044	 11.38537	702.00000	 30.80	
 13.601	 93.617	 10.19635	  3.03080	  4.31600	  9.30732	 -0.87628	 -0.40896	 11.38164	702.17999	 30.80	
 13.607	100.793	 10.17861	  2.43553	  4.92738	  9.19929	 -0.82926	 -0.40938	 11.37669	701.94000	 30.80	
 13.595	108.042	 10.18183	  1.86852	  5.55570	  8.99534	 -0.69744	 -0.40556	 11.38074	702.09998	 30.80	
 13.604	115.211	 10.17411	  1.36173	  6.15125	  8.72768	 -0.53858	 -0.39804	 11.37714	701.90002	 30.80	
 13.611	122.431	 10.17717	  0.89634	  6.73722	  8.37884	 -0.31751	 -0.42463	 11.38455	702.75000	 30.80	
 13.596	129.640	 10.17493	  0.48692	  7.28553	  7.95355	 -0.03342	 -0.43911	 11.38236	702.63000	 30.80	
 13.601	136.825	 10.17634	  0.13008	  7.78302	  7.47424	  0.29765	 -0.45599	 11.37920	702.53998	 30.80	
 13.611	143.999	 10.17425	 -0.15930	  8.21762	  6.94163	  0.68642	 -0.46105	 11.37123	701.96002	 30.80	
 13.609	151.210	 10.18681	 -0.39258	  8.59290	  6.37269	  1.13483	 -0.45451	 11.37421	701.95001	 30.80	
 13.601	158.353	 10.20997	 -0.55471	  8.89240	  5.78137	  1.63333	 -0.44399	 11.38105	702.27002	 30.80	
 13.611	165.583	 10.22436	 -0.68320	  9.12457	  5.16088	  2.17884	 -0.43320	 11.38401	702.44000	 30.80	
 13.608	172.853	 10.23678	 -0.74426	  9.25933	  4.53064	  2.76647	 -0.42701	 11.37185	701.88000	 30.80	
 15.298	173.587	  9.91561	 -1.39285	  9.65756	  4.26945	  2.51957	 -0.50863	 11.37702	702.07001	 30.80	
 15.291	167.167	  9.89758	 -1.34885	  9.53716	  4.87588	  1.94782	 -0.51396	 11.37886	702.44000	 30.80	
 15.307	160.676	  9.87895	 -1.25571	  9.34070	  5.50140	  1.39555	 -0.52126	 11.38314	701.84003	 30.80	
 15.300	154.261	  9.86199	 -1.10379	  9.06300	  6.10865	  0.88859	 -0.53852	 11.38257	701.96997	 30.80	
 15.288	147.854	  9.85460	 -0.89743	  8.71932	  6.69506	  0.42879	 -0.54555	 11.37947	702.65997	 30.80	
 15.293	141.428	  9.84638	 -0.66222	  8.32080	  7.24297	  0.02316	 -0.54982	 11.38643	702.73999	 30.80	
 15.299	134.985	  9.83952	 -0.35553	  7.84817	  7.78249	 -0.35111	 -0.54488	 11.38234	702.01001	 30.80	
 15.305	128.583	  9.83673	 -0.00482	  7.33628	  8.25174	 -0.66544	 -0.53444	 11.38055	702.77002	 30.80	
 15.309	122.142	  9.84171	  0.40645	  6.77760	  8.66675	 -0.92486	 -0.51745	 11.37967	702.06000	 30.80	
 15.304	115.711	  9.83968	  0.85432	  6.19531	  9.01595	 -1.13732	 -0.50714	 11.37702	702.33002	 30.80	
 15.297	109.291	  9.84514	  1.35290	  5.59846	  9.30499	 -1.30188	 -0.50279	 11.37869	702.73999	 30.80	
 15.293	102.897	  9.85291	  1.89169	  4.98985	  9.51742	 -1.41613	 -0.50054	 11.37851	702.15002	 30.80	
 15.293	 96.458	  9.86422	  2.48017	  4.36883	  9.66187	 -1.48706	 -0.49935	 11.38240	702.75000	 30.80	
 15.300	 90.000	  9.87054	  3.07811	  3.75784	  9.72331	 -1.51255	 -0.50014	 11.37938	702.69000	 30.80	
 15.293	 83.542	  9.88176	  3.71030	  3.16279	  9.70933	 -1.49117	 -0.48125	 11.38417	702.77002	 30.80	
 15.293	 77.103	  9.90140	  4.34457	  2.60624	  9.62026	 -1.41645	 -0.46540	 11.38895	702.79999	 30.80	
 15.297	 70.709	  9.91262	  4.97970	  2.07178	  9.45384	 -1.30854	 -0.44830	 11.38230	702.73999	 30.80	
 15.304	 64.289	  9.93525	  5.61049	  1.57322	  9.20657	 -1.13827	 -0.44400	 11.38490	701.96002	 30.80	
 15.309	 57.858	  9.94785	  6.20682	  1.11776	  8.90006	 -0.93386	 -0.44279	 11.37895	701.90002	 30.80	
 15.305	 51.417	  9.97128	  6.79359	  0.70907	  8.51891	 -0.67201	 -0.43806	 11.38273	701.98999	 30.80	
 15.299	 45.015	  9.99636	  7.32791	  0.35248	  8.08376	 -0.34438	 -0.42904	 11.38161	701.97998	 30.80	
 15.293	 38.572	 10.02210	  7.82416	  0.04528	  7.58335	  0.03392	 -0.41056	 11.37814	701.95001	 30.80	
 15.288	 32.146	 10.05230	  8.26782	 -0.22422	  7.05815	  0.45403	 -0.38859	 11.38088	701.98999	 30.80	
 15.300	 25.739	 10.07114	  8.64525	 -0.44597	  6.49729	  0.90568	 -0.37566	 11.38383	702.03998	 30.80	
 15.307	 19.324	 10.09923	  8.94168	 -0.60029	  5.90672	  1.41333	 -0.35742	 11.37732	702.59003	 30.80	
 15.291	 12.833	 10.12722	  9.18180	 -0.71643	  5.28515	  1.97907	 -0.36337	 11.38382	701.85999	 30.80	
 15.298	  6.413	 10.15791	  9.32496	 -0.77381	  4.68086	  2.56378	 -0.36106	 11.38458	702.06000	 30.80	
 15.300	  0.000	 10.17661	  9.38983	 -0.78158	  4.07076	  3.18570	 -0.35591	 11.38323	702.08002	 30.80	
 15.298	 -6.413	 10.19520	  9.38539	 -0.75640	  3.47022	  3.80160	 -0.34177	 11.38122	702.63000	 30.80	
 15.291	-12.833	 10.20939	  9.28649	 -0.67551	  2.88839	  4.43609	 -0.33084	 11.37588	702.69000	 30.80	
 15.307	-19.324	 10.22783	  9.11793	 -0.54607	  2.33351	  5.08492	 -0.32293	 11.38083	702.53003	 30.80	
 15.300	-25.739	 10.24525	  8.86810	 -0.36511	  1.82573	  5.70309	 -0.33005	 11.37695	701.88000	 30.80	
 15.288	-32.146	 10.25575	  8.55662	 -0.14213	  1.35303	  6.29933	 -0.35369	 11.38480	701.87000	 30.80	
 15.293	-38.572	 10.26927	  8.16135	  0.14555	  0.92672	  6.87258	 -0.37207	 11.38119	701.91998	 30.80	
 15.299	-45.015	 10.27315	  7.70223	  0.47487	  0.53516	  7.40476	 -0.38568	 11.38138	701.94000	 30.80	
 15.305	-51.417	 10.26953	  7.20369	  0.83847	  0.18790	  7.87518	 -0.39703	 11.38160	702.25000	 30.80	
 15.309	-57.858	 10.27110	  6.65023	  1.25594	 -0.09865	  8.29880	 -0.38752	 11.38164	701.91998	 30.80	
 15.304	-64.289	 10.27329	  6.06598	  1.71896	 -0.33106	  8.64929	 -0.38659	 11.38485	702.78003	 30.80	
 15.297	-70.709	 10.27965	  5.44880	  2.23820	 -0.50557	  8.92270	 -0.38716	 11.38383	701.96997	 30.80	
 15.293	-77.103	 10.26701	  4.81734	  2.77020	 -0.64075	  9.12986	 -0.40010	 11.38614	701.84998	 30.80	
 15.293	-83.542	 10.25367	  4.17838	  3.33943	 -0.72750	  9.24009	 -0.42041	 11.37659	702.00000	 30.80	
 15.300	-90.000	 10.24026	  3.54134	  3.93177	 -0.77665	  9.28567	 -0.43318	 11.38110	702.78003	 30.80	
 15.293	-96.458	 10.23239	  2.92561	  4.54055	 -0.75561	  9.24415	 -0.43062	 11.38324	702.46002	 30.80	
 15.293	-102.897	 10.20995	  2.33137	  5.15046	 -0.69720	  9.11581	 -0.42576	 11.37858	701.90997	 30.80	
 15.297	-109.291	 10.19558	  1.75401	  5.76360	 -0.58540	  8.90911	 -0.42228	 11.37943	701.95001	 30.80	
 15.304	-115.711	 10.17277	  1.24072	  6.34729	 -0.43760	  8.63000	 -0.42070	 11.38448	702.70001	 30.80	
 15.309	-122.142	 10.14730	  0.74180	  6.92356	 -0.24192	  8.27799	 -0.43512	 11.38239	701.98999	 30.80	
 15.305	-128.583	 10.13194	  0.29927	  7.47542	  0.02024	  7.84728	 -0.43223	 11.38351	702.01001	 30.80	
 15.299	-134.985	 10.11019	 -0.08135	  7.96913	  0.31296	  7.37297	 -0.43517	 11.38753	701.84998	 30.80	
 15.293	-141.428	 10.09111	 -0.41308	  8.41830	  0.67591	  6.83085	 -0.44309	 11.38445	701.95001	 30.80	
 15.288	-147.854	 10.07139	 -0.68847	  8.80385	  1.06854	  6.26546	 -0.43619	 11.39126	701.96997	 30.80	
 15.300	-154.261	 10.03767	 -0.94069	  9.13958	  1.50136	  5.66387	 -0.45545	 11.38858	702.02002	 30.80	
 15.307	-160.676	 10.01242	 -1.12608	  9.39758	  1.99202	  5.03510	 -0.46610	 11.38426	701.94000	 30.80	
 15.291	-167.167	  9.98864	 -1.25649	  9.57132	  2.52823	  4.39359	 -0.47790	 11.38275	702.41998	 30.80	
 15.298	-173.587	  9.97458	 -1.34205	  9.68435	  3.08261	  3.76697	 -0.48848	 11.39492	702.73999	 30.80	
 15.300	180.000	  9.94241	 -1.39742	  9.70931	  3.65972	  3.13760	 -0.50289	 11.38518	702.71997	 30.80	
 17.000	180.000	  9.58480	 -2.01582	 10.06148	  3.37209	  2.87743	 -0.54753	 11.38648	702.79999	 30.80	
 16.990	-174.179	  9.60740	 -1.97677	 10.03775	  2.79533	  3.50004	 -0.54019	 11.38708	702.70001	 30.80	
 17.009	-168.383	  9.62521	 -1.89818	  9.94020	  2.23476	  4.13404	 -0.53054	 11.38154	702.08002	 30.80	
 17.000	-162.596	  9.65540	 -1.77112	  9.78052	  1.72243	  4.76337	 -0.51897	 11.38413	702.01001	 30.80	
 16.990	-156.759	  9.67723	 -1.61048	  9.54593	  1.22894	  5.39012	 -0.51211	 11.38460	702.77002	 30.80	
 16.995	-150.919	  9.69097	 -1.41320	  9.24527	  0.77067	  6.01406	 -0.49538	 11.38008	702.75000	 30.80	
 16.988	-145.161	  9.71928	 -1.17208	  8.88766	  0.36082	  6.60220	 -0.48981	 11.37995	702.76001	 30.80	
 17.014	-139.343	  9.74922	 -0.87697	  8.47213	 -0.00617	  7.16680	 -0.49121	 11.38727	702.10999	 30.80	
 17.007	-133.546	  9.76239	 -0.54297	  8.00539	 -0.32747	  7.67407	 -0.49251	 11.37685	702.71002	 30.80	
 17.001	-127.699	  9.79231	 -0.16084	  7.50159	 -0.60884	  8.15578	 -0.49215	 11.38278	702.70001	 30.80	
 17.006	-121.937	  9.80470	  0.26256	  6.95679	 -0.84471	  8.57098	 -0.49174	 11.38038	701.90997	 30.80	
 17.002	-116.134	  9.83699	  0.74865	  6.37974	 -1.03226	  8.93088	 -0.49380	 11.38460	702.17999	 30.80	
 17.001	-110.310	  9.85582	  1.25821	  5.79497	 -1.19053	  9.22766	 -0.49527	 11.38253	702.65002	 30.80	
 16.988	-104.517	  9.87490	  1.81386	  5.18755	 -1.29643	  9.44183	 -0.50236	 11.38198	702.69000	 30.80	
 17.008	-98.662	  9.88930	  2.38549	  4.57314	 -1.37354	  9.59614	 -0.52177	 11.38027	702.77002	 30.80	
 16.996	-92.909	  9.91091	  2.99529	  3.97645	 -1.38947	  9.66638	 -0.51928	 11.37939	702.69000	 30.80	
 16.996	-87.091	  9.92568	  3.62046	  3.37560	 -1.38463	  9.67782	 -0.52218	 11.38753	701.94000	 30.80	
 17.012	-81.253	  9.92516	  4.25687	  2.78712	 -1.33827	  9.59877	 -0.51219	 11.37762	702.40002	 30.80	
 16.988	-75.483	  9.94369	  4.88700	  2.24233	 -1.23618	  9.46296	 -0.49126	 11.38475	701.88000	 30.80	
 17.001	-69.690	  9.94812	  5.50411	  1.72096	 -1.10279	  9.24269	 -0.48865	 11.38462	702.04999	 30.80	
 17.002	-63.866	  9.96024	  6.11888	  1.23390	 -0.91918	  8.96400	 -0.48298	 11.38900	702.75000	 30.80	
 17.006	-58.063	  9.95464	  6.71934	  0.78160	 -0.68396	  8.59327	 -0.47868	 11.37831	702.79999	 30.80	
 17.001	-52.301	  9.95180	  7.27124	  0.36572	 -0.42586	  8.19100	 -0.48609	 11.38158	702.78998	 30.80	
 17.007	-46.454	  9.95012	  7.79931	 -0.00630	 -0.10692	  7.72420	 -0.47633	 11.38622	701.88000	 30.80	
 17.014	-40.657	  9.93925	  8.26227	 -0.33391	  0.24512	  7.21522	 -0.46360	 11.38503	701.87000	 30.80	
 16.988	-34.839	  9.93617	  8.67631	 -0.60617	  0.66019	  6.64699	 -0.44945	 11.38379	702.64001	 30.80	
 16.995	-29.081	  9.93426	  9.03068	 -0.84375	  1.09999	  6.07052	 -0.42611	 11.39079	702.69000	 30.80	
 16.990	-23.241	  9.91753	  9.30889	 -1.03378	  1.58273	  5.46032	 -0.40808	 11.38186	702.65997	 30.80	
 17.000	-17.404	  9.89453	  9.53752	 -1.20428	  2.09521	  4.81200	 -0.40689	 11.37630	702.65997	 30.80	
 17.009	-11.617	  9.87569	  9.69567	 -1.32250	  2.64474	  4.16722	 -0.40529	 11.37714	702.70001	 30.80	
 16.990	 -5.821	  9.86006	  9.77426	 -1.38887	  3.22547	  3.54263	 -0.41353	 11.38155	702.70001	 30.80	
 17.000	  0.000	  9.84321	  9.78146	 -1.42435	  3.81562	  2.91957	 -0.43047	 11.38488	702.70001	 30.80	
 16.990	  5.821	  9.81025	  9.71178	 -1.41565	  4.42722	  2.29543	 -0.44181	 11.37947	702.71002	 30.80	
 17.009	 11.617	  9.78603	  9.57727	 -1.36542	  5.03071	  1.72921	 -0.44168	 11.37948	702.66998	 30.80	
 17.000	 17.404	  9.76240	  9.36585	 -1.26408	  5.64355	  1.17566	 -0.44880	 11.37955	702.69000	 30.80	
 16.990	 23.241	  9.74385	  9.08263	 -1.11539	  6.24965	  0.66199	 -0.45654	 11.38221	702.59003	 30.80	
 16.995	 29.081	  9.71832	  8.74524	 -0.93384	  6.82637	  0.19291	 -0.48314	 11.38734	702.65002	 30.80	
 16.988	 34.839	  9.69245	  8.34221	 -0.70976	  7.37309	 -0.23449	 -0.49666	 11.38361	702.67999	 30.80	
 17.014	 40.657	  9.65846	  7.88221	 -0.44792	  7.89976	 -0.64180	 -0.51816	 11.38894	702.60999	 30.80	
 17.007	 46.454	  9.63860	  7.37230	 -0.13129	  8.37754	 -0.97437	 -0.52916	 11.38760	702.65002	 30.80	
 17.001	 52.301	  9.60945	  6.81581	  0.23259	  8.80053	 -1.26990	 -0.53945	 11.38279	702.73999	 30.80	
 17.006	 58.063	  9.58995	  6.23542	  0.62713	  9.17657	 -1.52309	 -0.54193	 11.38244	702.71997	 30.80	
 17.002	 63.866	  9.56629	  5.63700	  1.06869	  9.49046	 -1.72353	 -0.53556	 11.38496	702.71997	 30.80	
 17.001	 69.690	  9.54977	  5.00261	  1.55619	  9.73420	 -1.87871	 -0.53678	 11.37660	702.75000	 30.80	
 16.988	 75.483	  9.53693	  4.37977	  2.06781	  9.91737	 -2.00029	 -0.54932	 11.38026	702.67999	 30.80	
 17.012	 81.253	  9.51532	  3.75339	  2.59359	 10.03638	 -2.08543	 -0.55693	 11.38513	702.70001	 30.80	
 16.996	 87.091	  9.51274	  3.12126	  3.18214	 10.08031	 -2.11747	 -0.57149	 11.38461	702.70001	 30.80	
 16.996	 92.909	  9.49238	  2.51202	  3.77217	 10.05382	 -2.12285	 -0.57033	 11.37981	702.67999	 30.80	
 17.008	 98.662	  9.48293	  1.91460	  4.37555	  9.97047	 -2.09155	 -0.57760	 11.38155	702.60999	 30.80	
 16.988	104.517	  9.48335	  1.36179	  4.99769	  9.80537	 -2.00999	 -0.58000	 11.38801	702.67999	 30.80	
 17.001	110.310	  9.47696	  0.84130	  5.60603	  9.58445	 -1.88763	 -0.57736	 11.39059	702.59998	 30.80	
 17.002	116.134	  9.46167	  0.35151	  6.20998	  9.27559	 -1.72296	 -0.57676	 11.37217	702.69000	 30.80	
 17.006	121.937	  9.47033	 -0.09915	  6.80547	  8.92925	 -1.51568	 -0.58989	 11.38780	702.66998	 30.80	
 17.001	127.699	  9.47126	 -0.48417	  7.35634	  8.51236	 -1.26478	 -0.59967	 11.38048	702.67999	 30.80	
 17.007	133.546	  9.47164	 -0.83876	  7.88007	  8.05037	 -0.97605	 -0.60790	 11.38344	702.69000	 30.80	
 17.014	139.343	  9.47181	 -1.14059	  8.35583	  7.54310	 -0.64625	 -0.61689	 11.38286	702.71997	 30.80	
 16.988	145.161	  9.49121	 -1.39176	  8.79220	  6.99754	 -0.25634	 -0.61169	 11.38939	702.71997	 30.80	
 16.995	150.919	  9.49109	 -1.60122	  9.16222	  6.41388	  0.16741	 -0.59992	 11.38284	702.73999	 30.80	
 16.990	156.759	  9.50692	 -1.77007	  9.47981	  5.80863	  0.64284	 -0.58673	 11.38466	702.72998	 30.80	
 17.000	162.596	  9.51787	 -1.90189	  9.72976	  5.19148	  1.14436	 -0.57247	 11.37922	702.69000	 30.80	
 17.009	168.383	  9.54327	 -1.98032	  9.91190	  4.58225	  1.69775	 -0.56310	 11.38430	702.78998	 30.80	
 16.990	174.179	  9.55797	 -2.01583	 10.01740	  3.97265	  2.27203	 -0.55489	 11.38114	702.65997	 30.80	
 18.709	174.675	  9.16389	 -2.62515	 10.34688	  3.65868	  1.99654	 -0.56611	 11.38815	702.70001	 30.80	
 18.703	169.441	  9.13586	 -2.58896	 10.23726	  4.25580	  1.43394	 -0.57357	 11.37847	702.79999	 30.80	
 18.691	164.085	  9.12729	 -2.50991	 10.06606	  4.88344	  0.88830	 -0.59156	 11.38211	702.75000	 30.80	
 18.706	158.818	  9.10456	 -2.41205	  9.83982	  5.48188	  0.37784	 -0.60463	 11.37699	702.78003	 30.80	
 18.695	153.537	  9.09429	 -2.27116	  9.55922	  6.08636	 -0.09367	 -0.61819	 11.38411	702.78998	 30.80	
 18.704	148.255	  9.08095	 -2.10220	  9.21584	  6.67880	 -0.52703	 -0.63145	 11.39082	702.71002	 30.80	
 18.698	142.952	  9.06744	 -1.88022	  8.81777	  7.23687	 -0.91927	 -0.63441	 11.38049	702.19000	 30.80	
 18.699	137.625	  9.07063	 -1.61767	  8.36561	  7.78134	 -1.26927	 -0.63705	 11.38708	702.83002	 30.80	
 18.705	132.343	  9.06565	 -1.31374	  7.87865	  8.28641	 -1.58562	 -0.63932	 11.38907	702.00000	 30.80	
 18.713	127.067	  9.05610	 -0.97792	  7.34483	  8.73920	 -1.86474	 -0.63214	 11.38288	702.73999	 30.80	
 18.700	121.794	  9.06218	 -0.59506	  6.79613	  9.14039	 -2.08647	 -0.62191	 11.38351	702.76001	 30.80	
 18.698	116.504	  9.05477	 -0.16682	  6.20243	  9.49235	 -2.28501	 -0.62888	 11.37328	702.66998	 30.80	
 18.707	111.165	  9.06146	  0.30525	  5.60232	  9.80293	 -2.44753	 -0.61223	 11.37899	702.65997	 30.80	
 18.690	105.863	  9.07137	  0.80919	  4.99295	 10.03764	 -2.56495	 -0.61685	 11.37893	702.59998	 30.80	
 18.696	100.583	  9.07411	  1.35375	  4.37879	 10.21887	 -2.65335	 -0.61617	 11.38165	702.78003	 30.80	
 18.700	 95.309	  9.08029	  1.91820	  3.76391	 10.33529	 -2.70698	 -0.60901	 11.37972	701.96002	 30.80	
 18.700	 90.000	  9.08882	  2.51057	  3.18457	 10.38245	 -2.71669	 -0.61120	 11.37476	702.78003	 30.80	
 18.700	 84.691	  9.10826	  3.10295	  2.61473	 10.38265	 -2.69704	 -0.60622	 11.37854	702.76001	 30.80	
 18.696	 79.417	  9.11977	  3.74310	  2.05306	 10.31497	 -2.65101	 -0.60868	 11.38153	702.73999	 30.80	
 18.690	 74.137	  9.13464	  4.36627	  1.52769	 10.17747	 -2.56180	 -0.60076	 11.38016	702.72998	 30.80	
 18.707	 68.835	  9.15181	  5.00583	  1.02318	  9.97987	 -2.43199	 -0.60073	 11.37810	702.77002	 30.80	
 18.698	 63.496	  9.16552	  5.61816	  0.56094	  9.73307	 -2.28826	 -0.60182	 11.37910	702.77002	 30.80	
 18.700	 58.206	  9.19260	  6.22180	  0.14529	  9.41458	 -2.08449	 -0.60323	 11.38035	702.72998	 30.80	
 18.713	 52.933	  9.21294	  6.80002	 -0.23846	  9.04847	 -1.85853	 -0.60137	 11.37640	702.75000	 30.80	
 18.705	 47.657	  9.24045	  7.36091	 -0.58824	  8.62287	 -1.56594	 -0.59541	 11.37576	702.73999	 30.80	
 18.699	 42.375	  9.26118	  7.87616	 -0.90394	  8.16285	 -1.25943	 -0.58993	 11.37445	702.72998	 30.80	
 18.698	 37.048	  9.28890	  8.36661	 -1.18191	  7.65466	 -0.90636	 -0.58156	 11.38428	702.77002	 30.80	
 18.704	 31.745	  9.31267	  8.79075	 -1.41871	  7.12133	 -0.51110	 -0.56593	 11.37779	702.66998	 30.80	
 18.695	 26.463	  9.34445	  9.16641	 -1.61001	  6.55345	 -0.06277	 -0.55000	 11.38167	702.66998	 30.80	
 18.706	 21.182	  9.37036	  9.48701	 -1.76762	  5.96478	  0.40516	 -0.52699	 11.38041	702.70001	 30.80	
 18.691	 15.915	  9.39096	  9.74883	 -1.89687	  5.36467	  0.90793	 -0.50750	 11.38100	702.76001	 30.80	
 18.703	 10.559	  9.40663	  9.94090	 -1.98639	  4.73962	  1.46484	 -0.50056	 11.37673	702.77002	 30.80	
 18.709	  5.325	  9.43619	 10.06788	 -2.03182	  4.14159	  2.02975	 -0.48688	 11.37976	702.78003	 30.80	
 18.700	  0.000	  9.46493	 10.12863	 -2.03618	  3.54743	  2.63553	 -0.48382	 11.37688	702.71002	 30.80	
 18.709	 -5.325	  9.48663	 10.13237	 -2.00872	  2.95478	  3.26253	 -0.46801	 11.38130	702.75000	 30.80	
 18.703	-10.559	  9.50858	 10.05347	 -1.93935	  2.40228	  3.87647	 -0.46207	 11.37668	702.78003	 30.80	
 18.691	-15.915	  9.51588	  9.91479	 -1.84519	  1.84944	  4.50591	 -0.46544	 11.36994	702.67999	 30.80	
 18.706	-21.182	  9.53856	  9.73016	 -1.71464	  1.32946	  5.14259	 -0.47421	 11.38442	702.82001	 30.80	
 18.695	-26.463	  9.55108	  9.45591	 -1.53298	  0.84986	  5.76098	 -0.48529	 11.37280	702.67999	 30.80	
 18.704	-31.745	  9.56361	  9.13280	 -1.32556	  0.40166	  6.36835	 -0.49840	 11.37632	702.65997	 30.80	
 18.698	-37.048	  9.58274	  8.75247	 -1.06817	 -0.00817	  6.95535	 -0.51451	 11.38124	702.73999	 30.80	
 18.699	-42.375	  9.58552	  8.31204	 -0.77962	 -0.38515	  7.50543	 -0.52276	 11.37846	702.66998	 30.80	
 18.705	-47.657	  9.60082	  7.84510	 -0.45782	 -0.71088	  8.00562	 -0.52943	 11.38626	702.73999	 30.80	
 18.713	-52.933	  9.59522	  7.30598	 -0.09895	 -1.01569	  8.46681	 -0.53318	 11.37686	702.72998	 30.80	
 18.700	-58.206	  9.59753	  6.75446	  0.29412	 -1.27090	  8.87082	 -0.53799	 11.38421	702.84003	 30.80	
 18.698	-63.496	  9.59325	  6.16652	  0.73091	 -1.49036	  9.22262	 -0.53758	 11.38226	702.72998	 30.80	
 18.707	-68.835	  9.58818	  5.54422	  1.20875	 -1.66694	  9.51777	 -0.54543	 11.37665	702.65997	 30.80	
 18.690	-74.137	  9.59204	  4.92969	  1.72275	 -1.80282	  9.74606	 -0.55494	 11.38188	702.65002	 30.80	
 18.696	-79.417	  9.57425	  4.29905	  2.24767	 -1.91096	  9.91117	 -0.56642	 11.38186	702.69000	 30.80	
 18.700	-84.691	  9.56810	  3.67117	  2.81168	 -1.96590	 10.00987	 -0.57680	 11.38195	702.71002	 30.80	
 18.700	-90.000	  9.54680	  3.04418	  3.39512	 -1.99661	 10.03529	 -0.57379	 11.37168	702.75000	 30.80	
 18.700	-95.309	  9.53988	  2.44457	  3.98668	 -1.98904	 10.00630	 -0.56441	 11.38365	702.78003	 30.80	
 18.696	-100.583	  9.51946	  1.85478	  4.58721	 -1.95386	  9.90615	 -0.55273	 11.37927	702.70001	 30.80	
 18.690	-105.863	  9.49605	  1.28216	  5.18990	 -1.87816	  9.73433	 -0.53979	 11.37939	702.69000	 30.80	
 18.707	-111.165	  9.47110	  0.76028	  5.77939	 -1.76191	  9.48974	 -0.53130	 11.36557	702.75000	 30.80	
 18.698	-116.504	  9.45391	  0.25797	  6.37923	 -1.61670	  9.19506	 -0.52145	 11.37093	702.73999	 30.80	
 18.700	-121.794	  9.44503	 -0.19761	  6.96030	 -1.43211	  8.83637	 -0.51655	 11.38794	702.65997	 30.80	
 18.713	-127.067	  9.40821	 -0.62983	  7.49809	 -1.22261	  8.42396	 -0.51371	 11.37709	702.76001	 30.80	
 18.705	-132.343	  9.38686	 -0.99480	  8.00746	 -0.95986	  7.95772	 -0.51153	 11.37217	702.69000	 30.80	
 18.699	-137.625	  9.37165	 -1.33520	  8.49320	 -0.65030	  7.45422	 -0.50898	 11.38126	702.76001	 30.80	
 18.698	-142.952	  9.34512	 -1.63358	  8.92429	 -0.32383	  6.90798	 -0.50821	 11.38035	702.82001	 30.80	
 18.704	-148.255	  9.32069	 -1.87917	  9.30928	  0.06070	  6.32263	 -0.51166	 11.37762	702.78998	 30.80	
 18.695	-153.537	  9.30113	 -2.08911	  9.64281	  0.48401	  5.71681	 -0.51614	 11.37614	702.78003	 30.80	
 18.706	-158.818	  9.27645	 -2.27501	  9.91035	  0.92093	  5.11111	 -0.52541	 11.38668	702.81000	 30.80	
 18.691	-164.085	  9.25460	 -2.40064	 10.10863	  1.42005	  4.47650	 -0.53465	 11.37410	702.72998	 30.80	
 18.703	-169.441	  9.22318	 -2.51049	 10.26096	  1.94419	  3.83597	 -0.55006	 11.37480	702.71002	 30.80	
 18.709	-174.675	  9.20144	 -2.59072	 10.35457	  2.48193	  3.22147	 -0.55289	 11.38035	702.69000	 30.80	
 18.700	180.000	  9.18136	 -2.61822	 10.37140	  3.06164	  2.58901	 -0.56310	 11.37457	702.79999	 30.80	
 20.400	180.000	  8.74865	 -3.19487	 10.64450	  2.72825	  2.30323	 -0.53398	 11.37561	702.71002	 30.80	
 20.401	-175.153	  8.77187	 -3.16967	 10.62731	  2.16794	  2.91359	 -0.53050	 11.38132	702.78003	 30.80	
 20.407	-170.264	  8.79298	 -3.10467	 10.54856	  1.62948	  3.52428	 -0.52993	 11.37417	702.65002	 30.80	
 20.410	-165.423	  8.80904	 -3.03312	 10.42279	  1.10585	  4.15071	 -0.51638	 11.38207	702.62000	 30.80	
 20.392	-160.496	  8.83742	 -2.89313	 10.22467	  0.62124	  4.78141	 -0.50626	 11.37459	702.71997	 30.80	
 20.401	-155.705	  8.86578	 -2.73926	  9.98221	  0.17919	  5.39547	 -0.50584	 11.38453	702.59998	 30.80	
 20.405	-150.835	  8.88579	 -2.55642	  9.67571	 -0.24143	  6.00514	 -0.50134	 11.37273	702.72998	 30.80	
 20.397	-145.903	  8.90536	 -2.32916	  9.31269	 -0.62532	  6.60028	 -0.50265	 11.36798	702.69000	 30.80	
 20.392	-141.062	  8.92803	 -2.07810	  8.91697	 -0.97248	  7.16402	 -0.50082	 11.36994	702.69000	 30.80	
 20.396	-136.227	  8.95310	 -1.78164	  8.47096	 -1.28415	  7.69683	 -0.50362	 11.37165	702.60999	 30.80	
 20.408	-131.372	  8.97709	 -1.44534	  7.98909	 -1.56576	  8.20500	 -0.50086	 11.37890	702.59998	 30.80	
 20.410	-126.511	  9.00142	 -1.07798	  7.47217	 -1.80091	  8.65906	 -0.50376	 11.37787	702.67999	 30.80	
 20.400	-121.604	  9.02465	 -0.67036	  6.92445	 -2.00183	  9.06658	 -0.49993	 11.37770	702.71002	 30.80	
 20.403	-116.741	  9.05321	 -0.23184	  6.36414	 -2.17561	  9.42758	 -0.51270	 11.38312	702.64001	 30.80	
 20.413	-111.900	  9.07139	  0.24968	  5.77722	 -2.32305	  9.73541	 -0.51687	 11.38476	702.81000	 30.80	
 20.398	-107.004	  9.09118	  0.77202	  5.17668	 -2.43091	  9.97527	 -0.53477	 11.37922	702.69000	 30.80	
 20.394	-102.132	  9.10878	  1.30977	  4.58061	 -2.50896	 10.15808	 -0.54339	 11.37414	702.65997	 30.80	
 20.403	-97.332	  9.11817	  1.87321	  3.97318	 -2.56800	 10.28557	 -0.56170	 11.37747	702.65002	 30.80	
 20.392	-92.440	  9.14735	  2.46930	  3.38826	 -2.58166	 10.34707	 -0.56921	 11.37951	702.71002	 30.80	
 20.392	-87.560	  9.15420	  3.07515	  2.80505	 -2.57423	 10.34648	 -0.57765	 11.37478	702.76001	 30.80	
 20.403	-82.668	  9.17074	  3.69956	  2.23418	 -2.53524	 10.30057	 -0.57905	 11.38224	702.75000	 30.80	
 20.394	-77.868	  9.17746	  4.30982	  1.70676	 -2.46204	 10.17171	 -0.57599	 11.37672	702.71002	 30.80	
 20.398	-72.996	  9.18603	  4.93251	  1.19023	 -2.35894	  9.99010	 -0.57587	 11.37645	702.71997	 30.80	
 20.413	-68.100	  9.19211	  5.55371	  0.69669	 -2.21995	  9.75637	 -0.57767	 11.37920	702.66998	 30.80	
 20.403	-63.259	  9.20442	  6.15794	  0.25510	 -2.04630	  9.46595	 -0.57020	 11.38701	702.78003	 30.80	
 20.400	-58.396	  9.19219	  6.72910	 -0.17666	 -1.85168	  9.10689	 -0.56260	 11.37456	702.60999	 30.80	
 20.410	-53.489	  9.19431	  7.30953	 -0.57876	 -1.61125	  8.70188	 -0.56006	 11.38572	702.65997	 30.80	
 20.408	-48.628	  9.18695	  7.83107	 -0.92571	 -1.32771	  8.24611	 -0.55417	 11.37497	702.63000	 30.80	
 20.396	-43.773	  9.19220	  8.32560	 -1.24175	 -1.00887	  7.74437	 -0.54571	 11.37502	702.65997	 30.80	
 20.392	-38.938	  9.18057	  8.77249	 -1.52696	 -0.66382	  7.21724	 -0.53982	 11.37586	702.65997	 30.80	
 20.397	-34.097	  9.16873	  9.18207	 -1.77945	 -0.28572	  6.65022	 -0.53591	 11.37712	702.75000	 30.80	
 20.405	-29.165	  9.15381	  9.53296	 -1.99983	  0.14598	  6.04345	 -0.52797	 11.36886	702.65997	 30.80	
 20.401	-24.295	  9.14122	  9.83408	 -2.18938	  0.58914	  5.43881	 -0.52169	 11.37316	702.71002	 30.80	
 20.392	-19.504	  9.13222	 10.06878	 -2.33201	  1.06635	  4.82960	 -0.51686	 11.37581	702.54999	 30.80	
 20.410	-14.577	  9.11845	 10.25447	 -2.45260	  1.58619	  4.19331	 -0.51132	 11.37530	702.72998	 30.80	
 20.407	 -9.736	  9.09444	 10.37307	 -2.55087	  2.11347	  3.57043	 -0.49787	 11.37496	702.69000	 30.80	
 20.401	 -4.847	  9.07584	 10.41984	 -2.59499	  2.68155	  2.95025	 -0.50246	 11.36518	702.53998	 30.80	
 20.400	  0.000	  9.05630	 10.42341	 -2.62198	  3.26222	  2.34218	 -0.50653	 11.37303	702.71997	 30.80	
 20.401	  4.847	  9.01778	 10.37346	 -2.63886	  3.83193	  1.74684	 -0.50711	 11.37354	702.76001	 30.80	
 20.407	  9.736	  8.99803	 10.25829	 -2.59786	  4.43331	  1.18011	 -0.52064	 11.37377	702.82001	 30.80	
 20.410	 14.577	  8.97101	 10.07267	 -2.51575	  5.04769	  0.63664	 -0.54009	 11.37009	702.65002	 30.80	
 20.392	 19.504	  8.94975	  9.82988	 -2.40769	  5.65145	  0.12790	 -0.55454	 11.36853	702.75000	 30.80	
 20.401	 24.295	  8.91722	  9.54420	 -2.27559	  6.22997	 -0.34468	 -0.57989	 11.36799	702.70001	 30.80	
 20.405	 29.165	  8.89899	  9.19780	 -2.10411	  6.80975	 -0.78077	 -0.60432	 11.37569	702.69000	 30.80	
 20.397	 34.097	  8.87052	  8.78475	 -1.89473	  7.36878	 -1.19391	 -0.60780	 11.37150	702.67999	 30.80	
 20.392	 38.938	  8.85000	  8.34125	 -1.65194	  7.88420	 -1.54738	 -0.61350	 11.37229	702.66998	 30.80	
 20.396	 43.773	  8.81902	  7.85373	 -1.39085	  8.37326	 -1.87858	 -0.62891	 11.36638	702.75000	 30.80	
 20.408	 48.628	  8.78996	  7.32266	 -1.08624	  8.83025	 -2.17460	 -0.62311	 11.36555	702.67999	 30.80	
 20.410	 53.489	  8.76903	  6.76707	 -0.74576	  9.24440	 -2.42939	 -0.62850	 11.36957	702.72998	 30.80	
 20.400	 58.396	  8.75317	  6.16825	 -0.34919	  9.61358	 -2.64405	 -0.62633	 11.36743	702.62000	 30.80	
 20.403	 63.259	  8.73519	  5.56569	  0.05322	  9.92999	 -2.82719	 -0.62644	 11.37182	702.75000	 30.80	
 20.413	 68.100	  8.70809	  4.95149	  0.49006	 10.18581	 -2.98351	 -0.62425	 11.36893	702.65002	 30.80	
 20.398	 72.996	  8.69754	  4.33218	  0.98184	 10.37744	 -3.08535	 -0.62071	 11.36261	702.72998	 30.80	
 20.394	 77.868	  8.67967	  3.70769	  1.48423	 10.53772	 -3.18739	 -0.61936	 11.37289	702.66998	 30.80	
 20.403	 82.668	  8.66468	  3.09273	  2.00857	 10.62614	 -3.24784	 -0.61135	 11.37201	702.59998	 30.80	
 20.392	 87.560	  8.65211	  2.48126	  2.57251	 10.65560	 -3.27794	 -0.61261	 11.36739	702.67999	 30.80	
 20.392	 92.440	  8.64386	  1.89993	  3.14792	 10.63527	 -3.27936	 -0.60765	 11.37204	702.70001	 30.80	
 20.403	 97.332	  8.62745	  1.32048	  3.73339	 10.55073	 -3.25552	 -0.60801	 11.36343	702.58002	 30.80	
 20.394	102.132	  8.62263	  0.77532	  4.34015	 10.42142	 -3.20600	 -0.61478	 11.36932	702.57001	 30.80	
 20.398	107.004	  8.62326	  0.25789	  4.94830	 10.22950	 -3.10971	 -0.62243	 11.37067	702.59003	 30.80	
 20.413	111.900	  8.60617	 -0.23824	  5.55898	  9.97453	 -2.98989	 -0.62687	 11.36205	702.65002	 30.80	
 20.403	116.741	  8.61629	 -0.67267	  6.15257	  9.68421	 -2.84000	 -0.63040	 11.37159	702.63000	 30.80	
 20.400	121.604	  8.61785	 -1.08483	  6.73950	  9.32483	 -2.65354	 -0.62919	 11.37826	702.65997	 30.80	
 20.410	126.511	  8.60182	 -1.46626	  7.29139	  8.91236	 -2.43825	 -0.62757	 11.36433	702.72998	 30.80	
 20.408	131.372	  8.59826	 -1.80081	  7.81886	  8.46435	 -2.19179	 -0.62773	 11.36303	702.69000	 30.80	
 20.396	136.227	  8.62172	 -2.09316	  8.32760	  7.97337	 -1.88593	 -0.62534	 11.37610	702.69000	 30.80	
 20.392	141.062	  8.61848	 -2.34748	  8.77995	  7.45192	 -1.56170	 -0.61824	 11.37226	702.64001	 30.90	
 20.397	145.903	  8.62885	 -2.56306	  9.20124	  6.89285	 -1.19276	 -0.61331	 11.36736	702.73999	 30.90	
 20.405	150.835	  8.62784	 -2.75933	  9.56732	  6.31671	 -0.80316	 -0.59501	 11.36068	702.67999	 30.90	
 20.401	155.705	  8.64704	 -2.91023	  9.88767	  5.71634	 -0.36382	 -0.58680	 11.36180	702.63000	 30.90	
 20.392	160.496	  8.66290	 -3.02814	 10.15129	  5.13199	  0.09951	 -0.58562	 11.37053	702.60999	 30.90	
 20.410	165.423	  8.67871	 -3.12382	 10.36969	  4.50961	  0.61372	 -0.57178	 11.37167	702.65997	 30.90	
 20.407	170.264	  8.69840	 -3.17861	 10.51438	  3.91309	  1.13967	 -0.55540	 11.37043	702.57001	 30.90	
 20.401	175.153	  8.71605	 -3.19567	 10.59549	  3.31032	  1.71036	 -0.55320	 11.36364	702.62000	 30.90	
  0.141	 45.000	 11.38656	  4.56045	  5.04293	  5.11999	  4.34770	  0.28626	 11.36929	702.71002	 30.90	
  4.001	128.691	 11.31035	  3.51434	  5.85375	  6.08245	  3.21106	  0.18265	 11.37647	702.71997	 30.80	
  4.002	 76.995	 11.32609	  4.71044	  4.64286	  6.43886	  2.95741	  0.21676	 11.37798	702.78998	 30.90	
  4.002	 25.892	 11.35744	  5.77797	  3.77543	  5.67736	  3.69715	  0.25574	 11.37559	702.67999	 30.90	
  4.002	-25.892	 11.37815	  5.82616	  3.81020	  4.45433	  4.95055	  0.25815	 11.37322	702.69000	 30.90	
  4.002	-76.995	 11.37631	  4.84220	  4.69954	  3.71838	  5.76451	  0.25275	 11.37078	702.73999	 30.80	
  4.001	-128.691	 11.35896	  3.61605	  5.89323	  3.91763	  5.43306	  0.21115	 11.36838	702.66998	 30.90	
  4.000	180.000	 11.32739	  3.06027	  6.44423	  4.91786	  4.27080	  0.17920	 11.37431	702.72998	 30.90	
  8.000	180.000	 11.04162	  1.48358	  7.74722	  4.62738	  4.00451	 -0.05102	 11.36797	702.67999	 30.90	
  7.991	-152.370	 11.09833	  1.83099	  7.40346	  3.39946	  5.40404	 -0.00708	 11.37324	702.75000	 30.90	
  7.997	-124.550	 11.14769	  2.68472	  6.44392	  2.51078	  6.56482	  0.02740	 11.37798	702.67999	 30.90	
  8.006	-96.837	 11.18165	  3.95031	  5.11674	  2.12006	  7.13864	  0.06331	 11.37461	702.83002	 30.90	
  7.988	-69.228	 11.20256	  5.35931	  3.79986	  2.30341	  6.94859	  0.08385	 11.37193	702.70001	 30.90	
  7.997	-41.563	 11.19775	  6.56621	  2.75281	  3.01042	  6.06874	  0.06628	 11.37074	702.71002	 30.90	
  8.008	-13.821	 11.17689	  7.25157	  2.16168	  4.16619	  4.74459	  0.06868	 11.37261	702.75000	 30.90	
  8.008	 13.821	 11.12779	  7.18516	  2.12266	  5.53806	  3.32569	  0.06654	 11.37021	702.71997	 30.90	
  7.997	 41.563	 11.08649	  6.39417	  2.67322	  6.80609	  2.16616	  0.05613	 11.37811	702.71002	 30.90	
  7.988	 69.228	 11.03435	  5.11449	  3.69507	  7.60070	  1.48195	  0.03608	 11.37278	702.70001	 30.90	
  8.006	 96.837	 11.00047	  3.69126	  5.01532	  7.73298	  1.33572	 -0.02903	 11.37175	702.64001	 30.90	
  7.997	124.550	 10.99743	  2.46809	  6.36837	  7.14975	  1.76182	 -0.04399	 11.37566	702.66998	 30.90	
  7.991	152.370	 11.00919	  1.70228	  7.36546	  5.99544	  2.70298	 -0.06434	 11.37127	702.63000	 30.90	
 12.009	161.059	 10.48316	 -0.00744	  8.61890	  5.58481	  2.21063	 -0.33525	 11.36961	702.67999	 30.90	
 12.013	142.081	 10.44842	  0.47459	  7.84510	  6.94011	  1.07957	 -0.35250	 11.36926	702.62000	 30.90	
 12.006	123.113	 10.44474	  1.33521	  6.68241	  8.04079	  0.27909	 -0.31492	 11.36896	702.65002	 30.90	
 12.007	104.200	 10.44908	  2.50997	  5.30126	  8.72445	 -0.16788	 -0.30714	 11.36462	702.65002	 30.90	
 11.989	 85.301	 10.47356	  3.92345	  3.88122	  8.91327	 -0.26595	 -0.28250	 11.36335	702.65997	 30.90	
 12.013	 66.294	 10.51187	  5.40716	  2.59034	  8.58763	 -0.00634	 -0.22563	 11.37260	702.62000	 30.90	
 12.012	 47.388	 10.55244	  6.76806	  1.54649	  7.76198	  0.61789	 -0.21332	 11.36415	702.66998	 30.90	
 11.990	 28.440	 10.62108	  7.81953	  0.85365	  6.58640	  1.61396	 -0.16373	 11.36923	702.70001	 30.90	
 11.991	  9.464	 10.68043	  8.42055	  0.50500	  5.18807	  2.90123	 -0.17397	 11.37215	702.66998	 30.90	
 11.991	 -9.464	 10.73118	  8.48952	  0.53612	  3.78275	  4.35054	 -0.16183	 11.36966	702.66998	 30.90	
 11.990	-28.440	 10.77450	  8.01845	  0.92392	  2.50735	  5.81116	 -0.15068	 11.37628	702.69000	 30.90	
 12.012	-47.388	 10.77132	  7.06935	  1.64293	  1.48832	  7.06614	 -0.18724	 11.36745	702.79999	 30.90	
 12.013	-66.294	 10.78116	  5.77684	  2.71012	  0.81468	  7.97683	 -0.16716	 11.37084	702.70001	 30.90	
 11.989	-85.301	 10.76680	  4.30169	  4.02925	  0.51727	  8.38231	 -0.19747	 11.37065	702.71997	 30.90	
 12.007	-104.200	 10.73182	  2.86856	  5.44001	  0.57215	  8.24464	 -0.20895	 11.37220	702.67999	 30.90	
 12.006	-123.113	 10.69023	  1.63589	  6.79347	  0.99261	  7.56250	 -0.23492	 11.36916	702.76001	 30.90	
 12.013	-142.081	 10.63156	  0.68417	  7.93191	  1.75800	  6.44892	 -0.25387	 11.37137	702.62000	 30.90	
 12.009	-161.059	 10.58139	  0.10859	  8.65758	  2.84759	  5.05924	 -0.28843	 11.36905	702.71997	 30.90	
 16.000	180.000	  9.79360	 -1.65435	  9.85499	  3.54034	  3.03153	 -0.52506	 11.37421	702.63000	 30.90	
 15.990	-165.604	  9.84801	 -1.48408	  9.67143	  2.22068	  4.50449	 -0.49729	 11.37553	702.77002	 30.90	
 16.002	-151.165	  9.90187	 -1.07710	  9.09604	  1.07912	  5.96406	 -0.47490	 11.37121	702.69000	 30.90	
 16.002	-136.836	  9.95462	 -0.41866	  8.17007	  0.16843	  7.29694	 -0.46110	 11.37443	702.70001	 30.90	
 15.995	-122.439	 10.01355	  0.52739	  6.97003	 -0.46541	  8.36377	 -0.45987	 11.37117	702.71002	 30.90	
 15.993	-107.966	 10.05454	  1.70307	  5.59718	 -0.87386	  9.10510	 -0.45997	 11.37113	702.71997	 30.90	
 16.005	-93.629	 10.09505	  3.07659	  4.18181	 -1.03153	  9.42713	 -0.47047	 11.37056	702.73999	 30.90	
 15.992	-79.234	 10.13528	  4.56195	  2.80309	 -0.93709	  9.33669	 -0.44778	 11.38488	702.71002	 30.90	
 16.009	-64.774	 10.13770	  6.02300	  1.56902	 -0.60178	  8.80622	 -0.42190	 11.36969	702.77002	 30.90	
 15.997	-50.364	 10.13780	  7.35573	  0.54997	  0.00516	  7.90028	 -0.43014	 11.37675	702.69000	 30.90	
 15.997	-36.045	 10.12038	  8.43162	 -0.22638	  0.86763	  6.70153	 -0.40103	 11.37212	702.65002	 30.90	
 16.000	-21.597	 10.10055	  9.17598	 -0.73599	  1.97387	  5.29678	 -0.36455	 11.37266	702.78998	 30.90	
 16.003	 -7.169	 10.05972	  9.52753	 -1.00761	  3.26430	  3.80532	 -0.37652	 11.36883	702.82001	 30.90	
 16.003	  7.169	 10.01069	  9.46006	 -1.03103	  4.67528	  2.35911	 -0.39971	 11.37375	702.81000	 30.90	
 16.000	 21.597	  9.94375	  8.97426	 -0.80601	  6.10405	  1.05406	 -0.40686	 11.36934	702.78003	 30.90	
 15.997	 36.045	  9.89145	  8.11361	 -0.31495	  7.42968	 -0.02375	 -0.44961	 11.37858	702.73999	 30.90	
 15.997	 50.364	  9.82309	  6.92575	  0.41887	  8.52838	 -0.85297	 -0.48651	 11.36582	702.70001	 30.90	
 16.009	 64.774	  9.77320	  5.55030	  1.41353	  9.34626	 -1.40096	 -0.49110	 11.36807	702.77002	 30.90	
 15.992	 79.234	  9.73528	  4.06752	  2.62379	  9.79601	 -1.70700	 -0.50995	 11.37211	702.70001	 30.90	
 16.005	 93.629	  9.70134	  2.61923	  3.97738	  9.84154	 -1.78053	 -0.53566	 11.37125	702.69000	 30.90	
 15.993	107.966	  9.69186	  1.28927	  5.42702	  9.48208	 -1.58561	 -0.53635	 11.37135	702.69000	 30.90	
 15.995	122.439	  9.68770	  0.17493	  6.81598	  8.74206	 -1.14931	 -0.55321	 11.36695	702.65002	 30.90	
 16.002	136.836	  9.68954	 -0.67178	  8.04352	  7.68648	 -0.46985	 -0.58052	 11.37058	702.65997	 30.90	
 16.002	151.165	  9.70530	 -1.26470	  9.01376	  6.39085	  0.45835	 -0.57498	 11.37290	702.65997	 30.90	
 15.990	165.604	  9.74097	 -1.57668	  9.62514	  4.95447	  1.66105	 -0.53765	 11.36600	702.65002	 30.90	
 20.003	168.362	  8.79507	 -3.02446	 10.40774	  4.19963	  1.02587	 -0.56949	 11.37143	702.57001	 30.90	
 20.008	156.764	  8.76139	 -2.79940	  9.91018	  5.61743	 -0.14233	 -0.59495	 11.37231	702.67999	 30.90	
 20.000	145.147	  8.73565	 -2.39881	  9.09924	  6.99595	 -1.14329	 -0.62494	 11.37084	702.71002	 30.90	
 19.995	133.545	  8.72859	 -1.80493	  8.04843	  8.22910	 -1.91767	 -0.63465	 11.37592	702.76001	 30.90	
 20.009	121.926	  8.72258	 -0.98879	  6.78235	  9.26020	 -2.50875	 -0.63440	 11.37340	702.71002	 30.90	
 20.005	110.327	  8.72750	  0.02788	  5.40196	 10.02406	 -2.90348	 -0.62329	 11.37554	702.57001	 30.90	
 19.989	 98.733	  8.74297	  1.26090	  3.97493	 10.46077	 -3.10654	 -0.61657	 11.37048	702.70001	 30.90	
 19.999	 87.075	  8.76229	  2.62060	  2.59670	 10.59616	 -3.14494	 -0.60707	 11.37389	702.62000	 30.90	
 19.992	 75.457	  8.80137	  4.06936	  1.34050	 10.40742	 -3.00084	 -0.61958	 11.36900	702.62000	 30.90	
 20.009	 63.844	  8.83566	  5.51665	  0.23061	  9.91171	 -2.71507	 -0.62720	 11.37115	702.64001	 30.90	
 19.989	 52.269	  8.88799	  6.89951	 -0.69509	  9.11390	 -2.23240	 -0.62956	 11.37333	702.66998	 30.90	
 19.999	 40.602	  8.94385	  8.14873	 -1.42839	  8.04991	 -1.54602	 -0.61954	 11.37166	702.65002	 30.90	
 20.004	 29.051	  9.00108	  9.14696	 -1.96332	  6.81031	 -0.65638	 -0.59263	 11.36870	702.65997	 30.90	
 20.005	 17.433	  9.06003	  9.88593	 -2.32103	  5.43781	  0.42816	 -0.54749	 11.37511	702.76001	 30.90	
 20.006	  5.780	  9.12362	 10.28103	 -2.47340	  4.01525	  1.73061	 -0.50879	 11.37544	702.69000	 30.90	
 20.006	 -5.780	  9.18381	 10.35358	 -2.44660	  2.65426	  3.13024	 -0.49440	 11.37472	702.63000	 30.90	
 20.005	-17.433	  9.21703	 10.08342	 -2.24628	  1.38379	  4.58980	 -0.50462	 11.36651	702.64001	 30.90	
 20.004	-29.051	  9.24390	  9.48098	 -1.86924	  0.25840	  6.04107	 -0.51960	 11.36521	702.69000	 30.90	
 19.999	-40.602	  9.27688	  8.58582	 -1.29890	 -0.65276	  7.37828	 -0.53861	 11.36610	702.65002	 30.90	
 19.989	-52.269	  9.28986	  7.42240	 -0.53915	 -1.40697	  8.54639	 -0.54888	 11.37185	702.70001	 30.90	
 20.009	-63.844	  9.27687	  6.08867	  0.40377	 -1.94790	  9.43214	 -0.56199	 11.37007	702.69000	 30.90	
 19.992	-75.457	  9.27683	  4.65483	  1.54859	 -2.27784	 10.01866	 -0.57577	 11.37053	702.76001	 30.90	
 19.999	-87.075	  9.24815	  3.19061	  2.83125	 -2.43563	 10.27273	 -0.57300	 11.37136	702.75000	 30.90	
 19.989	-98.733	  9.21474	  1.79525	  4.19825	 -2.41061	 10.17844	 -0.55996	 11.36988	702.79999	 30.90	
 20.005	-110.327	  9.16217	  0.51467	  5.60357	 -2.22414	  9.74687	 -0.52743	 11.36635	702.70001	 30.90	
 20.009	-121.926	  9.11731	 -0.57923	  6.95916	 -1.86047	  8.98992	 -0.51414	 11.36977	702.69000	 30.90	
 19.995	-133.545	  9.06834	 -1.47370	  8.19013	 -1.30625	  7.95211	 -0.50072	 11.37191	702.71997	 30.90	
 20.000	-145.147	  9.01664	 -2.15193	  9.21587	 -0.55272	  6.69532	 -0.51347	 11.37345	702.66998	 30.90	
 20.008	-156.764	  8.94856	 -2.63890	  9.97565	  0.38376	  5.27723	 -0.51246	 11.36289	702.67999	 30.90	
 20.003	-168.362	  8.89066	 -2.94791	 10.43967	  1.51637	  3.81607	 -0.52334	 11.36680	702.56000	 30.90	
 20.000	180.000	  8.84307	 -3.06038	 10.57662	  2.80608	  2.37645	 -0.54554	 11.36582	702.62000	 30.90	
