FileType=PCF
NHL=14
Date=08/27/17	12:54:08
Facility=APL
Serial=16328-9
Customer=NASA
NP=6
Mach=0.150000
Calibration=1:1
CalPts=490
TstPts=95
PortNumbering=AP Standard
Units=Torr C m/s kg/m^3 deg mm 
Theta[deg]	Phi[deg]	P1[Torr]	P2[Torr]	P3[Torr]	P4[Torr]	P5[Torr]	P6[Torr]	Pt[Torr]	Ps[Abs,Torr]	Ts[C]	
  0.000	  0.000	 11.13826	  5.97723	  5.92983	  6.00602	  5.98324	  0.08086	 11.12374	709.58801	 25.60	
  1.691	128.401	 11.14240	  5.63287	  6.23039	  6.38893	  5.56467	  0.08020	 11.12620	709.59698	 25.60	
  1.692	 77.194	 11.15057	  6.09039	  5.78064	  6.53492	  5.45921	  0.07765	 11.13775	709.56000	 25.50	
  1.699	 26.182	 11.11320	  6.42627	  5.42463	  6.19082	  5.72558	  0.07176	 11.10109	709.57501	 25.50	
  1.699	-26.182	 11.14227	  6.44366	  5.45116	  5.76630	  6.19019	  0.06929	 11.12859	709.61200	 25.50	
  1.692	-77.194	 11.13030	  6.05096	  5.80473	  5.49496	  6.45718	  0.06540	 11.12247	709.57501	 25.50	
  1.691	-128.401	 11.14227	  5.62891	  6.25343	  5.57639	  6.39349	  0.07339	 11.13252	709.58899	 25.50	
  1.700	180.000	 11.13086	  5.43794	  6.43172	  5.97105	  5.96496	  0.07653	 11.11748	709.41901	 25.50	
  3.400	180.000	 11.12102	  4.82288	  6.98986	  5.89658	  5.87518	  0.05249	 11.12491	709.46698	 25.50	
  3.388	-152.325	 11.11827	  4.93899	  6.85155	  5.39360	  6.39883	  0.04541	 11.11542	709.54303	 25.50	
  3.397	-124.529	 11.11891	  5.25882	  6.48536	  5.04483	  6.81717	  0.03796	 11.12006	709.56097	 25.40	
  3.399	-96.763	 11.11064	  5.72534	  5.97222	  4.87838	  7.00962	  0.02489	 11.11526	709.49298	 25.40	
  3.394	-69.283	 11.10689	  6.26479	  5.44470	  4.93722	  6.93913	  0.02191	 11.11460	709.46503	 25.40	
  3.400	-41.398	 11.10676	  6.73303	  5.02495	  5.20789	  6.62043	  0.04357	 11.10995	709.38397	 25.40	
  3.401	-14.021	 11.11095	  6.99971	  4.80742	  5.64182	  6.14891	  0.03167	 11.11862	709.46198	 25.40	
  3.401	 14.021	 11.11332	  7.00452	  4.79920	  6.18959	  5.60204	  0.04418	 11.11913	709.48700	 25.40	
  3.400	 41.398	 11.10951	  6.74177	  5.00950	  6.66817	  5.15935	  0.04729	 11.11135	709.54401	 25.40	
  3.394	 69.283	 11.12490	  6.28855	  5.42866	  6.99607	  4.89578	  0.04806	 11.12703	709.37201	 25.40	
  3.399	 96.763	 11.10094	  5.73965	  5.93835	  7.04996	  4.82554	  0.04615	 11.10724	709.40900	 25.40	
  3.397	124.529	 11.08141	  5.24804	  6.43970	  6.83659	  4.98051	  0.04744	 11.08797	709.51202	 25.40	
  3.388	152.325	 11.09645	  4.93088	  6.82813	  6.42027	  5.35212	  0.05348	 11.09885	709.52600	 25.40	
  5.099	161.165	 11.05847	  4.25824	  7.40908	  6.37259	  5.23793	  0.01249	 11.10382	709.57397	 25.40	
  5.109	142.013	 11.06417	  4.50856	  7.12368	  6.90159	  4.76964	  0.00771	 11.11881	709.50702	 25.40	
  5.095	123.033	 11.06804	  4.89988	  6.68379	  7.30171	  4.43661	  0.00231	 11.12445	709.40302	 25.30	
  5.105	104.191	 11.05857	  5.38857	  6.14837	  7.53868	  4.23208	  0.00069	 11.11742	709.49597	 25.30	
  5.093	 85.207	 11.04895	  5.94407	  5.57668	  7.57914	  4.19149	  0.00474	 11.10112	709.56598	 25.30	
  5.104	 66.290	 11.05479	  6.49953	  5.05104	  7.43679	  4.31606	  0.00682	 11.10407	709.46399	 25.30	
  5.094	 47.331	 11.04928	  6.98138	  4.61142	  7.10953	  4.58804	  0.01028	 11.10250	709.48700	 25.30	
  5.089	 28.397	 11.07488	  7.35888	  4.31440	  6.67194	  5.00471	  0.00654	 11.12502	709.56702	 25.30	
  5.096	  9.576	 11.05566	  7.54181	  4.14985	  6.12213	  5.50548	  0.00125	 11.11438	709.60797	 25.30	
  5.096	 -9.576	 11.06180	  7.54496	  4.15913	  5.55258	  6.08388	 -0.00960	 11.12463	709.50702	 25.30	
  5.089	-28.397	 11.06046	  7.34310	  4.32774	  5.05212	  6.61309	 -0.01982	 11.12171	709.50500	 25.30	
  5.094	-47.331	 11.03715	  6.96004	  4.63117	  4.62655	  7.06564	 -0.03320	 11.09736	709.61401	 25.30	
  5.104	-66.290	 11.04784	  6.47525	  5.07273	  4.34295	  7.40441	 -0.04221	 11.10448	709.42499	 25.30	
  5.093	-85.207	 11.05875	  5.92131	  5.60939	  4.22134	  7.55575	 -0.03864	 11.11491	709.36102	 25.30	
  5.105	-104.191	 11.05122	  5.35263	  6.17407	  4.25000	  7.50248	 -0.02749	 11.10509	709.51300	 25.30	
  5.095	-123.033	 11.04939	  4.86010	  6.69673	  4.44990	  7.25131	 -0.01104	 11.09509	709.58502	 25.30	
  5.109	-142.013	 11.06603	  4.48167	  7.14133	  4.80138	  6.85279	  0.00189	 11.10654	709.58301	 25.30	
  5.099	-161.165	 11.07524	  4.25222	  7.42726	  5.27336	  6.34240	  0.01195	 11.11726	709.48798	 25.30	
  5.100	180.000	 11.05628	  4.17417	  7.50533	  5.80650	  5.77823	  0.01356	 11.09840	709.49500	 25.30	
  6.800	180.000	 11.00192	  3.53941	  8.02725	  5.71307	  5.68536	 -0.05122	 11.12167	709.59497	 25.30	
  6.796	-166.229	 11.00000	  3.58711	  7.95929	  5.17778	  6.22750	 -0.04620	 11.11714	709.62000	 25.20	
  6.808	-152.311	 10.97971	  3.74412	  7.74204	  4.67791	  6.74393	 -0.05166	 11.09763	709.59497	 25.20	
  6.795	-138.383	 10.98327	  4.02849	  7.41304	  4.25206	  7.23251	 -0.06544	 11.10655	709.45398	 25.20	
  6.792	-124.591	 10.98913	  4.41481	  6.99189	  3.92504	  7.63362	 -0.07654	 11.12390	709.48700	 25.20	
  6.787	-110.754	 10.95917	  4.86510	  6.47302	  3.69496	  7.89224	 -0.08702	 11.10299	709.56403	 25.20	
  6.800	-96.985	 10.96955	  5.39106	  5.93913	  3.58645	  8.04538	 -0.10788	 11.11731	709.43903	 25.20	
  6.800	-83.015	 10.95920	  5.94941	  5.37411	  3.58841	  8.04197	 -0.12314	 11.10947	709.47900	 25.20	
  6.787	-69.246	 10.94265	  6.48558	  4.84910	  3.70484	  7.89018	 -0.12004	 11.09407	709.57501	 25.20	
  6.792	-55.409	 10.94910	  6.99906	  4.39460	  3.93499	  7.62739	 -0.11838	 11.10564	709.42603	 25.20	
  6.795	-41.617	 10.96133	  7.44460	  4.01935	  4.27504	  7.24648	 -0.10651	 11.11650	709.53601	 25.20	
  6.808	-27.689	 10.93157	  7.76929	  3.71666	  4.69313	  6.75016	 -0.08751	 11.09186	709.49799	 25.20	
  6.796	-13.771	 10.95991	  7.99880	  3.55408	  5.20055	  6.23583	 -0.07656	 11.11858	709.50201	 25.20	
  6.800	  0.000	 10.94976	  8.06300	  3.48824	  5.72717	  5.68524	 -0.07338	 11.10627	709.52100	 25.20	
  6.796	 13.771	 10.94126	  7.98795	  3.53670	  6.27368	  5.13844	 -0.05993	 11.09539	709.52698	 25.20	
  6.808	 27.689	 10.94462	  7.78624	  3.69825	  6.80113	  4.64592	 -0.05170	 11.09186	709.59100	 25.20	
  6.795	 41.617	 10.96259	  7.46094	  3.99120	  7.27853	  4.23863	 -0.05179	 11.10871	709.61102	 25.20	
  6.792	 55.409	 10.96745	  7.03361	  4.36820	  7.66563	  3.91194	 -0.05381	 11.11271	709.40302	 25.20	
  6.787	 69.246	 10.96872	  6.53004	  4.82625	  7.93528	  3.68636	 -0.05653	 11.11477	709.56097	 25.20	
  6.800	 83.015	 10.94550	  5.97809	  5.32808	  8.06652	  3.55609	 -0.07069	 11.09400	709.54102	 25.20	
  6.800	 96.985	 10.96548	  5.43245	  5.89452	  8.07903	  3.56307	 -0.07686	 11.11584	709.45898	 25.20	
  6.787	110.754	 10.96152	  4.91563	  6.43301	  7.93080	  3.67813	 -0.06997	 11.11223	709.41998	 25.20	
  6.792	124.591	 10.96086	  4.45004	  6.94175	  7.65632	  3.90152	 -0.07036	 11.10690	709.59198	 25.20	
  6.795	138.383	 10.95707	  4.06379	  7.37566	  7.26251	  4.22778	 -0.06315	 11.09779	709.51501	 25.20	
  6.808	152.311	 10.97255	  3.77417	  7.72721	  6.79612	  4.64726	 -0.04769	 11.10858	709.58899	 25.20	
  6.796	166.229	 10.99438	  3.60747	  7.94777	  6.27113	  5.14648	 -0.04685	 11.11966	709.47101	 25.20	
  8.491	168.704	 10.85587	  2.94314	  8.41699	  6.14436	  4.98956	 -0.12912	 11.10692	709.44800	 25.20	
  8.502	157.493	 10.83195	  3.07848	  8.23179	  6.68171	  4.47498	 -0.12293	 11.09370	709.48102	 25.10	
  8.494	146.194	 10.83312	  3.32388	  7.94740	  7.20054	  4.02225	 -0.13510	 11.10215	709.38800	 25.10	
  8.495	135.039	 10.82611	  3.63769	  7.56696	  7.65752	  3.62394	 -0.15673	 11.10740	709.38800	 25.10	
  8.487	123.723	 10.80687	  4.03981	  7.09222	  8.02972	  3.30230	 -0.16591	 11.09094	709.34399	 25.10	
  8.492	112.575	 10.81182	  4.50208	  6.58430	  8.31551	  3.07673	 -0.16786	 11.09703	709.42603	 25.10	
  8.510	101.220	 10.81849	  5.02937	  6.03363	  8.49849	  2.93882	 -0.17426	 11.10881	709.35498	 25.10	
  8.500	 90.000	 10.81073	  5.57406	  5.46923	  8.54645	  2.89600	 -0.16884	 11.09495	709.46997	 25.10	
  8.510	 78.780	 10.82790	  6.14332	  4.92739	  8.50424	  2.94567	 -0.15398	 11.11685	709.40802	 25.10	
  8.492	 67.425	 10.81161	  6.68416	  4.40232	  8.31153	  3.08717	 -0.13300	 11.09544	709.27899	 25.10	
  8.487	 56.277	 10.81592	  7.19184	  3.94929	  8.04076	  3.31245	 -0.12582	 11.09881	709.41498	 25.10	
  8.495	 44.961	 10.82891	  7.66278	  3.55297	  7.67884	  3.62976	 -0.13041	 11.12021	709.54401	 25.10	
  8.494	 33.806	 10.79753	  8.01242	  3.23284	  7.20433	  4.01846	 -0.12425	 11.08750	709.45398	 25.10	
  8.502	 22.507	 10.82028	  8.31484	  3.00681	  6.71238	  4.48606	 -0.12940	 11.11317	709.56702	 25.10	
  8.491	 11.296	 10.78845	  8.45735	  2.86920	  6.15270	  4.98393	 -0.14257	 11.08753	709.47400	 25.10	
  8.500	  0.000	 10.78406	  8.51374	  2.82305	  5.58386	  5.53981	 -0.15117	 11.08152	709.50702	 25.10	
  8.491	-11.296	 10.80926	  8.47046	  2.88363	  5.05176	  6.11174	 -0.15367	 11.10834	709.46997	 25.10	
  8.502	-22.507	 10.80529	  8.29256	  3.02343	  4.53524	  6.65524	 -0.16039	 11.10405	709.48999	 25.10	
  8.494	-33.806	 10.82222	  8.01620	  3.26631	  4.07016	  7.18678	 -0.17941	 11.12078	709.36700	 25.10	
  8.495	-44.961	 10.80994	  7.62792	  3.58114	  3.66439	  7.63322	 -0.20227	 11.10582	709.43402	 25.10	
  8.487	-56.277	 10.80238	  7.15475	  3.98601	  3.35043	  7.99587	 -0.20492	 11.09096	709.33899	 25.10	
  8.492	-67.425	 10.80178	  6.64303	  4.44182	  3.11335	  8.27895	 -0.21764	 11.09395	709.33801	 25.10	
  8.510	-78.780	 10.81934	  6.09498	  4.96953	  2.96579	  8.47331	 -0.22339	 11.11085	709.48999	 25.10	
  8.500	-90.000	 10.80303	  5.51959	  5.51500	  2.91151	  8.51149	 -0.21754	 11.09297	709.28400	 25.10	
  8.510	-101.220	 10.80117	  4.96383	  6.07374	  2.94936	  8.44873	 -0.19160	 11.08447	709.37000	 25.10	
  8.492	-112.575	 10.80783	  4.44742	  6.62699	  3.09783	  8.26410	 -0.16569	 11.07798	709.48199	 25.10	
  8.487	-123.723	 10.81957	  3.98874	  7.13503	  3.32514	  7.98317	 -0.15304	 11.08065	709.57397	 25.10	
  8.495	-135.039	 10.84183	  3.59308	  7.59973	  3.63935	  7.61638	 -0.15034	 11.09214	709.51001	 25.10	
  8.494	-146.194	 10.85881	  3.28643	  7.97377	  4.03834	  7.16637	 -0.13621	 11.09919	709.50702	 25.10	
  8.502	-157.493	 10.86068	  3.05879	  8.25476	  4.50901	  6.64214	 -0.12054	 11.09527	709.55200	 25.10	
  8.491	-168.704	 10.87127	  2.93144	  8.42764	  5.02567	  6.10527	 -0.12401	 11.10612	709.51202	 25.10	
  8.500	180.000	 10.86962	  2.88835	  8.48855	  5.57629	  5.55113	 -0.13392	 11.11257	709.50500	 25.10	
 10.200	180.000	 10.70005	  2.21578	  8.92561	  5.40909	  5.38521	 -0.22350	 11.11039	709.48499	 25.10	
 10.191	-170.497	 10.68234	  2.24047	  8.86326	  4.84571	  5.93350	 -0.21929	 11.08365	709.53302	 25.10	
 10.210	-161.034	 10.69814	  2.35270	  8.73134	  4.32256	  6.49802	 -0.20837	 11.09930	709.45697	 25.10	
 10.194	-151.526	 10.71289	  2.55368	  8.50053	  3.83487	  7.05454	 -0.21198	 11.11816	709.37000	 25.10	
 10.190	-142.105	 10.69466	  2.81656	  8.16471	  3.39536	  7.54162	 -0.22308	 11.10651	709.46997	 25.10	
 10.215	-132.646	 10.67410	  3.14561	  7.75946	  3.01897	  7.97582	 -0.22908	 11.09614	709.49597	 25.10	
 10.203	-123.092	 10.67831	  3.56191	  7.29836	  2.71507	  8.36543	 -0.23281	 11.11871	709.43103	 25.10	
 10.192	-113.678	 10.64295	  4.01694	  6.76101	  2.47726	  8.63551	 -0.24566	 11.09446	709.40198	 25.10	
 10.208	-104.249	 10.62559	  4.51752	  6.20877	  2.31302	  8.83508	 -0.27838	 11.09071	709.48700	 25.10	
 10.210	-94.801	 10.62342	  5.06476	  5.64348	  2.23557	  8.94426	 -0.30258	 11.09717	709.52698	 25.10	
 10.210	-85.199	 10.62246	  5.64355	  5.06788	  2.23932	  8.94865	 -0.31937	 11.09542	709.45099	 25.10	
 10.208	-75.751	 10.63753	  6.21849	  4.52922	  2.32532	  8.86372	 -0.32370	 11.11872	709.38898	 25.10	
 10.192	-66.322	 10.62959	  6.76831	  4.02078	  2.49189	  8.65511	 -0.31467	 11.10471	709.38599	 25.10	
 10.203	-56.908	 10.63069	  7.29161	  3.55288	  2.73040	  8.36643	 -0.30242	 11.10361	709.40302	 25.00	
 10.215	-47.354	 10.61907	  7.76928	  3.13197	  3.03878	  7.98667	 -0.29442	 11.09728	709.46997	 25.00	
 10.190	-37.895	 10.63649	  8.18769	  2.80082	  3.42355	  7.55841	 -0.27094	 11.11622	709.45898	 25.10	
 10.194	-28.474	 10.60620	  8.49908	  2.51974	  3.84929	  7.04592	 -0.25366	 11.08615	709.59100	 25.00	
 10.210	-18.966	 10.61927	  8.76213	  2.31844	  4.35000	  6.51211	 -0.24054	 11.10471	709.63300	 25.00	
 10.191	 -9.503	 10.61989	  8.90849	  2.20579	  4.87977	  5.95280	 -0.23742	 11.10160	709.61200	 25.00	
 10.200	  0.000	 10.62864	  8.97384	  2.16056	  5.43838	  5.39273	 -0.23855	 11.11386	709.46503	 25.00	
 10.191	  9.503	 10.62110	  8.92007	  2.19186	  6.00541	  4.82634	 -0.23375	 11.10671	709.53601	 25.00	
 10.210	 18.966	 10.61646	  8.77374	  2.30201	  6.55639	  4.29596	 -0.22345	 11.09882	709.49597	 25.00	
 10.194	 28.474	 10.61600	  8.52680	  2.49929	  7.08723	  3.81389	 -0.21505	 11.09303	709.56097	 25.00	
 10.190	 37.895	 10.63574	  8.21301	  2.76649	  7.59378	  3.38495	 -0.21137	 11.10921	709.54999	 25.00	
 10.215	 47.354	 10.64044	  7.81768	  3.09849	  8.04005	  3.00396	 -0.21219	 11.11480	709.44202	 25.00	
 10.203	 56.908	 10.62842	  7.33371	  3.50419	  8.38934	  2.70589	 -0.20649	 11.09817	709.37201	 25.00	
 10.192	 66.322	 10.63584	  6.81900	  3.97021	  8.67071	  2.48425	 -0.21342	 11.10096	709.44000	 25.00	
 10.208	 75.751	 10.62282	  6.26600	  4.46654	  8.86258	  2.31394	 -0.24092	 11.09225	709.58502	 25.00	
 10.210	 85.199	 10.63966	  5.71168	  5.01541	  8.97730	  2.23903	 -0.26911	 11.11126	709.44800	 25.00	
 10.210	 94.801	 10.62804	  5.13348	  5.58459	  8.96769	  2.23586	 -0.28198	 11.09628	709.54901	 25.00	
 10.208	104.249	 10.62667	  4.58826	  6.14846	  8.86331	  2.31399	 -0.27856	 11.09570	709.51801	 25.00	
 10.192	113.678	 10.63624	  4.08693	  6.70152	  8.66610	  2.47657	 -0.26911	 11.09526	709.42297	 25.00	
 10.203	123.092	 10.62832	  3.61276	  7.21930	  8.37910	  2.69552	 -0.26222	 11.08906	709.52600	 25.00	
 10.215	132.646	 10.64887	  3.20176	  7.71089	  8.02428	  2.99616	 -0.25112	 11.10714	709.45697	 25.00	
 10.190	142.105	 10.64321	  2.86176	  8.10855	  7.56824	  3.37199	 -0.23146	 11.08842	709.43402	 25.00	
 10.194	151.526	 10.64936	  2.58717	  8.44131	  7.06957	  3.80777	 -0.20967	 11.08799	709.56897	 25.00	
 10.210	161.034	 10.65646	  2.37818	  8.69469	  6.53204	  4.28488	 -0.20755	 11.08610	709.44598	 25.00	
 10.191	170.497	 10.67493	  2.26435	  8.85118	  5.97917	  4.81580	 -0.22028	 11.09622	709.49597	 25.00	
 11.899	171.783	 10.45910	  1.58347	  9.26008	  5.78895	  4.61891	 -0.31271	 11.09042	709.61603	 25.00	
 11.890	163.610	 10.45857	  1.69284	  9.13059	  6.35444	  4.09446	 -0.29972	 11.09914	709.61102	 25.00	
 11.889	155.445	 10.45928	  1.86654	  8.92169	  6.90961	  3.60234	 -0.29430	 11.10821	709.53497	 25.00	
 11.909	147.299	 10.43620	  2.09347	  8.61998	  7.42912	  3.13329	 -0.31238	 11.09718	709.56598	 25.00	
 11.902	139.148	 10.43048	  2.39693	  8.24630	  7.91022	  2.72873	 -0.33262	 11.09922	709.55200	 25.00	
 11.894	130.867	 10.45933	  2.77130	  7.83273	  8.36004	  2.39167	 -0.34996	 11.13309	709.50500	 25.00	
 11.897	122.732	 10.41210	  3.17160	  7.31839	  8.68975	  2.09202	 -0.36234	 11.09498	709.46399	 25.00	
 11.903	114.597	 10.41530	  3.63118	  6.79965	  8.99360	  1.85709	 -0.37871	 11.10517	709.47400	 25.00	
 11.893	106.346	 10.42622	  4.15029	  6.24964	  9.22003	  1.69770	 -0.38958	 11.11991	709.32898	 25.00	
 11.892	 98.155	 10.38998	  4.67255	  5.65715	  9.31505	  1.59551	 -0.38487	 11.07790	709.43298	 25.00	
 11.900	 90.000	 10.39481	  5.22867	  5.09742	  9.36913	  1.56256	 -0.38437	 11.09196	709.46698	 25.00	
 11.892	 81.845	 10.41625	  5.80717	  4.55126	  9.34192	  1.60362	 -0.35873	 11.11312	709.36102	 25.00	
 11.893	 73.654	 10.39459	  6.35936	  4.01212	  9.19208	  1.70385	 -0.32776	 11.08610	709.53003	 25.00	
 11.903	 65.403	 10.40641	  6.92146	  3.51201	  8.99267	  1.87377	 -0.29908	 11.10385	709.51202	 25.00	
 11.897	 57.268	 10.40799	  7.44375	  3.05848	  8.70505	  2.10485	 -0.28658	 11.10344	709.52100	 25.00	
 11.894	 49.133	 10.42025	  7.92902	  2.66104	  8.35238	  2.40362	 -0.28282	 11.11728	709.51202	 25.00	
 11.902	 40.852	 10.39621	  8.34235	  2.29781	  7.91890	  2.74202	 -0.29661	 11.10127	709.54401	 25.00	
 11.909	 32.701	 10.37215	  8.68524	  2.00450	  7.43105	  3.14071	 -0.29846	 11.08174	709.53497	 25.00	
 11.889	 24.555	 10.39052	  8.98446	  1.78969	  6.91970	  3.61149	 -0.30289	 11.09982	709.46698	 25.00	
 11.890	 16.390	 10.39715	  9.19997	  1.62925	  6.38206	  4.10966	 -0.31253	 11.11080	709.48102	 25.00	
 11.899	  8.217	 10.38012	  9.31317	  1.52668	  5.81538	  4.63051	 -0.31702	 11.09225	709.68500	 25.00	
 11.900	  0.000	 10.39791	  9.37043	  1.49929	  5.25156	  5.20356	 -0.32048	 11.11554	709.43103	 25.00	
 11.899	 -8.217	 10.36701	  9.29659	  1.52917	  4.67977	  5.75314	 -0.32098	 11.08141	709.34900	 25.00	
 11.890	-16.390	 10.39341	  9.18323	  1.63589	  4.15929	  6.32760	 -0.32058	 11.10640	709.45599	 25.00	
 11.889	-24.555	 10.40637	  8.97859	  1.80639	  3.65405	  6.89282	 -0.32710	 11.11812	709.52899	 25.00	
 11.909	-32.701	 10.38469	  8.66728	  2.03163	  3.18373	  7.39765	 -0.33912	 11.08677	709.44202	 25.00	
 11.902	-40.852	 10.39928	  8.30880	  2.33192	  2.78160	  7.87983	 -0.34933	 11.09784	709.66101	 25.00	
 11.894	-49.133	 10.39307	  7.86680	  2.69055	  2.41520	  8.30718	 -0.36999	 11.08860	709.71301	 25.00	
 11.897	-57.268	 10.40927	  7.39585	  3.10325	  2.11883	  8.68475	 -0.38689	 11.10926	709.49799	 24.90	
 11.903	-65.403	 10.40418	  6.86635	  3.56229	  1.87821	  8.97564	 -0.39428	 11.10227	709.57501	 25.00	
 11.893	-73.654	 10.40375	  6.30421	  4.07417	  1.71060	  9.18433	 -0.39523	 11.10085	709.61603	 25.00	
 11.892	-81.845	 10.39362	  5.72950	  4.60854	  1.60624	  9.30140	 -0.39929	 11.09143	709.64502	 24.90	
 11.900	-90.000	 10.39897	  5.15696	  5.16983	  1.56652	  9.34579	 -0.39819	 11.09285	709.66199	 24.90	
 11.892	-98.155	 10.41850	  4.60834	  5.74906	  1.60407	  9.31055	 -0.38532	 11.10970	709.58801	 24.90	
 11.893	-106.346	 10.41647	  4.06619	  6.31153	  1.69532	  9.17433	 -0.36072	 11.09721	709.44000	 25.00	
 11.903	-114.597	 10.43026	  3.55472	  6.87389	  1.85595	  8.96620	 -0.33191	 11.10471	709.40198	 24.90	
 11.897	-122.732	 10.43645	  3.09847	  7.38611	  2.08972	  8.66398	 -0.31437	 11.09278	709.47400	 25.00	
 11.894	-130.867	 10.44597	  2.69402	  7.85901	  2.38726	  8.29079	 -0.30684	 11.08721	709.51801	 24.90	
 11.902	-139.148	 10.47005	  2.34218	  8.29656	  2.75072	  7.86312	 -0.30750	 11.09819	709.55200	 25.00	
 11.909	-147.299	 10.45412	  2.04463	  8.63858	  3.14531	  7.37318	 -0.30671	 11.07442	709.63098	 24.90	
 11.889	-155.445	 10.49199	  1.83050	  8.94706	  3.61705	  6.87681	 -0.30212	 11.10542	709.62000	 25.00	
 11.890	-163.610	 10.49677	  1.67159	  9.15638	  4.12635	  6.31999	 -0.30168	 11.10759	709.47101	 24.90	
 11.899	-171.783	 10.46347	  1.56640	  9.26114	  4.64830	  5.74115	 -0.31662	 11.08003	709.52197	 24.90	
 11.900	180.000	 10.45871	  1.54067	  9.30094	  5.20736	  5.17718	 -0.31654	 11.08496	709.46399	 24.90	
 13.600	180.000	 10.21542	  0.88854	  9.67181	  4.99560	  4.96572	 -0.41072	 11.09177	709.42798	 24.90	
 13.608	-172.853	 10.22084	  0.90377	  9.64515	  4.44545	  5.52140	 -0.41178	 11.09626	709.31299	 24.90	
 13.611	-165.583	 10.23882	  0.98212	  9.55007	  3.90788	  6.10149	 -0.40204	 11.11087	709.45001	 24.90	
 13.601	-158.353	 10.23164	  1.12790	  9.35352	  3.38883	  6.66188	 -0.39160	 11.09932	709.45697	 24.90	
 13.609	-151.210	 10.22035	  1.31538	  9.09544	  2.91370	  7.19020	 -0.39074	 11.09070	709.33197	 24.90	
 13.611	-143.999	 10.21691	  1.56483	  8.77445	  2.48457	  7.69696	 -0.38574	 11.09486	709.52100	 24.90	
 13.601	-136.825	 10.18963	  1.86851	  8.37356	  2.09363	  8.15145	 -0.38056	 11.07373	709.38098	 24.90	
 13.596	-129.640	 10.20268	  2.23212	  7.95220	  1.76075	  8.59261	 -0.37732	 11.10357	709.39398	 24.90	
 13.611	-122.431	 10.18642	  2.63732	  7.46498	  1.47592	  8.95132	 -0.38537	 11.10742	709.44299	 24.90	
 13.604	-115.211	 10.15699	  3.08527	  6.93151	  1.25003	  9.23010	 -0.39575	 11.08398	709.33002	 24.90	
 13.595	-108.042	 10.13827	  3.57626	  6.37643	  1.08326	  9.44423	 -0.41833	 11.07543	709.40302	 24.90	
 13.607	-100.793	 10.15047	  4.11154	  5.82015	  0.97009	  9.62372	 -0.43607	 11.10221	709.35303	 24.90	
 13.601	-93.617	 10.14207	  4.65801	  5.24629	  0.91389	  9.69920	 -0.44617	 11.10008	709.36902	 24.90	
 13.601	-86.383	 10.13178	  5.22522	  4.67055	  0.91592	  9.69576	 -0.43957	 11.09219	709.44202	 24.90	
 13.607	-79.207	 10.14723	  5.80188	  4.13036	  0.97518	  9.64232	 -0.43957	 11.11347	709.56000	 24.90	
 13.595	-71.958	 10.16157	  6.38218	  3.60838	  1.10249	  9.50018	 -0.43330	 11.12903	709.38397	 24.90	
 13.604	-64.789	 10.12522	  6.91364	  3.09897	  1.26880	  9.24525	 -0.42653	 11.08789	709.45099	 24.90	
 13.611	-57.569	 10.13995	  7.45425	  2.64545	  1.49981	  8.97115	 -0.42257	 11.10665	709.44800	 24.90	
 13.596	-50.360	 10.13046	  7.93628	  2.23362	  1.78405	  8.60571	 -0.41699	 11.09398	709.45697	 24.90	
 13.601	-43.175	 10.11917	  8.37551	  1.87343	  2.12577	  8.17831	 -0.40338	 11.08508	709.38800	 24.90	
 13.611	-36.001	 10.12342	  8.77556	  1.55813	  2.51479	  7.71736	 -0.39353	 11.09419	709.48499	 24.90	
 13.609	-28.790	 10.11367	  9.09955	  1.30466	  2.94525	  7.20717	 -0.38883	 11.08839	709.45398	 24.90	
 13.601	-21.647	 10.10871	  9.35615	  1.10816	  3.41705	  6.67186	 -0.38276	 11.08669	709.41101	 24.90	
 13.611	-14.417	 10.12629	  9.57001	  0.96214	  3.93910	  6.11944	 -0.38447	 11.10952	709.35498	 24.90	
 13.608	 -7.147	 10.10419	  9.66669	  0.87189	  4.46863	  5.53742	 -0.38497	 11.08435	709.31500	 24.90	
 13.600	  0.000	 10.09890	  9.69852	  0.84773	  5.01719	  4.97436	 -0.38094	 11.08157	709.44598	 24.90	
 13.608	  7.147	 10.11944	  9.69025	  0.86910	  5.59404	  4.42853	 -0.38478	 11.10769	709.41101	 24.90	
 13.611	 14.417	 10.09500	  9.56125	  0.94821	  6.14791	  3.88168	 -0.38294	 11.08292	709.39203	 24.90	
 13.601	 21.647	 10.10045	  9.37718	  1.08979	  6.70477	  3.37596	 -0.37926	 11.08268	709.50500	 24.90	
 13.609	 28.790	 10.11862	  9.13920	  1.28033	  7.25197	  2.91127	 -0.37639	 11.10388	709.56000	 24.90	
 13.611	 36.001	 10.10450	  8.80459	  1.52413	  7.74101	  2.47749	 -0.36911	 11.08239	709.47900	 24.90	
 13.601	 43.175	 10.13485	  8.43982	  1.83823	  8.21448	  2.11430	 -0.36001	 11.11106	709.55701	 24.90	
 13.596	 50.360	 10.13146	  7.99797	  2.18876	  8.62371	  1.77627	 -0.35703	 11.10224	709.69202	 24.90	
 13.611	 57.569	 10.12629	  7.51132	  2.58336	  8.98534	  1.48070	 -0.35802	 11.09892	709.54401	 24.90	
 13.604	 64.789	 10.11871	  6.98109	  3.02761	  9.26812	  1.25105	 -0.37265	 11.08777	709.40002	 24.90	
 13.595	 71.958	 10.13161	  6.43809	  3.52246	  9.49831	  1.08474	 -0.40384	 11.09935	709.40302	 24.90	
 13.607	 79.207	 10.12819	  5.87152	  4.04117	  9.64620	  0.96645	 -0.43820	 11.09058	709.47101	 24.90	
 13.601	 86.383	 10.13493	  5.30990	  4.59351	  9.71818	  0.92242	 -0.47083	 11.09470	709.54401	 24.90	
 13.601	 93.617	 10.13877	  4.74263	  5.16364	  9.71708	  0.92395	 -0.48123	 11.09386	709.44800	 24.90	
 13.607	100.793	 10.15527	  4.20097	  5.73939	  9.66135	  0.97315	 -0.49258	 11.11294	709.46503	 24.90	
 13.595	108.042	 10.14034	  3.66637	  6.29869	  9.49529	  1.08175	 -0.48385	 11.09476	709.52100	 24.90	
 13.604	115.211	 10.14581	  3.16920	  6.85511	  9.27690	  1.24667	 -0.47676	 11.09856	709.39398	 24.90	
 13.611	122.431	 10.13384	  2.70883	  7.36927	  8.96918	  1.46680	 -0.46150	 11.07738	709.45697	 24.90	
 13.596	129.640	 10.16005	  2.30586	  7.87377	  8.61862	  1.75906	 -0.44398	 11.09444	709.43298	 24.90	
 13.601	136.825	 10.17469	  1.94123	  8.33102	  8.20701	  2.09456	 -0.42407	 11.10390	709.46198	 24.90	
 13.611	143.999	 10.16471	  1.62582	  8.71241	  7.73925	  2.46330	 -0.40887	 11.08567	709.46399	 24.90	
 13.609	151.210	 10.17868	  1.36524	  9.05183	  7.23758	  2.89306	 -0.38995	 11.09375	709.53497	 24.90	
 13.601	158.353	 10.20078	  1.16765	  9.32277	  6.70502	  3.37072	 -0.38064	 11.10605	709.39398	 24.90	
 13.611	165.583	 10.19209	  1.00971	  9.50795	  6.13498	  3.86806	 -0.38800	 11.09031	709.51801	 24.90	
 13.608	172.853	 10.19891	  0.92172	  9.62338	  5.56279	  4.40236	 -0.39745	 11.08440	709.40002	 24.90	
 15.298	173.587	  9.92640	  0.28193	  9.96458	  5.33284	  4.16855	 -0.47883	 11.10347	709.53802	 24.90	
 15.291	167.167	  9.89935	  0.35697	  9.84472	  5.88479	  3.63254	 -0.46998	 11.08169	709.37000	 24.90	
 15.307	160.676	  9.89157	  0.48502	  9.67035	  6.45139	  3.12127	 -0.46456	 11.08581	709.34601	 24.90	
 15.300	154.261	  9.87742	  0.66083	  9.42630	  6.99843	  2.64101	 -0.46727	 11.07823	709.35199	 24.90	
 15.288	147.854	  9.87581	  0.89158	  9.13072	  7.51999	  2.21072	 -0.48052	 11.08908	709.42499	 24.90	
 15.293	141.428	  9.85874	  1.16184	  8.76553	  7.99912	  1.81364	 -0.49448	 11.07309	709.29303	 24.90	
 15.299	134.985	  9.85894	  1.48046	  8.36061	  8.46197	  1.45101	 -0.51168	 11.08858	709.42798	 24.90	
 15.305	128.583	  9.84626	  1.84256	  7.89540	  8.86246	  1.13455	 -0.52601	 11.07969	709.38800	 24.90	
 15.309	122.142	  9.86063	  2.25136	  7.41586	  9.23373	  0.87183	 -0.53841	 11.10436	709.46399	 24.90	
 15.304	115.711	  9.83946	  2.69743	  6.87733	  9.50549	  0.65929	 -0.53938	 11.08601	709.40302	 24.90	
 15.297	109.291	  9.82881	  3.17794	  6.32221	  9.72659	  0.49622	 -0.53982	 11.07667	709.35303	 24.90	
 15.293	102.897	  9.82297	  3.68890	  5.75857	  9.88995	  0.37582	 -0.53981	 11.07605	709.40503	 24.90	
 15.293	 96.458	  9.84901	  4.23821	  5.20501	 10.01862	  0.30658	 -0.54189	 11.10831	709.28497	 24.90	
 15.300	 90.000	  9.82236	  4.78088	  4.62785	 10.02987	  0.28086	 -0.53632	 11.08074	709.47803	 24.90	
 15.293	 83.542	  9.82592	  5.35356	  4.07475	  9.99951	  0.31414	 -0.51752	 11.09151	709.34100	 24.90	
 15.293	 77.103	  9.81745	  5.91439	  3.53937	  9.88813	  0.38789	 -0.49277	 11.08080	709.37701	 24.90	
 15.297	 70.709	  9.83165	  6.48110	  3.04311	  9.73856	  0.51343	 -0.45550	 11.09454	709.40503	 24.90	
 15.304	 64.289	  9.82941	  7.02672	  2.56451	  9.51361	  0.67692	 -0.43769	 11.09974	709.25598	 24.90	
 15.309	 57.858	  9.80821	  7.53453	  2.11786	  9.21481	  0.88568	 -0.42418	 11.08500	709.46399	 24.90	
 15.305	 51.417	  9.79162	  8.01320	  1.71718	  8.85285	  1.14998	 -0.41781	 11.07194	709.54401	 24.90	
 15.299	 45.015	  9.82249	  8.48724	  1.36962	  8.47434	  1.47317	 -0.42126	 11.11095	709.48798	 24.90	
 15.293	 38.572	  9.81598	  8.88340	  1.06769	  8.01491	  1.84043	 -0.41805	 11.10054	709.42798	 24.90	
 15.288	 32.146	  9.78978	  9.20893	  0.80625	  7.51413	  2.23154	 -0.41124	 11.07281	709.52100	 24.90	
 15.300	 25.739	  9.79959	  9.51204	  0.59041	  7.01326	  2.66656	 -0.40783	 11.09537	709.44299	 24.90	
 15.307	 19.324	  9.78614	  9.72883	  0.42617	  6.45943	  3.14222	 -0.40901	 11.08310	709.36902	 24.90	
 15.291	 12.833	  9.79755	  9.89851	  0.31244	  5.90654	  3.66157	 -0.41030	 11.09218	709.42603	 24.90	
 15.298	  6.413	  9.79102	  9.99094	  0.23857	  5.34590	  4.18287	 -0.41149	 11.08500	709.35999	 24.90	
 15.300	  0.000	  9.80533	 10.03750	  0.21751	  4.78667	  4.74348	 -0.40959	 11.09952	709.51801	 24.90	
 15.298	 -6.413	  9.80226	  9.99659	  0.23871	  4.23514	  5.30173	 -0.40842	 11.09598	709.57501	 24.90	
 15.291	-12.833	  9.79866	  9.88694	  0.31166	  3.70023	  5.86049	 -0.40089	 11.08215	709.49298	 24.90	
 15.307	-19.324	  9.79463	  9.70917	  0.43541	  3.17641	  6.42895	 -0.41044	 11.07616	709.39398	 24.90	
 15.300	-25.739	  9.81310	  9.48562	  0.60796	  2.70586	  6.97912	 -0.41068	 11.09004	709.41199	 24.90	
 15.288	-32.146	  9.81031	  9.17932	  0.83055	  2.26551	  7.49125	 -0.41399	 11.07772	709.40503	 24.90	
 15.293	-38.572	  9.81631	  8.82782	  1.09638	  1.85304	  7.98990	 -0.41576	 11.08170	709.37201	 24.90	
 15.299	-45.015	  9.81498	  8.41535	  1.40833	  1.48169	  8.44234	 -0.41440	 11.08143	709.50500	 24.90	
 15.305	-51.417	  9.82742	  7.97050	  1.77332	  1.17279	  8.85069	 -0.41815	 11.09389	709.59998	 24.90	
 15.309	-57.858	  9.82829	  7.47683	  2.17617	  0.89906	  9.20089	 -0.41455	 11.09168	709.54999	 24.80	
 15.304	-64.289	  9.81698	  6.94253	  2.61868	  0.67571	  9.48106	 -0.41567	 11.07799	709.50500	 24.80	
 15.297	-70.709	  9.84203	  6.40588	  3.11229	  0.50407	  9.73615	 -0.41251	 11.10515	709.49500	 24.80	
 15.293	-77.103	  9.83352	  5.83780	  3.61911	  0.37529	  9.89263	 -0.41627	 11.09370	709.50403	 24.90	
 15.293	-83.542	  9.84381	  5.27306	  4.16331	  0.29739	 10.00616	 -0.42925	 11.10752	709.42603	 24.90	
 15.300	-90.000	  9.82182	  4.68579	  4.71278	  0.25941	 10.01857	 -0.43719	 11.08192	709.57703	 24.90	
 15.293	-96.458	  9.84399	  4.13985	  5.29244	  0.28684	  9.99848	 -0.45120	 11.10496	709.38098	 24.90	
 15.293	-102.897	  9.83369	  3.59618	  5.85389	  0.35635	  9.87812	 -0.45774	 11.08551	709.35999	 24.90	
 15.297	-109.291	  9.85130	  3.08748	  6.41886	  0.47642	  9.71721	 -0.45432	 11.09729	709.50403	 24.90	
 15.304	-115.711	  9.85543	  2.60793	  6.95932	  0.64506	  9.47409	 -0.43661	 11.08466	709.53802	 24.90	
 15.309	-122.142	  9.86947	  2.16432	  7.48574	  0.86918	  9.17581	 -0.43536	 11.08303	709.61200	 24.90	
 15.305	-128.583	  9.89710	  1.76486	  7.98581	  1.13967	  8.83328	 -0.43330	 11.09539	709.59698	 24.90	
 15.299	-134.985	  9.88069	  1.40241	  8.40969	  1.44495	  8.40832	 -0.44069	 11.06492	709.56097	 24.90	
 15.293	-141.428	  9.92316	  1.09484	  8.83972	  1.81806	  7.97306	 -0.45713	 11.09817	709.48700	 24.90	
 15.288	-147.854	  9.93090	  0.83356	  9.18979	  2.23020	  7.47547	 -0.46564	 11.09087	709.53497	 24.90	
 15.300	-154.261	  9.93835	  0.61750	  9.48359	  2.66879	  6.96071	 -0.46777	 11.09634	709.54901	 24.90	
 15.307	-160.676	  9.93375	  0.44675	  9.70910	  3.14316	  6.41653	 -0.47008	 11.09395	709.47302	 24.90	
 15.291	-167.167	  9.93400	  0.33777	  9.86823	  3.67142	  5.84372	 -0.47734	 11.09279	709.45001	 24.90	
 15.298	-173.587	  9.94341	  0.27463	  9.97731	  4.21272	  5.29008	 -0.48832	 11.10814	709.45599	 24.90	
 15.300	180.000	  9.90330	  0.25421	  9.97308	  4.74692	  4.71441	 -0.48825	 11.06989	709.48199	 24.90	
 17.000	180.000	  9.58171	 -0.35756	 10.26670	  4.48695	  4.45104	 -0.53157	 11.08007	709.46698	 24.90	
 16.990	-174.179	  9.59572	 -0.34553	 10.25137	  3.94347	  5.01121	 -0.52693	 11.09482	709.52600	 24.90	
 17.009	-168.383	  9.59617	 -0.29479	 10.16801	  3.40918	  5.56746	 -0.51751	 11.09165	709.44000	 24.90	
 17.000	-162.596	  9.59239	 -0.19765	 10.01649	  2.89156	  6.12813	 -0.51401	 11.08730	709.51501	 24.90	
 16.990	-156.759	  9.60789	 -0.05307	  9.82479	  2.41436	  6.68770	 -0.50716	 11.10278	709.41699	 24.90	
 16.995	-150.919	  9.59393	  0.13249	  9.54884	  1.96132	  7.21383	 -0.51111	 11.08727	709.50201	 24.90	
 16.988	-145.161	  9.59285	  0.36196	  9.23239	  1.54663	  7.72541	 -0.50250	 11.08946	709.47400	 24.90	
 17.014	-139.343	  9.59174	  0.62246	  8.87780	  1.16053	  8.21993	 -0.49759	 11.10708	709.48999	 24.90	
 17.007	-133.546	  9.57418	  0.93961	  8.45530	  0.83047	  8.64786	 -0.48014	 11.09532	709.38800	 24.90	
 17.001	-127.699	  9.55308	  1.29765	  7.98406	  0.52894	  9.04266	 -0.47364	 11.09110	709.47803	 24.90	
 17.006	-121.937	  9.54526	  1.68736	  7.49684	  0.27111	  9.39940	 -0.47416	 11.10175	709.45099	 24.90	
 17.002	-116.134	  9.52387	  2.11939	  6.96646	  0.05906	  9.68974	 -0.47164	 11.09247	709.52100	 24.90	
 17.001	-110.310	  9.51355	  2.58415	  6.42519	 -0.11329	  9.93573	 -0.46917	 11.09893	709.43903	 24.90	
 16.988	-104.517	  9.47749	  3.07692	  5.84952	 -0.22637	 10.08130	 -0.45320	 11.06051	709.57501	 24.90	
 17.008	-98.662	  9.47706	  3.60120	  5.28576	 -0.31322	 10.21422	 -0.43299	 11.07041	709.51898	 24.90	
 16.996	-92.909	  9.49287	  4.14442	  4.73817	 -0.34680	 10.29021	 -0.40891	 11.08910	709.50403	 24.90	
 16.996	-87.091	  9.51196	  4.71538	  4.18933	 -0.34237	 10.31836	 -0.38667	 11.11650	709.52698	 24.90	
 17.012	-81.253	  9.46617	  5.25918	  3.62014	 -0.30332	 10.22349	 -0.37355	 11.07210	709.53302	 24.90	
 16.988	-75.483	  9.47931	  5.82476	  3.11159	 -0.21165	 10.11589	 -0.36940	 11.08173	709.33600	 24.90	
 17.001	-69.690	  9.50190	  6.39885	  2.61690	 -0.08897	  9.97037	 -0.36588	 11.11585	709.39502	 24.90	
 17.002	-63.866	  9.47451	  6.92952	  2.13786	  0.08503	  9.70002	 -0.37098	 11.07932	709.46997	 24.90	
 17.006	-58.063	  9.48252	  7.46055	  1.70705	  0.30181	  9.41401	 -0.37729	 11.08861	709.33899	 24.90	
 17.001	-52.301	  9.46218	  7.93931	  1.31206	  0.56060	  9.04616	 -0.38658	 11.05971	709.29797	 24.90	
 17.007	-46.454	  9.46904	  8.41385	  0.94935	  0.86014	  8.65804	 -0.39727	 11.06996	709.40900	 24.90	
 17.014	-40.657	  9.46828	  8.83693	  0.63201	  1.19016	  8.23358	 -0.40023	 11.08088	709.45898	 25.00	
 16.988	-34.839	  9.46332	  9.20358	  0.36922	  1.57646	  7.74803	 -0.40621	 11.06445	709.58502	 24.90	
 16.995	-29.081	  9.47930	  9.54668	  0.13979	  1.99797	  7.25650	 -0.40957	 11.09094	709.52698	 25.00	
 16.990	-23.241	  9.48324	  9.82863	 -0.04854	  2.45587	  6.72513	 -0.41169	 11.10362	709.48798	 25.00	
 17.000	-17.404	  9.44820	 10.01272	 -0.20211	  2.92717	  6.15483	 -0.40819	 11.07010	709.49902	 24.90	
 17.009	-11.617	  9.44954	 10.17185	 -0.30508	  3.43777	  5.59668	 -0.40287	 11.08284	709.54303	 24.90	
 16.990	 -5.821	  9.47712	 10.28935	 -0.36278	  3.98087	  5.05285	 -0.39986	 11.11219	709.45697	 24.90	
 17.000	  0.000	  9.44821	 10.29789	 -0.38499	  4.51580	  4.48343	 -0.40252	 11.08328	709.47900	 24.90	
 16.990	  5.821	  9.45874	 10.28461	 -0.36639	  5.08422	  3.93460	 -0.40216	 11.09845	709.38000	 24.90	
 17.009	 11.617	  9.44220	 10.19194	 -0.31798	  5.63049	  3.40345	 -0.39471	 11.08857	709.45099	 24.90	
 17.000	 17.404	  9.42199	 10.02485	 -0.21203	  6.16920	  2.89735	 -0.39525	 11.06088	709.55701	 24.90	
 16.990	 23.241	  9.45367	  9.84820	 -0.06713	  6.74371	  2.42146	 -0.39817	 11.09574	709.53302	 24.90	
 16.995	 29.081	  9.43994	  9.56790	  0.11875	  7.25731	  1.97438	 -0.41477	 11.07383	709.54901	 24.90	
 16.988	 34.839	  9.46198	  9.27037	  0.34044	  7.77104	  1.56835	 -0.43702	 11.09395	709.48199	 25.00	
 17.014	 40.657	  9.43749	  8.88845	  0.59353	  8.23092	  1.18068	 -0.44469	 11.07322	709.47101	 25.00	
 17.007	 46.454	  9.46956	  8.50042	  0.90542	  8.69231	  0.84935	 -0.45875	 11.10373	709.40802	 25.00	
 17.001	 52.301	  9.46028	  8.02816	  1.26014	  9.07286	  0.55801	 -0.46260	 11.08482	709.43903	 24.90	
 17.006	 58.063	  9.44465	  7.52669	  1.64220	  9.39602	  0.30629	 -0.47113	 11.06165	709.48499	 25.00	
 17.002	 63.866	  9.47782	  7.03170	  2.07203	  9.72272	  0.09233	 -0.48753	 11.10108	709.56097	 25.00	
 17.001	 69.690	  9.46921	  6.48110	  2.52960	  9.95154	 -0.08326	 -0.50710	 11.08684	709.54901	 25.00	
 16.988	 75.483	  9.49318	  5.94028	  3.02734	 10.15133	 -0.20443	 -0.53177	 11.11060	709.50702	 25.00	
 17.012	 81.253	  9.46104	  5.36381	  3.52727	 10.24338	 -0.29784	 -0.54319	 11.07910	709.48499	 25.00	
 16.996	 87.091	  9.46965	  4.80227	  4.07358	 10.29953	 -0.33143	 -0.54878	 11.07657	709.50702	 25.00	
 16.996	 92.909	  9.48145	  4.24734	  4.63631	 10.30885	 -0.33361	 -0.55048	 11.08929	709.47101	 25.00	
 17.008	 98.662	  9.48193	  3.70850	  5.19080	 10.25148	 -0.29873	 -0.54508	 11.08845	709.45099	 25.00	
 16.988	104.517	  9.48291	  3.17979	  5.75932	 10.12191	 -0.21019	 -0.55163	 11.08096	709.52100	 25.00	
 17.001	110.310	  9.47850	  2.68028	  6.31364	  9.93820	 -0.08964	 -0.55448	 11.06847	709.43903	 25.00	
 17.002	116.134	  9.48483	  2.21497	  6.85683	  9.69822	  0.07963	 -0.56917	 11.06600	709.36700	 25.00	
 17.006	121.937	  9.51009	  1.78718	  7.39848	  9.42457	  0.28836	 -0.58058	 11.08410	709.40302	 25.00	
 17.001	127.699	  9.51263	  1.38687	  7.89215	  9.07741	  0.53397	 -0.57872	 11.08274	709.33600	 25.00	
 17.007	133.546	  9.50099	  1.02144	  8.34482	  8.67134	  0.81989	 -0.56937	 11.06310	709.43402	 25.00	
 17.014	139.343	  9.52614	  0.70294	  8.78705	  8.25006	  1.15544	 -0.56769	 11.08460	709.47900	 25.00	
 16.988	145.161	  9.52597	  0.43404	  9.15165	  7.75669	  1.53950	 -0.55464	 11.06777	709.50201	 25.00	
 16.995	150.919	  9.53546	  0.19458	  9.48232	  7.25798	  1.94171	 -0.54220	 11.06883	709.38397	 24.90	
 16.990	156.759	  9.55033	  0.00374	  9.75712	  6.73101	  2.38511	 -0.53237	 11.07910	709.40002	 24.90	
 17.000	162.596	  9.55853	 -0.15141	  9.97717	  6.17037	  2.86858	 -0.52920	 11.07685	709.56097	 24.90	
 17.009	168.383	  9.58690	 -0.26500	 10.15607	  5.62526	  3.37863	 -0.52950	 11.10283	709.44202	 24.90	
 16.990	174.179	  9.58884	 -0.32991	 10.24142	  5.06436	  3.90304	 -0.53795	 11.09585	709.40198	 25.00	
 18.709	174.675	  9.21230	 -0.91516	 10.47900	  4.77087	  3.61755	 -0.55263	 11.08439	709.44800	 24.90	
 18.703	169.441	  9.20459	 -0.85926	 10.39233	  5.31539	  3.10561	 -0.55781	 11.08083	709.45398	 24.90	
 18.691	164.085	  9.20575	 -0.75894	 10.25616	  5.88390	  2.60275	 -0.57449	 11.09060	709.40900	 24.90	
 18.706	158.818	  9.18874	 -0.63564	 10.05980	  6.43412	  2.11865	 -0.58351	 11.08549	709.39697	 24.90	
 18.695	153.537	  9.18793	 -0.46730	  9.81858	  6.96890	  1.68210	 -0.58917	 11.09199	709.44800	 25.00	
 18.704	148.255	  9.18557	 -0.26651	  9.52810	  7.49194	  1.27093	 -0.60110	 11.09757	709.45697	 25.00	
 18.698	142.952	  9.16195	 -0.02343	  9.15919	  7.97873	  0.88026	 -0.59971	 11.07797	709.45898	 24.90	
 18.699	137.625	  9.15678	  0.26394	  8.76282	  8.44758	  0.53355	 -0.59956	 11.08105	709.37000	 24.90	
 18.705	132.343	  9.16748	  0.57862	  8.34750	  8.88449	  0.23121	 -0.60026	 11.10466	709.41901	 25.00	
 18.713	127.067	  9.14817	  0.92313	  7.87058	  9.26227	 -0.04706	 -0.58943	 11.09224	709.31000	 24.90	
 18.700	121.794	  9.13182	  1.31840	  7.36049	  9.59195	 -0.28124	 -0.56954	 11.07959	709.38599	 24.90	
 18.698	116.504	  9.12956	  1.73624	  6.83991	  9.88975	 -0.47987	 -0.55152	 11.08939	709.40198	 25.00	
 18.707	111.165	  9.11760	  2.18585	  6.29143	 10.12799	 -0.64600	 -0.52430	 11.08440	709.41699	 25.00	
 18.690	105.863	  9.12319	  2.68028	  5.74700	 10.31576	 -0.75897	 -0.51533	 11.08994	709.31000	 25.00	
 18.696	100.583	  9.11054	  3.18125	  5.18271	 10.43620	 -0.84463	 -0.50638	 11.07902	709.43597	 25.00	
 18.700	 95.309	  9.10671	  3.70515	  4.62882	 10.51375	 -0.89611	 -0.50283	 11.08185	709.29401	 25.00	
 18.700	 90.000	  9.11580	  4.25381	  4.08105	 10.55204	 -0.91715	 -0.51284	 11.09547	709.48798	 25.00	
 18.700	 84.691	  9.10567	  4.80811	  3.53490	 10.51710	 -0.89260	 -0.52850	 11.08682	709.39502	 25.00	
 18.696	 79.417	  9.09374	  5.35772	  3.01381	 10.42968	 -0.83454	 -0.52331	 11.07862	709.27600	 25.00	
 18.690	 74.137	  9.08351	  5.90508	  2.51765	 10.28730	 -0.74696	 -0.52849	 11.06750	709.38599	 25.00	
 18.707	 68.835	  9.09696	  6.46984	  2.03743	 10.13268	 -0.63187	 -0.52188	 11.09765	709.34601	 25.00	
 18.698	 63.496	  9.07773	  6.99636	  1.58373	  9.86946	 -0.46543	 -0.51838	 11.07700	709.40900	 25.00	
 18.700	 58.206	  9.07739	  7.51321	  1.17321	  9.58216	 -0.26417	 -0.49625	 11.08020	709.38397	 25.00	
 18.713	 52.933	  9.08100	  8.01317	  0.79275	  9.25031	 -0.02589	 -0.48819	 11.09025	709.48499	 25.00	
 18.705	 47.657	  9.07702	  8.46937	  0.45867	  8.85912	  0.26067	 -0.47251	 11.09056	709.49799	 25.00	
 18.699	 42.375	  9.06220	  8.87544	  0.15391	  8.42868	  0.56440	 -0.45120	 11.07619	709.37500	 25.00	
 18.698	 37.048	  9.07831	  9.27706	 -0.10904	  7.98287	  0.92055	 -0.42010	 11.09484	709.40002	 25.00	
 18.704	 31.745	  9.05851	  9.60064	 -0.34531	  7.47259	  1.30480	 -0.39979	 11.07813	709.32202	 25.00	
 18.695	 26.463	  9.06917	  9.89843	 -0.53649	  6.96974	  1.72732	 -0.38084	 11.09133	709.31799	 25.00	
 18.706	 21.182	  9.05635	 10.12419	 -0.69608	  6.43807	  2.16107	 -0.36731	 11.08443	709.34100	 25.00	
 18.691	 15.915	  9.05981	 10.30680	 -0.81431	  5.89037	  2.64089	 -0.35804	 11.08603	709.41699	 25.00	
 18.703	 10.559	  9.07053	 10.45290	 -0.90700	  5.33778	  3.15231	 -0.35802	 11.10154	709.52600	 25.00	
 18.709	  5.325	  9.06425	 10.51717	 -0.95456	  4.79197	  3.66045	 -0.35269	 11.09065	709.52600	 25.00	
 18.700	  0.000	  9.07087	 10.54193	 -0.97257	  4.23402	  4.21064	 -0.35869	 11.09263	709.41199	 25.00	
 18.709	 -5.325	  9.06449	 10.50568	 -0.95367	  3.69112	  4.75602	 -0.36040	 11.08291	709.43402	 25.00	
 18.703	-10.559	  9.07461	 10.42937	 -0.90062	  3.17899	  5.30702	 -0.37097	 11.08515	709.47302	 25.00	
 18.691	-15.915	  9.07121	 10.27497	 -0.80292	  2.66141	  5.87035	 -0.38193	 11.07324	709.27899	 25.00	
 18.706	-21.182	  9.06508	 10.07782	 -0.67930	  2.18807	  6.40616	 -0.39124	 11.05706	709.31598	 25.00	
 18.695	-26.463	  9.09039	  9.85089	 -0.51724	  1.73968	  6.95410	 -0.38951	 11.07962	709.30798	 25.00	
 18.704	-31.745	  9.08360	  9.54678	 -0.32342	  1.31152	  7.47046	 -0.38231	 11.06726	709.31299	 25.00	
 18.698	-37.048	  9.09929	  9.20909	 -0.08227	  0.92532	  7.97132	 -0.37900	 11.07944	709.35699	 25.00	
 18.699	-42.375	  9.10559	  8.82150	  0.19118	  0.57426	  8.43431	 -0.36210	 11.08267	709.35999	 25.00	
 18.705	-47.657	  9.09606	  8.38142	  0.50173	  0.25588	  8.85304	 -0.35781	 11.07016	709.36902	 25.00	
 18.713	-52.933	  9.09647	  7.91740	  0.85031	 -0.02651	  9.24105	 -0.34258	 11.07137	709.48999	 25.00	
 18.700	-58.206	  9.09616	  7.41553	  1.23660	 -0.26614	  9.57399	 -0.33057	 11.06592	709.31000	 25.00	
 18.698	-63.496	  9.12555	  6.91973	  1.66060	 -0.46057	  9.88637	 -0.32614	 11.09696	709.31500	 25.00	
 18.707	-68.835	  9.10042	  6.35826	  2.10812	 -0.62548	 10.09822	 -0.32330	 11.06827	709.34900	 25.00	
 18.690	-74.137	  9.10668	  5.80586	  2.59843	 -0.75244	 10.28595	 -0.32287	 11.07103	709.31598	 25.00	
 18.696	-79.417	  9.12917	  5.26285	  3.10987	 -0.85119	 10.44595	 -0.33197	 11.10127	709.42603	 25.00	
 18.700	-84.691	  9.10287	  4.68909	  3.62593	 -0.91004	 10.49627	 -0.34317	 11.07228	709.47900	 25.00	
 18.700	-90.000	  9.12370	  4.13651	  4.17813	 -0.94004	 10.54398	 -0.36179	 11.09816	709.47400	 25.00	
 18.700	-95.309	  9.11367	  3.58786	  4.72806	 -0.92476	 10.49968	 -0.38016	 11.08127	709.43103	 25.00	
 18.696	-100.583	  9.10752	  3.06530	  5.27948	 -0.87092	 10.40615	 -0.39723	 11.07302	709.39203	 25.00	
 18.690	-105.863	  9.10853	  2.55937	  5.83409	 -0.78340	 10.25887	 -0.43216	 11.06129	709.37201	 25.00	
 18.707	-111.165	  9.12611	  2.08254	  6.39132	 -0.66202	 10.08416	 -0.45851	 11.07111	709.41498	 25.00	
 18.698	-116.504	  9.14476	  1.63357	  6.93801	 -0.49431	  9.84365	 -0.48157	 11.07699	709.40503	 25.00	
 18.700	-121.794	  9.15326	  1.20964	  7.45454	 -0.30260	  9.55352	 -0.49135	 11.07627	709.26703	 25.00	
 18.713	-127.067	  9.16794	  0.82585	  7.94961	 -0.06882	  9.21414	 -0.49573	 11.07991	709.44000	 25.00	
 18.705	-132.343	  9.19278	  0.48254	  8.42188	  0.21724	  8.83265	 -0.50347	 11.08768	709.32397	 25.00	
 18.699	-137.625	  9.21454	  0.17774	  8.85535	  0.53579	  8.40789	 -0.51375	 11.09961	709.39398	 25.00	
 18.698	-142.952	  9.20219	 -0.09982	  9.22044	  0.88219	  7.92295	 -0.51922	 11.06831	709.25299	 25.00	
 18.704	-148.255	  9.22504	 -0.33606	  9.57917	  1.27184	  7.44520	 -0.51827	 11.09261	709.20300	 25.00	
 18.695	-153.537	  9.21997	 -0.52554	  9.85693	  1.69460	  6.91179	 -0.51740	 11.07586	709.27600	 25.00	
 18.706	-158.818	  9.22056	 -0.68518	 10.09955	  2.14750	  6.37548	 -0.50902	 11.08169	709.35199	 25.00	
 18.691	-164.085	  9.21363	 -0.80089	 10.26793	  2.61939	  5.82970	 -0.51123	 11.06811	709.34601	 25.00	
 18.703	-169.441	  9.22310	 -0.88537	 10.41391	  3.13868	  5.26793	 -0.52118	 11.08523	709.41199	 25.00	
 18.709	-174.675	  9.22740	 -0.93307	 10.49765	  3.65998	  4.72379	 -0.53083	 11.09556	709.53003	 25.00	
 18.700	180.000	  9.21382	 -0.93654	 10.50602	  4.20297	  4.17064	 -0.54709	 11.08196	709.44202	 25.00	
 20.400	180.000	  8.80898	 -1.51580	 10.70290	  3.89519	  3.86347	 -0.51412	 11.07879	709.34900	 25.00	
 20.401	-175.153	  8.79713	 -1.50875	 10.67350	  3.36095	  4.39092	 -0.49661	 11.06328	709.33801	 25.10	
 20.407	-170.264	  8.80814	 -1.47305	 10.61410	  2.83826	  4.94486	 -0.48643	 11.07087	709.31500	 25.00	
 20.410	-165.423	  8.82171	 -1.41044	 10.51390	  2.33567	  5.50535	 -0.47338	 11.08926	709.29102	 25.10	
 20.392	-160.496	  8.81772	 -1.29647	 10.33407	  1.86700	  6.05106	 -0.46989	 11.07389	709.43903	 25.00	
 20.401	-155.705	  8.82506	 -1.16660	 10.13381	  1.42090	  6.59236	 -0.47955	 11.08535	709.33801	 25.00	
 20.405	-150.835	  8.81444	 -1.00589	  9.86546	  0.98588	  7.11896	 -0.48978	 11.07959	709.33899	 25.10	
 20.397	-145.903	  8.82780	 -0.79799	  9.56577	  0.59634	  7.64139	 -0.50572	 11.09905	709.51898	 25.10	
 20.392	-141.062	  8.81192	 -0.55746	  9.20046	  0.24131	  8.11034	 -0.50714	 11.08855	709.39697	 25.10	
 20.396	-136.227	  8.78928	 -0.28780	  8.79542	 -0.08886	  8.55465	 -0.51390	 11.07648	709.44800	 25.10	
 20.408	-131.372	  8.76232	  0.01320	  8.35330	 -0.39150	  8.96342	 -0.50627	 11.06659	709.36298	 25.00	
 20.410	-126.511	  8.76402	  0.35235	  7.90157	 -0.65001	  9.35467	 -0.50115	 11.08442	709.32098	 25.10	
 20.400	-121.604	  8.75500	  0.73264	  7.40489	 -0.86928	  9.69030	 -0.48882	 11.08281	709.41101	 25.00	
 20.403	-116.741	  8.73781	  1.13565	  6.88344	 -1.06048	  9.97900	 -0.46394	 11.08139	709.34100	 25.00	
 20.413	-111.900	  8.72660	  1.56774	  6.35344	 -1.22353	 10.23002	 -0.44342	 11.08400	709.40503	 25.10	
 20.398	-107.004	  8.72001	  2.03415	  5.80561	 -1.35054	 10.43026	 -0.40837	 11.08697	709.25897	 25.10	
 20.394	-102.132	  8.69585	  2.51334	  5.23700	 -1.44217	 10.56019	 -0.37532	 11.07179	709.49298	 25.10	
 20.403	-97.332	  8.70029	  3.01687	  4.69664	 -1.50501	 10.67264	 -0.35337	 11.08595	709.43103	 25.00	
 20.392	-92.440	  8.69642	  3.54630	  4.14286	 -1.53045	 10.71880	 -0.34426	 11.08171	709.30798	 25.10	
 20.392	-87.560	  8.68983	  4.08882	  3.59346	 -1.52781	 10.71652	 -0.33096	 11.07101	709.38800	 25.00	
 20.403	-82.668	  8.67044	  4.63094	  3.05401	 -1.49247	 10.65913	 -0.32261	 11.05605	709.34601	 25.10	
 20.394	-77.868	  8.69281	  5.18967	  2.56439	 -1.42387	 10.59094	 -0.30935	 11.08229	709.27600	 25.10	
 20.398	-72.996	  8.69304	  5.74428	  2.06898	 -1.32512	 10.44948	 -0.30122	 11.08119	709.33899	 25.00	
 20.413	-68.100	  8.69751	  6.30170	  1.59599	 -1.20376	 10.26372	 -0.30461	 11.08649	709.26001	 25.00	
 20.403	-63.259	  8.69054	  6.82750	  1.16623	 -1.03371	 10.00662	 -0.31653	 11.06859	709.26801	 25.00	
 20.400	-58.396	  8.70069	  7.35676	  0.75818	 -0.84100	  9.73089	 -0.31630	 11.08734	709.26703	 25.10	
 20.410	-53.489	  8.68925	  7.85155	  0.37882	 -0.61612	  9.39039	 -0.32620	 11.07446	709.34100	 25.00	
 20.408	-48.628	  8.67332	  8.30695	  0.03418	 -0.35604	  9.00201	 -0.33552	 11.05764	709.34601	 25.10	
 20.396	-43.773	  8.68408	  8.75123	 -0.26920	 -0.05727	  8.59473	 -0.34599	 11.07012	709.29102	 25.10	
 20.392	-38.938	  8.69214	  9.15888	 -0.53453	  0.27600	  8.15189	 -0.35353	 11.07517	709.40302	 25.10	
 20.397	-34.097	  8.69121	  9.52683	 -0.78322	  0.63051	  7.68176	 -0.35878	 11.08487	709.34900	 25.10	
 20.405	-29.165	  8.67041	  9.83367	 -0.99290	  1.02319	  7.16369	 -0.36126	 11.07017	709.26202	 25.10	
 20.401	-24.295	  8.67391	 10.11479	 -1.16318	  1.45824	  6.63822	 -0.36484	 11.08132	709.26801	 25.10	
 20.392	-19.504	  8.66843	 10.33086	 -1.30000	  1.90471	  6.10446	 -0.35757	 11.07892	709.24298	 25.10	
 20.410	-14.577	  8.65952	 10.51060	 -1.42053	  2.37946	  5.55358	 -0.35252	 11.07880	709.33301	 25.10	
 20.407	 -9.736	  8.66485	 10.64773	 -1.50127	  2.87927	  5.00452	 -0.34492	 11.09881	709.26300	 25.10	
 20.401	 -4.847	  8.64694	 10.70434	 -1.54499	  3.39749	  4.44336	 -0.33100	 11.07774	709.24597	 25.10	
 20.400	  0.000	  8.63681	 10.72238	 -1.56086	  3.91873	  3.90341	 -0.32436	 11.07581	709.30701	 25.10	
 20.401	  4.847	  8.63877	 10.71331	 -1.54795	  4.46721	  3.36894	 -0.32228	 11.08575	709.29797	 25.10	
 20.407	  9.736	  8.62513	 10.63603	 -1.50258	  5.00436	  2.85318	 -0.32588	 11.07034	709.19202	 25.10	
 20.410	 14.577	  8.62702	 10.52945	 -1.43155	  5.54988	  2.36024	 -0.32931	 11.07937	709.20398	 25.10	
 20.392	 19.504	  8.66278	 10.39405	 -1.31456	  6.13269	  1.89169	 -0.33591	 11.11740	709.21399	 25.10	
 20.401	 24.295	  8.63097	 10.14390	 -1.17561	  6.62838	  1.44807	 -0.33789	 11.07104	709.35303	 25.10	
 20.405	 29.165	  8.61987	  9.87080	 -1.01191	  7.14159	  1.02458	 -0.35552	 11.05624	709.17200	 25.10	
 20.397	 34.097	  8.63410	  9.57017	 -0.80816	  7.66426	  0.62820	 -0.37958	 11.07471	709.33301	 25.10	
 20.392	 38.938	  8.62963	  9.21166	 -0.56838	  8.13035	  0.27299	 -0.40905	 11.06123	709.20801	 25.10	
 20.396	 43.773	  8.64254	  8.83188	 -0.30666	  8.58083	 -0.05050	 -0.43845	 11.07218	709.31500	 25.10	
 20.408	 48.628	  8.64656	  8.41148	 -0.01176	  9.00179	 -0.34799	 -0.46208	 11.08010	709.37201	 25.10	
 20.410	 53.489	  8.63736	  7.93968	  0.31784	  9.37404	 -0.61597	 -0.48716	 11.07069	709.32898	 25.10	
 20.400	 58.396	  8.64855	  7.45066	  0.68699	  9.71196	 -0.83952	 -0.50819	 11.07411	709.28998	 25.10	
 20.403	 63.259	  8.65498	  6.94095	  1.09052	 10.00044	 -1.02413	 -0.52102	 11.06826	709.30701	 25.10	
 20.413	 68.100	  8.65197	  6.41123	  1.51444	 10.23473	 -1.18373	 -0.52253	 11.06479	709.45898	 25.10	
 20.398	 72.996	  8.67045	  5.87469	  1.97853	 10.44467	 -1.30802	 -0.50964	 11.08414	709.34399	 25.10	
 20.394	 77.868	  8.68270	  5.32659	  2.47180	 10.59793	 -1.40345	 -0.49965	 11.09392	709.36401	 25.10	
 20.403	 82.668	  8.66756	  4.77233	  2.95532	 10.67412	 -1.46991	 -0.48404	 11.07588	709.29303	 25.10	
 20.392	 87.560	  8.67807	  4.22718	  3.48834	 10.71931	 -1.49288	 -0.46213	 11.07361	709.46698	 25.10	
 20.392	 92.440	  8.68312	  3.68213	  4.03029	 10.71558	 -1.49202	 -0.44425	 11.06934	709.51801	 25.10	
 20.403	 97.332	  8.70901	  3.15848	  4.58993	 10.69909	 -1.46840	 -0.44197	 11.10089	709.41699	 25.10	
 20.394	102.132	  8.70026	  2.65339	  5.13271	 10.58977	 -1.40502	 -0.44916	 11.07943	709.38397	 25.10	
 20.398	107.004	  8.70947	  2.15882	  5.68910	 10.45080	 -1.31072	 -0.46577	 11.08391	709.31598	 25.10	
 20.413	111.900	  8.71010	  1.68898	  6.23536	 10.25803	 -1.18753	 -0.48801	 11.07983	709.33002	 25.10	
 20.403	116.741	  8.70124	  1.25065	  6.75705	 10.00488	 -1.04224	 -0.51456	 11.06451	709.33197	 25.10	
 20.400	121.604	  8.71716	  0.84160	  7.28488	  9.73107	 -0.85530	 -0.53305	 11.07397	709.30701	 25.10	
 20.410	126.511	  8.71681	  0.45573	  7.78256	  9.38858	 -0.63551	 -0.55537	 11.07060	709.50702	 25.10	
 20.408	131.372	  8.74802	  0.11067	  8.27505	  9.02976	 -0.37736	 -0.57975	 11.09211	709.35498	 25.10	
 20.396	136.227	  8.75834	 -0.19199	  8.71738	  8.60907	 -0.07418	 -0.59041	 11.09139	709.37500	 25.10	
 20.392	141.062	  8.75993	 -0.47310	  9.11735	  8.16138	  0.23989	 -0.59654	 11.08735	709.37201	 25.10	
 20.397	145.903	  8.75491	 -0.71417	  9.46739	  7.67536	  0.58915	 -0.60857	 11.07341	709.45898	 25.10	
 20.405	150.835	  8.75641	 -0.92327	  9.78869	  7.15421	  0.98629	 -0.61607	 11.06473	709.38098	 25.10	
 20.401	155.705	  8.76636	 -1.10645	 10.06585	  6.62977	  1.39622	 -0.58843	 11.06914	709.27899	 25.10	
 20.392	160.496	  8.77375	 -1.24495	 10.28075	  6.10153	  1.83433	 -0.58804	 11.06660	709.37701	 25.10	
 20.410	165.423	  8.80143	 -1.36008	 10.48407	  5.55560	  2.32226	 -0.56764	 11.08871	709.37500	 25.10	
 20.407	170.264	  8.80188	 -1.44669	 10.60716	  5.00025	  2.81284	 -0.55020	 11.08559	709.32501	 25.10	
 20.401	175.153	  8.80933	 -1.48956	 10.67959	  4.45190	  3.32674	 -0.53223	 11.08228	709.48999	 25.10	
  0.141	 45.000	 11.10278	  5.99406	  5.88244	  6.02086	  5.93534	  0.08404	 11.08577	709.24200	 25.10	
  4.001	128.691	 11.05400	  5.02496	  6.61202	  6.91588	  4.84230	  0.03978	 11.06919	709.31500	 25.10	
  4.002	 76.995	 11.05667	  6.13549	  5.46844	  7.18792	  4.62206	  0.03708	 11.07187	709.46997	 25.10	
  4.002	 25.892	 11.07528	  7.07667	  4.64650	  6.46757	  5.26639	  0.03620	 11.09404	709.36102	 25.10	
  4.002	-25.892	 11.08471	  7.07689	  4.66499	  5.31731	  6.42777	  0.01740	 11.10623	709.44000	 25.10	
  4.002	-76.995	 11.07428	  6.12856	  5.49765	  4.66131	  7.16679	  0.00143	 11.09431	709.41901	 25.10	
  4.001	-128.691	 11.05544	  5.00927	  6.63221	  4.87542	  6.87285	  0.02775	 11.06577	709.51001	 25.10	
  4.000	180.000	 11.05963	  4.57591	  7.15135	  5.84858	  5.81785	  0.04136	 11.06939	709.39697	 25.10	
  8.000	180.000	 10.87258	  3.07248	  8.32774	  5.60243	  5.57227	 -0.11119	 11.07578	709.45001	 25.10	
  7.991	-152.370	 10.88141	  3.32381	  8.01380	  4.40215	  6.83369	 -0.10017	 11.07611	709.41901	 25.10	
  7.997	-124.550	 10.86589	  4.09116	  7.11763	  3.51419	  7.86390	 -0.12847	 11.08734	709.43903	 25.10	
  8.006	-96.837	 10.81426	  5.22609	  5.86390	  3.10840	  8.33333	 -0.17335	 11.05618	709.54602	 25.10	
  7.988	-69.228	 10.84423	  6.53509	  4.62411	  3.26665	  8.19333	 -0.18820	 11.09007	709.42603	 25.10	
  7.997	-41.563	 10.83181	  7.64735	  3.63024	  3.91457	  7.41754	 -0.16838	 11.08054	709.47900	 25.10	
  8.008	-13.821	 10.79982	  8.27456	  3.08174	  4.98710	  6.20852	 -0.12942	 11.05279	709.32202	 25.10	
  8.008	 13.821	 10.81293	  8.28775	  3.07162	  6.26686	  4.93642	 -0.11895	 11.06222	709.48499	 25.20	
  7.997	 41.563	 10.82709	  7.66396	  3.59505	  7.44020	  3.87857	 -0.10470	 11.06865	709.47400	 25.10	
  7.988	 69.228	 10.81894	  6.55925	  4.56603	  8.20146	  3.22864	 -0.10971	 11.05751	709.46997	 25.20	
  8.006	 96.837	 10.83251	  5.28912	  5.81902	  8.38200	  3.09416	 -0.14426	 11.07803	709.41199	 25.20	
  7.997	124.550	 10.82150	  4.13218	  7.05013	  7.88463	  3.48494	 -0.13394	 11.05748	709.51001	 25.20	
  7.991	152.370	 10.85990	  3.35793	  7.98709	  6.87227	  4.37833	 -0.09930	 11.07913	709.42499	 25.20	
 12.009	161.059	 10.40185	  1.69262	  9.06146	  6.50024	  3.90318	 -0.29610	 11.05754	709.38599	 25.20	
 12.013	142.081	 10.38571	  2.23743	  8.38041	  7.73067	  2.82756	 -0.33043	 11.06781	709.40198	 25.20	
 12.006	123.113	 10.37805	  3.11504	  7.33847	  8.68149	  2.06253	 -0.36792	 11.07336	709.51898	 25.20	
 12.007	104.200	 10.35648	  4.24351	  6.06535	  9.23920	  1.61542	 -0.40043	 11.06074	709.30499	 25.20	
 11.989	 85.301	 10.37740	  5.54497	  4.76146	  9.36815	  1.54446	 -0.37474	 11.08507	709.39203	 25.20	
 12.013	 66.294	 10.35170	  6.83665	  3.52890	  9.00404	  1.81080	 -0.29875	 11.06011	709.27698	 25.20	
 12.012	 47.388	 10.34692	  7.99296	  2.53708	  8.23558	  2.43065	 -0.28865	 11.06052	709.27899	 25.20	
 11.990	 28.440	 10.36164	  8.86450	  1.85027	  7.16726	  3.35902	 -0.30585	 11.08600	709.40900	 25.20	
 11.991	  9.464	 10.33627	  9.29380	  1.50056	  5.88019	  4.52057	 -0.32137	 11.06322	709.41498	 25.20	
 11.991	 -9.464	 10.34387	  9.29162	  1.50806	  4.57873	  5.82863	 -0.32635	 11.06668	709.45398	 25.20	
 11.990	-28.440	 10.35097	  8.83031	  1.86746	  3.38734	  7.12407	 -0.32912	 11.07250	709.43597	 25.20	
 12.012	-47.388	 10.36761	  7.96972	  2.57175	  2.44866	  8.23031	 -0.36996	 11.07880	709.46399	 25.20	
 12.013	-66.294	 10.38495	  6.80655	  3.58817	  1.81616	  9.01999	 -0.39783	 11.10162	709.48798	 25.20	
 11.989	-85.301	 10.36306	  5.47290	  4.82061	  1.54964	  9.32898	 -0.40327	 11.06625	709.32501	 25.20	
 12.007	-104.200	 10.39127	  4.18346	  6.15427	  1.62320	  9.23682	 -0.36870	 11.09076	709.44800	 25.20	
 12.006	-123.113	 10.38456	  3.04508	  7.38679	  2.05721	  8.63953	 -0.31634	 11.05237	709.40002	 25.20	
 12.013	-142.081	 10.44928	  2.19554	  8.44214	  2.85792	  7.70320	 -0.30933	 11.08139	709.50201	 25.20	
 12.009	-161.059	 10.43062	  1.66289	  9.08434	  3.92036	  6.46751	 -0.30402	 11.05467	709.51898	 25.20	
 16.000	180.000	  9.78407	 -0.00440	 10.10845	  4.64632	  4.61376	 -0.50689	 11.08605	709.46503	 25.20	
 15.990	-165.604	  9.78157	  0.09934	  9.93594	  3.37950	  5.91560	 -0.49377	 11.07510	709.40198	 25.20	
 16.002	-151.165	  9.77747	  0.46352	  9.42419	  2.25087	  7.19463	 -0.48522	 11.06853	709.58099	 25.20	
 16.002	-136.836	  9.73032	  1.07188	  8.57665	  1.31606	  8.31454	 -0.46396	 11.04285	709.34698	 25.20	
 15.995	-122.439	  9.71978	  1.93814	  7.51037	  0.64009	  9.22862	 -0.45065	 11.06354	709.52600	 25.20	
 15.993	-107.966	  9.68711	  3.01466	  6.24865	  0.19319	  9.84250	 -0.46426	 11.06926	709.48798	 25.20	
 16.005	-93.629	  9.67417	  4.24202	  4.93277	  0.00151	 10.11765	 -0.43649	 11.07427	709.45898	 25.20	
 15.992	-79.234	  9.66370	  5.55905	  3.64122	  0.07410	 10.03457	 -0.40339	 11.06907	709.53302	 25.20	
 16.009	-64.774	  9.68255	  6.87962	  2.47703	  0.39663	  9.62310	 -0.39735	 11.08961	709.34100	 25.20	
 15.997	-50.364	  9.65241	  8.04358	  1.49579	  0.97758	  8.83015	 -0.40595	 11.04929	709.26300	 25.20	
 15.997	-36.045	  9.67126	  9.04208	  0.75003	  1.79076	  7.82805	 -0.41028	 11.07418	709.35498	 25.20	
 16.000	-21.597	  9.65303	  9.72583	  0.24736	  2.82215	  6.60181	 -0.41487	 11.06962	709.44800	 25.20	
 16.003	 -7.169	  9.63763	 10.07586	 -0.00711	  4.02779	  5.27854	 -0.41024	 11.06338	709.45599	 25.20	
 16.003	  7.169	  9.62931	 10.08242	 -0.00843	  5.31522	  3.98715	 -0.40741	 11.06220	709.48499	 25.20	
 16.000	 21.597	  9.63646	  9.74956	  0.23366	  6.62024	  2.79776	 -0.41158	 11.06976	709.53802	 25.20	
 15.997	 36.045	  9.66153	  9.09619	  0.72114	  7.84381	  1.78526	 -0.42375	 11.08699	709.46503	 25.20	
 15.997	 50.364	  9.66329	  8.13345	  1.44621	  8.86672	  0.96964	 -0.43676	 11.08023	709.44000	 25.20	
 16.009	 64.774	  9.66840	  6.96078	  2.40208	  9.61914	  0.40682	 -0.45872	 11.08083	709.46698	 25.20	
 15.992	 79.234	  9.66779	  5.65879	  3.55656	 10.04922	  0.08806	 -0.52274	 11.07406	709.48700	 25.20	
 16.005	 93.629	  9.67211	  4.34472	  4.83923	 10.13870	  0.02196	 -0.55164	 11.07668	709.38397	 25.20	
 15.993	107.966	  9.69799	  3.11933	  6.16838	  9.88902	  0.21043	 -0.55569	 11.08932	709.40198	 25.20	
 15.995	122.439	  9.67979	  2.02783	  7.41444	  9.25607	  0.64461	 -0.55080	 11.05174	709.35999	 25.20	
 16.002	136.836	  9.70764	  1.15684	  8.52209	  8.37366	  1.32148	 -0.53036	 11.06888	709.41699	 25.20	
 16.002	151.165	  9.71220	  0.52396	  9.35140	  7.23183	  2.22899	 -0.50098	 11.04557	709.33801	 25.20	
 15.990	165.604	  9.74987	  0.14233	  9.89861	  5.95439	  3.35681	 -0.49108	 11.06034	709.55200	 25.20	
 20.003	168.362	  8.88703	 -1.27202	 10.50451	  5.25936	  2.71482	 -0.55963	 11.06684	709.34698	 25.20	
 20.008	156.764	  8.86383	 -1.00783	 10.08400	  6.54448	  1.60201	 -0.59004	 11.06696	709.39502	 25.20	
 20.000	145.147	  8.86207	 -0.55333	  9.40707	  7.76958	  0.64883	 -0.60547	 11.09016	709.44000	 25.20	
 19.995	133.545	  8.85323	  0.09798	  8.47423	  8.83227	 -0.11369	 -0.57815	 11.09340	709.37201	 25.20	
 20.009	121.926	  8.80435	  0.92400	  7.33112	  9.67500	 -0.71211	 -0.53917	 11.06921	709.45099	 25.20	
 20.005	110.327	  8.81846	  1.94150	  6.10674	 10.29686	 -1.09727	 -0.49125	 11.09415	709.46198	 25.20	
 19.989	 98.733	  8.78624	  3.08917	  4.80298	 10.59351	 -1.29888	 -0.45976	 11.05394	709.46698	 25.20	
 19.999	 87.075	  8.78404	  4.34991	  3.52357	 10.67261	 -1.34851	 -0.47578	 11.07189	709.38898	 25.20	
 19.992	 75.457	  8.78563	  5.64478	  2.33174	 10.48004	 -1.20666	 -0.52083	 11.08314	709.34900	 25.20	
 20.009	 63.844	  8.75101	  6.89151	  1.25964	  9.98654	 -0.89986	 -0.51833	 11.06279	709.46503	 25.20	
 19.989	 52.269	  8.75403	  8.06414	  0.36831	  9.26208	 -0.39844	 -0.48226	 11.07463	709.58502	 25.20	
 19.999	 40.602	  8.73728	  9.06752	 -0.35318	  8.28630	  0.28303	 -0.42361	 11.06444	709.35999	 25.20	
 20.004	 29.051	  8.72852	  9.85289	 -0.87685	  7.15237	  1.15109	 -0.36038	 11.06539	709.41998	 25.20	
 20.005	 17.433	  8.72695	 10.38749	 -1.22646	  5.91691	  2.17776	 -0.33597	 11.06890	709.38800	 25.20	
 20.006	  5.780	  8.73152	 10.65428	 -1.40297	  4.63434	  3.34802	 -0.33089	 11.07663	709.42798	 25.20	
 20.006	 -5.780	  8.73839	 10.64137	 -1.39757	  3.37939	  4.60585	 -0.33956	 11.07108	709.32898	 25.30	
 20.005	-17.433	  8.76167	 10.37230	 -1.21743	  2.19790	  5.91495	 -0.36098	 11.07725	709.37201	 25.30	
 20.004	-29.051	  8.77810	  9.82063	 -0.86099	  1.15359	  7.17190	 -0.37153	 11.08019	709.44800	 25.30	
 19.999	-40.602	  8.78506	  9.00468	 -0.31672	  0.29015	  8.29450	 -0.35383	 11.06243	709.37500	 25.30	
 19.989	-52.269	  8.79190	  7.97782	  0.41161	 -0.41479	  9.27703	 -0.33851	 11.07259	709.41699	 25.30	
 20.009	-63.844	  8.80490	  6.80468	  1.33104	 -0.91589	 10.01615	 -0.30975	 11.08812	709.46698	 25.30	
 19.992	-75.457	  8.80620	  5.53017	  2.41386	 -1.22856	 10.48399	 -0.31183	 11.08735	709.52899	 25.30	
 19.999	-87.075	  8.79888	  4.22778	  3.61684	 -1.37433	 10.67093	 -0.32607	 11.07749	709.34601	 25.30	
 19.989	-98.733	  8.80642	  2.96901	  4.91306	 -1.33810	 10.60220	 -0.36834	 11.08137	709.40198	 25.30	
 20.005	-110.327	  8.80238	  1.81893	  6.19274	 -1.12417	 10.23415	 -0.43836	 11.05504	709.36700	 25.30	
 20.009	-121.926	  8.86179	  0.82905	  7.45340	 -0.72514	  9.65589	 -0.49391	 11.09292	709.28998	 25.30	
 19.995	-133.545	  8.88241	  0.01124	  8.55119	 -0.12692	  8.78146	 -0.50615	 11.07912	709.27899	 25.30	
 20.000	-145.147	  8.89909	 -0.61993	  9.45511	  0.65798	  7.70469	 -0.50685	 11.06522	709.41699	 25.30	
 20.008	-156.764	  8.90059	 -1.06445	 10.12661	  1.62090	  6.48854	 -0.48837	 11.05939	709.41901	 25.30	
 20.003	-168.362	  8.91477	 -1.30899	 10.53677	  2.73949	  5.22134	 -0.49151	 11.07769	709.37000	 25.30	
 20.000	180.000	  8.88843	 -1.37566	 10.63892	  3.96463	  3.92969	 -0.51997	 11.05715	709.33002	 25.30	
