FileType=PCF
NHL=14
Date=08/27/17	13:30:02
Facility=APL
Serial=16328-9
Customer=NASA
NP=6
Mach=0.200000
Calibration=1:1
CalPts=490
TstPts=95
PortNumbering=AP Standard
Units=Torr C m/s kg/m^3 deg mm 
Theta[deg]	Phi[deg]	P1[Torr]	P2[Torr]	P3[Torr]	P4[Torr]	P5[Torr]	P6[Torr]	Pt[Torr]	Ps[Abs,Torr]	Ts[C]	
  0.000	  0.000	 19.47222	 10.43025	 10.32973	 10.49688	 10.38612	  0.15981	 19.44586	709.68402	 25.50	
  1.691	128.401	 19.44063	  9.81526	 10.87365	 11.18924	  9.61213	  0.15760	 19.41788	709.58502	 25.50	
  1.692	 77.194	 19.46932	 10.62828	 10.06309	 11.42771	  9.42301	  0.15055	 19.45444	709.48102	 25.50	
  1.699	 26.182	 19.45961	 11.27272	  9.44228	 10.88233	  9.91927	  0.15150	 19.43385	709.46997	 25.50	
  1.699	-26.182	 19.45828	 11.26091	  9.45050	 10.05275	 10.72737	  0.13819	 19.43238	709.58002	 25.50	
  1.692	-77.194	 19.46705	 10.57993	 10.10757	  9.56242	 11.26256	  0.12922	 19.44898	709.53601	 25.50	
  1.691	-128.401	 19.45147	  9.78550	 10.90069	  9.70507	 11.10508	  0.14002	 19.42327	709.49799	 25.50	
  1.700	180.000	 19.47451	  9.47266	 11.25043	 10.44857	 10.37423	  0.14572	 19.45272	709.40900	 25.50	
  3.400	180.000	 19.42159	  8.40042	 12.19123	 10.30690	 10.21626	  0.10456	 19.42031	709.56598	 25.50	
  3.388	-152.325	 19.45003	  8.61688	 11.97565	  9.43484	 11.16360	  0.09953	 19.44945	709.41199	 25.50	
  3.397	-124.529	 19.41952	  9.17897	 11.33005	  8.80390	 11.88520	  0.09862	 19.42313	709.45599	 25.50	
  3.399	-96.763	 19.41516	 10.02353	 10.41837	  8.50508	 12.21388	  0.07087	 19.43052	709.41498	 25.50	
  3.394	-69.283	 19.45108	 10.98708	  9.51161	  8.62425	 12.10950	  0.05577	 19.46387	709.54102	 25.50	
  3.400	-41.398	 19.42303	 11.78244	  8.73813	  9.10597	 11.53351	  0.08193	 19.43195	709.43298	 25.50	
  3.401	-14.021	 19.40228	 12.24573	  8.35388	  9.87845	 10.71171	  0.09399	 19.41714	709.31799	 25.50	
  3.401	 14.021	 19.44517	 12.27520	  8.34522	 10.85686	  9.75984	  0.10496	 19.45412	709.44598	 25.50	
  3.400	 41.398	 19.43224	 11.81341	  8.71834	 11.68750	  8.97653	  0.10449	 19.44303	709.48499	 25.40	
  3.394	 69.283	 19.42091	 11.00351	  9.43592	 12.24397	  8.47394	  0.10544	 19.43059	709.47400	 25.40	
  3.399	 96.763	 19.43197	 10.07973	 10.35976	 12.36113	  8.37230	  0.09223	 19.44722	709.38397	 25.40	
  3.397	124.529	 19.42110	  9.20232	 11.27047	 11.99320	  8.67148	  0.08697	 19.43826	709.33899	 25.40	
  3.388	152.325	 19.39484	  8.60354	 11.92723	 11.22539	  9.32999	  0.10413	 19.40425	709.52899	 25.40	
  5.099	161.165	 19.33142	  7.42065	 12.93419	 11.14013	  9.10415	  0.01895	 19.42483	709.47803	 25.50	
  5.109	142.013	 19.32948	  7.85452	 12.43099	 12.06257	  8.26840	  0.01141	 19.42343	709.39398	 25.40	
  5.095	123.033	 19.31332	  8.53831	 11.64254	 12.74704	  7.67249	  0.00317	 19.41438	709.42297	 25.40	
  5.105	104.191	 19.32641	  9.41642	 10.71702	 13.19233	  7.31401	 -0.00401	 19.43123	709.34601	 25.40	
  5.093	 85.207	 19.32155	 10.40139	  9.70886	 13.27530	  7.24744	 -0.00162	 19.42628	709.48700	 25.40	
  5.104	 66.290	 19.32861	 11.37413	  8.76685	 13.03153	  7.45160	  0.00848	 19.42977	709.53497	 25.40	
  5.094	 47.331	 19.33959	 12.23861	  8.00321	 12.46887	  7.95075	  0.01801	 19.43447	709.39203	 25.40	
  5.089	 28.397	 19.33945	 12.86704	  7.46035	 11.66666	  8.67039	  0.01408	 19.43925	709.48199	 25.50	
  5.096	  9.576	 19.32591	 13.20071	  7.17923	 10.70963	  9.56860	  0.00362	 19.43627	709.53302	 25.40	
  5.096	 -9.576	 19.29462	 13.17944	  7.18765	  9.68208	 10.56549	 -0.01860	 19.41078	709.40002	 25.40	
  5.089	-28.397	 19.31993	 12.84260	  7.49071	  8.81048	 11.51304	 -0.03519	 19.43270	709.52899	 25.40	
  5.094	-47.331	 19.31651	 12.19580	  8.04923	  8.07943	 12.33250	 -0.05680	 19.42279	709.54602	 25.40	
  5.104	-66.290	 19.32023	 11.33378	  8.82819	  7.56376	 12.91905	 -0.07421	 19.42563	709.53601	 25.40	
  5.093	-85.207	 19.32468	 10.34532	  9.76499	  7.33980	 13.18057	 -0.07386	 19.43326	709.51801	 25.40	
  5.105	-104.191	 19.32688	  9.35271	 10.77278	  7.40626	 13.09664	 -0.06032	 19.43816	709.58301	 25.40	
  5.095	-123.033	 19.32558	  8.48190	 11.69312	  7.75141	 12.65635	 -0.03261	 19.41517	709.53302	 25.40	
  5.109	-142.013	 19.31647	  7.79566	 12.44661	  8.34989	 11.94122	 -0.01264	 19.39061	709.56598	 25.40	
  5.099	-161.165	 19.32891	  7.39125	 12.94344	  9.18002	 11.04160	  0.00618	 19.40701	709.57501	 25.40	
  5.100	180.000	 19.34558	  7.27167	 13.11211	 10.14138	 10.07333	  0.01003	 19.42363	709.58899	 25.40	
  6.800	180.000	 19.22273	  6.12532	 14.01971	  9.96449	  9.89231	 -0.10311	 19.44759	709.51898	 25.40	
  6.796	-166.229	 19.19939	  6.19752	 13.88305	  9.00536	 10.83665	 -0.09374	 19.40951	709.49298	 25.40	
  6.808	-152.311	 19.21686	  6.49271	 13.53820	  8.13558	 11.78308	 -0.09929	 19.42097	709.45398	 25.40	
  6.795	-138.383	 19.21072	  6.99646	 12.95832	  7.38448	 12.63514	 -0.13023	 19.43963	709.38599	 25.40	
  6.792	-124.591	 19.15229	  7.65226	 12.17126	  6.78252	 13.29044	 -0.15090	 19.39997	709.47400	 25.40	
  6.787	-110.754	 19.15499	  8.47736	 11.29108	  6.39883	 13.78158	 -0.18018	 19.42003	709.44299	 25.40	
  6.800	-96.985	 19.14188	  9.39107	 10.33043	  6.19540	 14.02591	 -0.21158	 19.41582	709.37701	 25.40	
  6.800	-83.015	 19.15652	 10.38803	  9.34675	  6.20718	 14.03697	 -0.22518	 19.42658	709.38599	 25.40	
  6.787	-69.246	 19.13415	 11.34091	  8.42288	  6.41896	 13.77499	 -0.22625	 19.41410	709.39697	 25.40	
  6.792	-55.409	 19.14621	 12.24680	  7.61271	  6.82332	 13.31675	 -0.22585	 19.42562	709.41101	 25.40	
  6.795	-41.617	 19.14621	 13.02013	  6.94375	  7.42322	 12.63962	 -0.19848	 19.42769	709.52899	 25.40	
  6.808	-27.689	 19.10740	 13.59323	  6.41124	  8.17070	 11.77319	 -0.16686	 19.39698	709.39203	 25.40	
  6.796	-13.771	 19.13072	 13.97482	  6.11043	  9.05634	 10.84905	 -0.14926	 19.41956	709.50702	 25.40	
  6.800	  0.000	 19.13685	 14.11276	  6.00099	 10.00867	  9.88665	 -0.13407	 19.43015	709.44800	 25.40	
  6.796	 13.771	 19.13527	 13.99199	  6.09035	 10.98180	  8.93099	 -0.11669	 19.41942	709.51898	 25.40	
  6.808	 27.689	 19.14594	 13.63715	  6.38058	 11.92401	  8.05329	 -0.10119	 19.43026	709.48999	 25.40	
  6.795	 41.617	 19.15805	 13.06459	  6.88065	 12.74904	  7.32307	 -0.10099	 19.44293	709.37799	 25.30	
  6.792	 55.409	 19.15192	 12.29672	  7.55089	 13.41804	  6.73510	 -0.11021	 19.43173	709.57202	 25.40	
  6.787	 69.246	 19.12879	 11.39225	  8.35026	 13.87779	  6.32791	 -0.11647	 19.40373	709.41901	 25.30	
  6.800	 83.015	 19.13603	 10.45070	  9.25841	 14.13321	  6.11314	 -0.13673	 19.41374	709.66101	 25.30	
  6.800	 96.985	 19.15158	  9.47330	 10.25484	 14.13662	  6.12569	 -0.15436	 19.43432	709.56702	 25.30	
  6.787	110.754	 19.15764	  8.55784	 11.21509	 13.88084	  6.34298	 -0.14534	 19.43605	709.62299	 25.30	
  6.792	124.591	 19.14164	  7.73454	 12.10342	 13.38788	  6.73981	 -0.14027	 19.42600	709.63898	 25.30	
  6.795	138.383	 19.16768	  7.06754	 12.87971	 12.70925	  7.33093	 -0.12765	 19.43354	709.54303	 25.30	
  6.808	152.311	 19.17588	  6.54483	 13.48847	 11.87526	  8.06568	 -0.10853	 19.43179	709.37201	 25.30	
  6.796	166.229	 19.20143	  6.24194	 13.87007	 10.94623	  8.94513	 -0.11008	 19.44045	709.48798	 25.30	
  8.491	168.704	 18.96227	  5.07416	 14.69317	 10.71921	  8.67232	 -0.25189	 19.41593	709.41699	 25.30	
  8.502	157.493	 18.97904	  5.33889	 14.40920	 11.69891	  7.78756	 -0.23850	 19.45447	709.40302	 25.30	
  8.494	146.194	 18.93794	  5.75405	 13.88076	 12.58729	  6.96844	 -0.26199	 19.43545	709.48798	 25.30	
  8.495	135.039	 18.93155	  6.31699	 13.21953	 13.39660	  6.26457	 -0.29608	 19.43840	709.56702	 25.30	
  8.487	123.723	 18.90899	  7.02977	 12.38560	 14.05973	  5.70494	 -0.31160	 19.42658	709.61200	 25.30	
  8.492	112.575	 18.88435	  7.83968	 11.47803	 14.53981	  5.29508	 -0.31607	 19.40710	709.50201	 25.30	
  8.510	101.220	 18.89360	  8.76107	 10.50379	 14.86558	  5.04286	 -0.32638	 19.41576	709.46399	 25.30	
  8.500	 90.000	 18.87839	  9.71902	  9.51007	 14.94882	  4.97201	 -0.31399	 19.40498	709.43103	 25.30	
  8.510	 78.780	 18.89035	 10.71551	  8.54453	 14.86124	  5.05149	 -0.28777	 19.41143	709.42798	 25.30	
  8.492	 67.425	 18.88121	 11.67802	  7.63136	 14.54343	  5.31492	 -0.26111	 19.39911	709.47400	 25.30	
  8.487	 56.277	 18.90409	 12.58130	  6.83310	 14.08297	  5.71612	 -0.24956	 19.43101	709.51202	 25.30	
  8.495	 44.961	 18.87643	 13.36667	  6.10953	 13.40701	  6.26217	 -0.24834	 19.40546	709.47101	 25.30	
  8.494	 33.806	 18.89084	 14.02866	  5.56621	 12.62850	  6.96469	 -0.25320	 19.42075	709.45398	 25.30	
  8.502	 22.507	 18.86777	 14.51599	  5.15769	 11.72892	  7.76716	 -0.25613	 19.40859	709.63098	 25.30	
  8.491	 11.296	 18.86786	 14.80667	  4.93036	 10.76888	  8.67032	 -0.28389	 19.40360	709.36700	 25.30	
  8.500	  0.000	 18.88497	 14.91960	  4.85582	  9.77906	  9.65394	 -0.29339	 19.43115	709.48499	 25.30	
  8.491	-11.296	 18.85778	 14.79200	  4.94165	  8.79623	 10.63114	 -0.29831	 19.40302	709.42798	 25.30	
  8.502	-22.507	 18.85723	 14.48651	  5.18968	  7.88544	 11.59154	 -0.30536	 19.40430	709.44202	 25.30	
  8.494	-33.806	 18.87569	 13.99381	  5.61822	  7.05763	 12.52070	 -0.33492	 19.41353	709.62201	 25.30	
  8.495	-44.961	 18.87663	 13.33292	  6.17517	  6.35499	 13.31796	 -0.36933	 19.41225	709.58502	 25.30	
  8.487	-56.277	 18.87193	 12.50499	  6.88786	  5.79916	 13.95663	 -0.39596	 19.39604	709.58801	 25.30	
  8.492	-67.425	 18.91758	 11.63816	  7.71504	  5.39794	 14.48338	 -0.41393	 19.44374	709.47302	 25.30	
  8.510	-78.780	 18.86202	 10.63155	  8.61002	  5.11579	 14.75305	 -0.41678	 19.38678	709.46503	 25.30	
  8.500	-90.000	 18.89165	  9.64332	  9.59838	  5.03025	 14.87131	 -0.40946	 19.40810	709.47400	 25.30	
  8.510	-101.220	 18.89821	  8.66879	 10.59626	  5.09538	 14.77853	 -0.37243	 19.41780	709.46503	 25.30	
  8.492	-112.575	 18.90490	  7.74822	 11.56933	  5.34981	 14.44958	 -0.32682	 19.40551	709.47803	 25.30	
  8.487	-123.723	 18.93895	  6.94279	 12.46430	  5.75630	 13.97371	 -0.31349	 19.41903	709.51501	 25.30	
  8.495	-135.039	 18.97229	  6.24103	 13.27544	  6.30369	 13.32884	 -0.29997	 19.43044	709.55798	 25.30	
  8.494	-146.194	 18.96080	  5.67446	 13.91359	  7.00148	 12.50776	 -0.26952	 19.40388	709.43597	 25.30	
  8.502	-157.493	 18.99100	  5.26996	 14.41928	  7.83646	 11.60516	 -0.25269	 19.41636	709.52698	 25.30	
  8.491	-168.704	 18.99163	  5.04670	 14.71387	  8.74378	 10.65206	 -0.25836	 19.42663	709.53003	 25.30	
  8.500	180.000	 18.97924	  4.96298	 14.81432	  9.71437	  9.66771	 -0.27589	 19.43507	709.59998	 25.30	
 10.200	180.000	 18.65826	  3.80108	 15.55241	  9.41690	  9.36878	 -0.43288	 19.41625	709.59198	 25.30	
 10.191	-170.497	 18.67513	  3.84997	 15.48104	  8.44317	 10.35668	 -0.41654	 19.40156	709.57202	 25.30	
 10.210	-161.034	 18.68553	  4.03967	 15.23527	  7.51142	 11.33886	 -0.39404	 19.41100	709.62201	 25.30	
 10.194	-151.526	 18.68896	  4.39702	 14.81916	  6.64245	 12.29970	 -0.40437	 19.41457	709.55200	 25.20	
 10.190	-142.105	 18.67207	  4.86202	 14.24094	  5.87608	 13.16789	 -0.42428	 19.41820	709.54602	 25.20	
 10.215	-132.646	 18.61765	  5.43925	 13.52546	  5.20548	 13.92068	 -0.44427	 19.38621	709.61200	 25.20	
 10.203	-123.092	 18.62246	  6.16343	 12.70789	  4.67020	 14.59276	 -0.44554	 19.41225	709.58899	 25.20	
 10.192	-113.678	 18.60784	  6.99085	 11.79861	  4.26416	 15.09577	 -0.47694	 19.42433	709.56897	 25.20	
 10.208	-104.249	 18.57733	  7.87821	 10.83304	  3.97483	 15.44773	 -0.52516	 19.41133	709.49500	 25.20	
 10.210	-94.801	 18.56228	  8.82943	  9.82963	  3.83590	 15.63013	 -0.57003	 19.41164	709.59900	 25.20	
 10.210	-85.199	 18.55374	  9.84424	  8.80949	  3.84262	 15.63002	 -0.59115	 19.40988	709.69000	 25.20	
 10.208	-75.751	 18.54926	 10.83943	  7.85042	  3.99486	 15.45118	 -0.59553	 19.40536	709.54303	 25.20	
 10.192	-66.322	 18.55399	 11.81454	  6.96114	  4.29321	 15.10117	 -0.58269	 19.40122	709.55701	 25.20	
 10.203	-56.908	 18.55804	 12.73761	  6.13421	  4.71023	 14.60116	 -0.56726	 19.41453	709.71002	 25.20	
 10.215	-47.354	 18.56936	 13.59339	  5.40688	  5.26370	 13.96746	 -0.54011	 19.42746	709.52698	 25.20	
 10.190	-37.895	 18.54824	 14.28634	  4.80525	  5.92172	 13.17705	 -0.50474	 19.40966	709.44000	 25.20	
 10.194	-28.474	 18.55232	 14.87689	  4.32447	  6.69969	 12.31076	 -0.47133	 19.41642	709.51898	 25.20	
 10.210	-18.966	 18.54237	 15.31070	  3.96533	  7.57563	 11.35261	 -0.45130	 19.41851	709.47302	 25.20	
 10.191	 -9.503	 18.55157	 15.58093	  3.76212	  8.51047	 10.37775	 -0.45423	 19.42162	709.41901	 25.20	
 10.200	  0.000	 18.51950	 15.65012	  3.67355	  9.46992	  9.36263	 -0.45667	 19.39836	709.58002	 25.20	
 10.191	  9.503	 18.52736	 15.57965	  3.73485	 10.48455	  8.37830	 -0.45256	 19.39241	709.60602	 25.20	
 10.210	 18.966	 18.53940	 15.34392	  3.92376	 11.46301	  7.45686	 -0.43392	 19.40984	709.66199	 25.20	
 10.194	 28.474	 18.53266	 14.90179	  4.26373	 12.39040	  6.61133	 -0.41817	 19.39892	709.45697	 25.20	
 10.190	 37.895	 18.55210	 14.34167	  4.73863	 13.27042	  5.85075	 -0.41707	 19.41854	709.56000	 25.20	
 10.215	 47.354	 18.54007	 13.62967	  5.30931	 14.03806	  5.17216	 -0.41211	 19.40508	709.54901	 25.20	
 10.203	 56.908	 18.56883	 12.82428	  6.04358	 14.68899	  4.65876	 -0.40065	 19.42874	709.62500	 25.20	
 10.192	 66.322	 18.55276	 11.90316	  6.85438	 15.15926	  4.25684	 -0.41662	 19.40386	709.69501	 25.20	
 10.208	 75.751	 18.55254	 10.94579	  7.73901	 15.51231	  3.96166	 -0.46238	 19.40697	709.72998	 25.20	
 10.210	 85.199	 18.57476	  9.96518	  8.70314	 15.70596	  3.81774	 -0.50824	 19.42777	709.74902	 25.20	
 10.210	 94.801	 18.57590	  8.95189	  9.71614	 15.69738	  3.82660	 -0.53676	 19.42931	709.73798	 25.20	
 10.208	104.249	 18.56675	  7.99213	 10.71204	 15.50980	  3.96071	 -0.53414	 19.41282	709.67902	 25.20	
 10.192	113.678	 18.58962	  7.10669	 11.68980	 15.17259	  4.24961	 -0.52019	 19.43437	709.62000	 25.20	
 10.203	123.092	 18.59931	  6.28098	 12.60948	 14.67634	  4.64743	 -0.51002	 19.43409	709.57397	 25.20	
 10.215	132.646	 18.59340	  5.53858	 13.44334	 14.02574	  5.16818	 -0.49519	 19.42021	709.56897	 25.20	
 10.190	142.105	 18.61003	  4.94122	 14.16736	 13.24372	  5.84195	 -0.45680	 19.42545	709.53802	 25.20	
 10.194	151.526	 18.63223	  4.46657	 14.74950	 12.36432	  6.61968	 -0.41943	 19.42266	709.50500	 25.20	
 10.210	161.034	 18.62131	  4.09648	 15.17942	 11.40654	  7.46003	 -0.41131	 19.40218	709.49799	 25.20	
 10.191	170.497	 18.68617	  3.90067	 15.47886	 10.45712	  8.39978	 -0.43421	 19.45453	709.54999	 25.20	
 11.899	171.783	 18.27617	  2.69762	 16.16876	 10.10531	  8.04580	 -0.58910	 19.41141	709.55200	 25.20	
 11.890	163.610	 18.26454	  2.88547	 15.93603	 11.09615	  7.12549	 -0.56921	 19.41380	709.47302	 25.20	
 11.889	155.445	 18.25930	  3.19181	 15.56249	 12.06788	  6.24903	 -0.56120	 19.43266	709.48102	 25.20	
 11.909	147.299	 18.21827	  3.59054	 15.02905	 12.97972	  5.41766	 -0.60519	 19.41677	709.45398	 25.20	
 11.902	139.148	 18.20309	  4.12228	 14.37851	 13.81539	  4.70438	 -0.63552	 19.41158	709.44598	 25.20	
 11.894	130.867	 18.21698	  4.77324	 13.62679	 14.57816	  4.10183	 -0.66566	 19.42161	709.42297	 25.20	
 11.897	122.732	 18.21927	  5.49663	 12.78617	 15.22666	  3.57944	 -0.69655	 19.44236	709.42603	 25.20	
 11.903	114.597	 18.18771	  6.30270	 11.85448	 15.73196	  3.16102	 -0.71916	 19.42964	709.43402	 25.10	
 11.893	106.346	 18.18241	  7.19856	 10.86537	 16.09819	  2.87134	 -0.72919	 19.41807	709.53003	 25.10	
 11.892	 98.155	 18.14372	  8.12527	  9.84330	 16.29560	  2.69312	 -0.73757	 19.38669	709.52197	 25.10	
 11.900	 90.000	 18.18863	  9.12751	  8.87423	 16.41449	  2.65446	 -0.72546	 19.43189	709.56897	 25.10	
 11.892	 81.845	 18.17682	 10.12348	  7.89361	 16.32551	  2.72079	 -0.68172	 19.42814	709.42798	 25.10	
 11.893	 73.654	 18.17815	 11.11608	  6.95560	 16.09469	  2.90781	 -0.61274	 19.41780	709.60797	 25.10	
 11.903	 65.403	 18.19701	 12.10197	  6.07610	 15.74723	  3.20693	 -0.56591	 19.44348	709.58002	 25.10	
 11.897	 57.268	 18.16098	 12.99375	  5.26392	 15.21551	  3.60994	 -0.54180	 19.41437	709.69501	 25.10	
 11.894	 49.133	 18.16960	 13.84267	  4.55297	 14.59422	  4.13679	 -0.54372	 19.43061	709.51801	 25.10	
 11.902	 40.852	 18.13918	 14.57059	  3.91429	 13.83783	  4.73185	 -0.56580	 19.40965	709.49500	 25.10	
 11.909	 32.701	 18.12157	 15.19236	  3.40474	 13.00348	  5.44001	 -0.58154	 19.39627	709.51501	 25.10	
 11.889	 24.555	 18.13504	 15.70130	  3.01887	 12.09288	  6.25522	 -0.57809	 19.41533	709.60303	 25.10	
 11.890	 16.390	 18.16303	 16.08865	  2.74413	 11.16690	  7.13833	 -0.59872	 19.44827	709.53302	 25.10	
 11.899	  8.217	 18.13979	 16.28981	  2.57270	 10.17063	  8.05569	 -0.61389	 19.42535	709.44202	 25.10	
 11.900	  0.000	 18.13699	 16.35938	  2.51947	  9.15371	  9.04881	 -0.61984	 19.41767	709.51801	 25.10	
 11.899	 -8.217	 18.12915	 16.26950	  2.57762	  8.16373	 10.05004	 -0.61450	 19.40953	709.45001	 25.10	
 11.890	-16.390	 18.13635	 16.03733	  2.76007	  7.23108	 11.03159	 -0.60686	 19.40559	709.55798	 25.10	
 11.889	-24.555	 18.15867	 15.68098	  3.05690	  6.34230	 12.02148	 -0.60851	 19.43155	709.52899	 25.10	
 11.909	-32.701	 18.14590	 15.15692	  3.45952	  5.51777	 12.92318	 -0.62481	 19.40699	709.53003	 25.10	
 11.902	-40.852	 18.17474	 14.53346	  3.98583	  4.80993	 13.77264	 -0.66017	 19.42703	709.47101	 25.10	
 11.894	-49.133	 18.13838	 13.73525	  4.61611	  4.15719	 14.50295	 -0.69051	 19.38152	709.48499	 25.10	
 11.897	-57.268	 18.15142	 12.89845	  5.33986	  3.62852	 15.15493	 -0.72341	 19.40010	709.51898	 25.10	
 11.903	-65.403	 18.16663	 11.99038	  6.15620	  3.21008	 15.67845	 -0.74384	 19.41078	709.48999	 25.10	
 11.893	-73.654	 18.18848	 11.02037	  7.06563	  2.92750	 16.05622	 -0.74518	 19.43364	709.51001	 25.10	
 11.892	-81.845	 18.18336	 10.02132	  8.01168	  2.74927	 16.27480	 -0.74564	 19.42612	709.47400	 25.10	
 11.900	-90.000	 18.18426	  9.00943	  8.99824	  2.66868	 16.35292	 -0.73970	 19.43314	709.57202	 25.10	
 11.892	-98.155	 18.15640	  8.00949	  9.98216	  2.71309	 16.24121	 -0.71129	 19.39117	709.58099	 25.10	
 11.893	-106.346	 18.19742	  7.07866	 10.99536	  2.88347	 16.04143	 -0.67217	 19.42597	709.54901	 25.10	
 11.903	-114.597	 18.18446	  6.17215	 11.95153	  3.15821	 15.65441	 -0.63488	 19.39248	709.62799	 25.10	
 11.897	-122.732	 18.24229	  5.37929	 12.88387	  3.57901	 15.16553	 -0.60696	 19.42411	709.51300	 25.10	
 11.894	-130.867	 18.28122	  4.67028	 13.73436	  4.10504	 14.53017	 -0.59283	 19.43148	709.52100	 25.10	
 11.902	-139.148	 18.29961	  4.03548	 14.48514	  4.74373	 13.76369	 -0.59132	 19.42725	709.51898	 25.10	
 11.909	-147.299	 18.32276	  3.52526	 15.11895	  5.45837	 12.93777	 -0.58842	 19.44611	709.56702	 25.10	
 11.889	-155.445	 18.28299	  3.12541	 15.57898	  6.26428	 11.99348	 -0.57287	 19.38835	709.44202	 25.10	
 11.890	-163.610	 18.30640	  2.83751	 15.96564	  7.16973	 11.03107	 -0.58535	 19.41044	709.60303	 25.10	
 11.899	-171.783	 18.31206	  2.66584	 16.20206	  8.10927	 10.04702	 -0.61923	 19.42746	709.45001	 25.10	
 11.900	180.000	 18.28843	  2.62086	 16.25562	  9.08880	  9.04087	 -0.62279	 19.41514	709.39398	 25.10	
 13.600	180.000	 17.82991	  1.47353	 16.87377	  8.70507	  8.65441	 -0.77852	 19.40138	709.49500	 25.10	
 13.608	-172.853	 17.86506	  1.50313	 16.84795	  7.74763	  9.64489	 -0.78029	 19.42968	709.45001	 25.10	
 13.611	-165.583	 17.87861	  1.63624	 16.66761	  6.79225	 10.64981	 -0.75727	 19.44365	709.36700	 25.10	
 13.601	-158.353	 17.84447	  1.88563	 16.30312	  5.86372	 11.62706	 -0.73407	 19.40387	709.35699	 25.10	
 13.609	-151.210	 17.83668	  2.22645	 15.86090	  5.03819	 12.55439	 -0.73758	 19.39598	709.52197	 25.10	
 13.611	-143.999	 17.86805	  2.67348	 15.33252	  4.28348	 13.47043	 -0.73331	 19.43844	709.35498	 25.10	
 13.601	-136.825	 17.83120	  3.21233	 14.64086	  3.60022	 14.28282	 -0.70963	 19.42781	709.59698	 25.10	
 13.596	-129.640	 17.79683	  3.84560	 13.85278	  2.99791	 15.00192	 -0.71563	 19.41161	709.51898	 25.10	
 13.611	-122.431	 17.74604	  4.54938	 12.98825	  2.49263	 15.62039	 -0.71546	 19.38239	709.45599	 25.10	
 13.604	-115.211	 17.75147	  5.35703	 12.09427	  2.11234	 16.15018	 -0.74935	 19.40597	709.62500	 25.10	
 13.595	-108.042	 17.73340	  6.22356	 11.12093	  1.81747	 16.53984	 -0.77764	 19.40563	709.55200	 25.10	
 13.607	-100.793	 17.70926	  7.14674	 10.12196	  1.60790	 16.81193	 -0.81901	 19.40407	709.63898	 25.10	
 13.601	-93.617	 17.71860	  8.11684	  9.12929	  1.52054	 16.95903	 -0.82248	 19.42674	709.53802	 25.00	
 13.601	-86.383	 17.71355	  9.12294	  8.12307	  1.52490	 16.96297	 -0.81716	 19.42602	709.62000	 25.00	
 13.607	-79.207	 17.68594	 10.10871	  7.15087	  1.62907	 16.82014	 -0.82154	 19.40134	709.63599	 25.00	
 13.595	-71.958	 17.69783	 11.11332	  6.22674	  1.84683	 16.55873	 -0.80797	 19.40812	709.57703	 25.00	
 13.604	-64.789	 17.69496	 12.09516	  5.35122	  2.15168	 16.17459	 -0.80614	 19.40678	709.52100	 25.00	
 13.611	-57.569	 17.70612	 13.03347	  4.54125	  2.54582	 15.67548	 -0.80458	 19.42514	709.64502	 25.00	
 13.596	-50.360	 17.67285	 13.85219	  3.81793	  3.05070	 15.02011	 -0.77641	 19.39135	709.61603	 25.00	
 13.601	-43.175	 17.68001	 14.64120	  3.18235	  3.64995	 14.29657	 -0.75304	 19.39712	709.64697	 25.00	
 13.611	-36.001	 17.69838	 15.34775	  2.63642	  4.34731	 13.49378	 -0.73401	 19.42232	709.61102	 25.00	
 13.609	-28.790	 17.67773	 15.91793	  2.17955	  5.10193	 12.60356	 -0.73296	 19.41593	709.66400	 25.00	
 13.601	-21.647	 17.70051	 16.39528	  1.84562	  5.94207	 11.68503	 -0.73109	 19.44614	709.51501	 25.00	
 13.611	-14.417	 17.65268	 16.69527	  1.58035	  6.84347	 10.66725	 -0.73310	 19.40494	709.55798	 25.00	
 13.608	 -7.147	 17.66382	 16.91191	  1.42966	  7.79733	  9.67064	 -0.73305	 19.42181	709.52197	 25.00	
 13.600	  0.000	 17.65547	 16.97419	  1.37332	  8.76509	  8.68900	 -0.73472	 19.41275	709.53302	 25.00	
 13.608	  7.147	 17.65582	 16.92597	  1.41425	  9.77151	  7.70051	 -0.73305	 19.42978	709.51801	 25.00	
 13.611	 14.417	 17.65705	 16.73343	  1.56236	 10.76725	  6.75983	 -0.72878	 19.43279	709.51898	 25.00	
 13.601	 21.647	 17.63672	 16.38854	  1.80636	 11.72041	  5.86526	 -0.71935	 19.39324	709.47400	 25.00	
 13.609	 28.790	 17.63745	 15.95309	  2.12850	 12.66442	  5.03177	 -0.71721	 19.39780	709.49298	 25.00	
 13.611	 36.001	 17.66283	 15.40303	  2.56383	 13.55311	  4.28089	 -0.72020	 19.42043	709.47101	 25.00	
 13.601	 43.175	 17.66136	 14.72030	  3.10270	 14.34778	  3.62589	 -0.70431	 19.40304	709.49902	 25.00	
 13.596	 50.360	 17.66476	 13.95399	  3.72810	 15.06682	  3.04017	 -0.68520	 19.40472	709.54999	 25.00	
 13.611	 57.569	 17.69840	 13.13160	  4.43701	 15.73158	  2.52959	 -0.67841	 19.43814	709.59998	 25.00	
 13.604	 64.789	 17.67332	 12.19265	  5.22214	 16.21455	  2.12714	 -0.71086	 19.40583	709.51001	 25.00	
 13.595	 71.958	 17.67723	 11.23198	  6.08122	 16.59269	  1.83477	 -0.76351	 19.40769	709.56000	 25.00	
 13.607	 79.207	 17.66346	 10.23161	  6.98846	 16.84796	  1.62306	 -0.83875	 19.38946	709.69299	 25.00	
 13.601	 86.383	 17.68656	  9.25326	  7.96340	 16.98540	  1.53546	 -0.88223	 19.40357	709.63702	 25.00	
 13.601	 93.617	 17.70594	  8.25395	  8.96853	 16.99443	  1.52888	 -0.90767	 19.41879	709.62000	 25.00	
 13.607	100.793	 17.70885	  7.29135	  9.96505	 16.87198	  1.61701	 -0.91798	 19.41201	709.44299	 25.00	
 13.595	108.042	 17.70159	  6.36039	 10.96259	 16.59511	  1.81950	 -0.91157	 19.40764	709.36902	 25.00	
 13.604	115.211	 17.71046	  5.48904	 11.93715	 16.21515	  2.10009	 -0.89772	 19.41399	709.46399	 25.00	
 13.611	122.431	 17.72957	  4.68926	 12.87668	 15.71278	  2.50141	 -0.88048	 19.43496	709.58099	 25.00	
 13.596	129.640	 17.75256	  3.97567	 13.73983	 15.07493	  3.01182	 -0.84942	 19.42872	709.67102	 25.00	
 13.601	136.825	 17.74913	  3.33870	 14.51353	 14.34157	  3.60322	 -0.81005	 19.40532	709.53003	 25.00	
 13.611	143.999	 17.77597	  2.78905	 15.21417	 13.55629	  4.26396	 -0.77799	 19.42613	709.55798	 25.00	
 13.609	151.210	 17.76205	  2.31959	 15.77408	 12.64480	  5.00663	 -0.74070	 19.39721	709.51202	 25.00	
 13.601	158.353	 17.80387	  1.97004	 16.25526	 11.71417	  5.85721	 -0.72723	 19.42317	709.52197	 25.00	
 13.611	165.583	 17.79751	  1.70227	 16.58688	 10.71911	  6.73429	 -0.74058	 19.39287	709.37000	 25.00	
 13.608	172.853	 17.80722	  1.53482	 16.78924	  9.71613	  7.67425	 -0.76267	 19.39108	709.58502	 25.00	
 15.298	173.587	 17.29790	  0.44551	 17.35455	  9.29022	  7.25077	 -0.89640	 19.40208	709.48999	 25.00	
 15.291	167.167	 17.30577	  0.58407	 17.19327	 10.29163	  6.33116	 -0.87866	 19.41364	709.44202	 25.00	
 15.307	160.676	 17.28037	  0.79960	 16.88118	 11.28114	  5.43187	 -0.86654	 19.41720	709.46997	 25.00	
 15.300	154.261	 17.24585	  1.09057	 16.44894	 12.23975	  4.57787	 -0.87744	 19.39712	709.38098	 25.00	
 15.288	147.854	 17.27740	  1.49281	 15.95848	 13.17798	  3.82048	 -0.90135	 19.43909	709.45001	 25.00	
 15.293	141.428	 17.25096	  1.97037	 15.31728	 14.02238	  3.12521	 -0.92996	 19.41694	709.47101	 25.00	
 15.299	134.985	 17.23156	  2.52972	 14.59417	 14.81497	  2.47848	 -0.95129	 19.42185	709.46399	 25.00	
 15.305	128.583	 17.19937	  3.16391	 13.77460	 15.51334	  1.92062	 -0.98483	 19.39904	709.44800	 25.00	
 15.309	122.142	 17.19532	  3.87756	 12.91261	 16.12572	  1.45854	 -0.99312	 19.41180	709.57202	 25.00	
 15.304	115.711	 17.19165	  4.66341	 11.98985	 16.63130	  1.08444	 -1.00140	 19.41788	709.61102	 24.90	
 15.297	109.291	 17.18099	  5.51046	 11.02254	 17.03026	  0.79912	 -1.00354	 19.40422	709.45599	 24.90	
 15.293	102.897	 17.18035	  6.41148	 10.03385	 17.31618	  0.59094	 -0.99861	 19.41201	709.56000	 24.90	
 15.293	 96.458	 17.21014	  7.36538	  9.05915	 17.53695	  0.46620	 -1.00720	 19.45007	709.66803	 24.90	
 15.300	 90.000	 17.17186	  8.33502	  8.04604	 17.56957	  0.42748	 -1.00188	 19.41708	709.53497	 24.90	
 15.293	 83.542	 17.17590	  9.34103	  7.06926	 17.50528	  0.48070	 -0.97927	 19.42285	709.43402	 24.90	
 15.293	 77.103	 17.15995	 10.32465	  6.12812	 17.31088	  0.61518	 -0.93216	 19.40164	709.56598	 24.90	
 15.297	 70.709	 17.16188	 11.30344	  5.24132	 17.02534	  0.83152	 -0.87617	 19.40932	709.52899	 24.90	
 15.304	 64.289	 17.14139	 12.25073	  4.39394	 16.61591	  1.12242	 -0.81335	 19.39464	709.51001	 24.90	
 15.309	 57.858	 17.13392	 13.17050	  3.61647	 16.12531	  1.49546	 -0.79116	 19.41123	709.65399	 24.90	
 15.305	 51.417	 17.12655	 14.01372	  2.92070	 15.50653	  1.95685	 -0.78843	 19.40406	709.63000	 24.90	
 15.299	 45.015	 17.10412	 14.78929	  2.29670	 14.78391	  2.51220	 -0.79493	 19.39127	709.63000	 24.90	
 15.293	 38.572	 17.11666	 15.50303	  1.76619	 13.99785	  3.16180	 -0.80261	 19.39947	709.67603	 24.90	
 15.288	 32.146	 17.12357	 16.12374	  1.30992	 13.16308	  3.85643	 -0.80153	 19.41993	709.64697	 24.90	
 15.300	 25.739	 17.11941	 16.62835	  0.93154	 12.26450	  4.62356	 -0.78607	 19.42472	709.66803	 24.90	
 15.307	 19.324	 17.06837	 16.99176	  0.64017	 11.27850	  5.44189	 -0.78057	 19.37503	709.62799	 24.90	
 15.291	 12.833	 17.09442	 17.29329	  0.44403	 10.31339	  6.35348	 -0.77363	 19.39795	709.54102	 24.90	
 15.298	  6.413	 17.09233	 17.46198	  0.31920	  9.33739	  7.27628	 -0.78165	 19.40145	709.42603	 24.90	
 15.300	  0.000	 17.09913	 17.51645	  0.28029	  8.33638	  8.25704	 -0.77994	 19.40536	709.59198	 24.90	
 15.298	 -6.413	 17.11278	 17.46699	  0.32092	  7.37328	  9.24667	 -0.78965	 19.40731	709.54901	 24.90	
 15.291	-12.833	 17.12190	 17.28871	  0.45399	  6.43707	 10.23369	 -0.78566	 19.40761	709.46698	 24.90	
 15.307	-19.324	 17.10383	 16.96971	  0.66453	  5.51409	 11.22698	 -0.78685	 19.39178	709.51300	 24.90	
 15.300	-25.739	 17.13393	 16.57578	  0.96935	  4.68233	 12.18705	 -0.78758	 19.41431	709.55200	 24.90	
 15.288	-32.146	 17.13922	 16.04746	  1.35473	  3.90552	 13.09541	 -0.78441	 19.39302	709.48700	 24.90	
 15.293	-38.572	 17.15820	 15.43837	  1.82676	  3.18180	 13.96968	 -0.77947	 19.40400	709.59900	 24.90	
 15.299	-45.015	 17.14502	 14.71600	  2.36963	  2.52401	 14.76005	 -0.78612	 19.39326	709.59497	 24.90	
 15.305	-51.417	 17.16875	 13.94395	  3.01181	  1.98102	 15.47830	 -0.78633	 19.41262	709.56000	 24.90	
 15.309	-57.858	 17.17931	 13.08020	  3.72746	  1.50067	 16.09484	 -0.78773	 19.41740	709.59698	 24.90	
 15.304	-64.289	 17.16908	 12.15181	  4.50979	  1.10901	 16.60643	 -0.78730	 19.41266	709.40302	 24.90	
 15.297	-70.709	 17.17470	 11.18714	  5.36762	  0.81295	 17.00624	 -0.78588	 19.40119	709.48700	 24.90	
 15.293	-77.103	 17.17646	 10.20350	  6.25971	  0.58504	 17.30004	 -0.78868	 19.41052	709.48798	 24.90	
 15.293	-83.542	 17.17092	  9.19527	  7.20846	  0.44839	 17.46940	 -0.81235	 19.41010	709.52698	 24.90	
 15.300	-90.000	 17.15460	  8.17273	  8.18184	  0.38080	 17.51319	 -0.82626	 19.39159	709.72900	 24.90	
 15.293	-96.458	 17.18098	  7.21352	  9.19637	  0.42634	 17.47413	 -0.84993	 19.42199	709.48102	 24.90	
 15.293	-102.897	 17.15701	  6.24343	 10.17526	  0.54445	 17.25692	 -0.86362	 19.38151	709.53003	 24.90	
 15.297	-109.291	 17.19236	  5.35671	 11.16816	  0.75594	 16.98084	 -0.85343	 19.39686	709.57703	 24.90	
 15.304	-115.711	 17.21988	  4.51677	 12.13232	  1.05467	 16.57652	 -0.84061	 19.40550	709.51501	 24.90	
 15.309	-122.142	 17.24020	  3.73112	 13.05268	  1.44078	 16.05251	 -0.82796	 19.40024	709.46399	 24.90	
 15.305	-128.583	 17.26626	  3.02954	 13.90659	  1.91597	 15.42878	 -0.82602	 19.39501	709.63300	 24.90	
 15.299	-134.985	 17.26520	  2.40274	 14.67237	  2.45413	 14.71379	 -0.84386	 19.37370	709.63000	 24.90	
 15.293	-141.428	 17.30348	  1.84956	 15.39992	  3.10902	 13.92147	 -0.85341	 19.38137	709.56403	 24.90	
 15.288	-147.854	 17.33096	  1.39254	 16.01979	  3.83332	 13.06258	 -0.87588	 19.39942	709.67102	 24.90	
 15.300	-154.261	 17.31745	  1.00595	 16.51632	  4.59767	 12.14117	 -0.87058	 19.38864	709.55402	 24.90	
 15.307	-160.676	 17.33564	  0.70757	 16.93675	  5.44232	 11.20463	 -0.87923	 19.40858	709.51898	 24.90	
 15.291	-167.167	 17.31891	  0.51950	 17.19613	  6.36951	 10.19137	 -0.89401	 19.38654	709.51300	 24.90	
 15.298	-173.587	 17.33282	  0.40089	 17.38693	  7.31580	  9.21669	 -0.90549	 19.41699	709.54303	 24.90	
 15.300	180.000	 17.31390	  0.37963	 17.43136	  8.28772	  8.23923	 -0.91237	 19.40495	709.72601	 24.90	
 17.000	180.000	 16.73055	 -0.68521	 17.92555	  7.81328	  7.76002	 -0.97984	 19.39528	709.62500	 24.90	
 16.990	-174.179	 16.72943	 -0.67335	 17.86769	  6.84828	  8.73116	 -0.97400	 19.38631	709.71503	 24.90	
 17.009	-168.383	 16.76062	 -0.57793	 17.75230	  5.92092	  9.71565	 -0.95834	 19.41995	709.64697	 24.90	
 17.000	-162.596	 16.76527	 -0.40408	 17.49590	  5.01122	 10.71873	 -0.93661	 19.42103	709.73297	 24.90	
 16.990	-156.759	 16.76583	 -0.14798	 17.13117	  4.16762	 11.68060	 -0.93430	 19.41107	709.65302	 24.90	
 16.995	-150.919	 16.77073	  0.17318	 16.67845	  3.37141	 12.62178	 -0.94621	 19.42348	709.53601	 24.90	
 16.988	-145.161	 16.74758	  0.56868	 16.10025	  2.63079	 13.50270	 -0.94698	 19.40247	709.65601	 24.90	
 17.014	-139.343	 16.74990	  1.02576	 15.48219	  1.95419	 14.36793	 -0.93310	 19.43684	709.69897	 24.90	
 17.007	-133.546	 16.70478	  1.58753	 14.72849	  1.37502	 15.10345	 -0.91187	 19.40011	709.58301	 24.90	
 17.001	-127.699	 16.65288	  2.20827	 13.89275	  0.84868	 15.77286	 -0.89208	 19.36564	709.58301	 24.90	
 17.006	-121.937	 16.67073	  2.90099	 13.06639	  0.41093	 16.43450	 -0.88937	 19.42383	709.67499	 24.90	
 17.002	-116.134	 16.60450	  3.64612	 12.12448	  0.03021	 16.92151	 -0.88083	 19.38187	709.58801	 24.90	
 17.001	-110.310	 16.62378	  4.47559	 11.19582	 -0.26525	 17.38486	 -0.87352	 19.43252	709.64001	 24.90	
 16.988	-104.517	 16.59831	  5.35227	 10.21209	 -0.45939	 17.67105	 -0.83467	 19.40626	709.61200	 24.90	
 17.008	-98.662	 16.57367	  6.26901	  9.20540	 -0.61427	 17.88771	 -0.80473	 19.40925	709.65900	 24.90	
 16.996	-92.909	 16.57478	  7.20801	  8.22744	 -0.66803	 17.98808	 -0.76864	 19.40112	709.46198	 24.90	
 16.996	-87.091	 16.57198	  8.20894	  7.24418	 -0.65883	 18.00160	 -0.74506	 19.40753	709.52899	 24.90	
 17.012	-81.253	 16.56608	  9.19999	  6.27756	 -0.58626	 17.90949	 -0.72214	 19.40787	709.67902	 24.90	
 16.988	-75.483	 16.54689	 10.16804	  5.36400	 -0.42413	 17.67604	 -0.70749	 19.38349	709.64502	 24.90	
 17.001	-69.690	 16.56425	 11.17019	  4.48301	 -0.21924	 17.39575	 -0.71310	 19.41209	709.59100	 24.90	
 17.002	-63.866	 16.58299	 12.13939	  3.66259	  0.08813	 16.99525	 -0.71929	 19.42966	709.63599	 24.90	
 17.006	-58.063	 16.55633	 13.04034	  2.89857	  0.47027	 16.45113	 -0.73179	 19.39592	709.61401	 24.90	
 17.001	-52.301	 16.55071	 13.90303	  2.20734	  0.92307	 15.83924	 -0.75464	 19.37859	709.59100	 24.90	
 17.007	-46.454	 16.54871	 14.71651	  1.57131	  1.44642	 15.14504	 -0.75475	 19.38114	709.65100	 24.90	
 17.014	-40.657	 16.55493	 15.45966	  1.01751	  2.02519	 14.39893	 -0.76608	 19.40377	709.65601	 24.90	
 16.988	-34.839	 16.54388	 16.09723	  0.54663	  2.70116	 13.55672	 -0.77427	 19.38445	709.61902	 24.90	
 16.995	-29.081	 16.53819	 16.66907	  0.15421	  3.43843	 12.67065	 -0.77440	 19.38868	709.54102	 24.90	
 16.990	-23.241	 16.50737	 17.11936	 -0.17601	  4.22905	 11.70872	 -0.77524	 19.36529	709.70203	 24.90	
 17.000	-17.404	 16.50489	 17.50261	 -0.43390	  5.07314	 10.75643	 -0.77091	 19.38462	709.51801	 24.90	
 17.009	-11.617	 16.52614	 17.80315	 -0.61555	  5.98585	  9.77883	 -0.77913	 19.41466	709.54401	 24.90	
 16.990	 -5.821	 16.49311	 17.92772	 -0.72021	  6.90630	  8.78069	 -0.75471	 19.38615	709.52100	 24.90	
 17.000	  0.000	 16.49592	 17.99319	 -0.76252	  7.86993	  7.80564	 -0.75808	 19.39397	709.57501	 24.90	
 16.990	  5.821	 16.49837	 17.95191	 -0.72303	  8.86576	  6.83665	 -0.74849	 19.40925	709.56897	 24.90	
 17.009	 11.617	 16.48429	 17.80635	 -0.63226	  9.83382	  5.91177	 -0.75874	 19.39519	709.56897	 24.90	
 17.000	 17.404	 16.48546	 17.55525	 -0.45038	 10.80760	  5.03787	 -0.74540	 19.39675	709.66199	 24.90	
 16.990	 23.241	 16.49708	 17.19945	 -0.21002	 11.78188	  4.18798	 -0.76486	 19.40668	709.65302	 24.80	
 16.995	 29.081	 16.48553	 16.72881	  0.11259	 12.69297	  3.40663	 -0.79183	 19.39189	709.55701	 24.80	
 16.988	 34.839	 16.49819	 16.17626	  0.50750	 13.56686	  2.69673	 -0.82183	 19.38836	709.65100	 24.80	
 17.014	 40.657	 16.50300	 15.55258	  0.95650	 14.41853	  2.02595	 -0.84278	 19.40435	709.65399	 24.80	
 17.007	 46.454	 16.50706	 14.82099	  1.48985	 15.17813	  1.43113	 -0.86290	 19.40289	709.52698	 24.80	
 17.001	 52.301	 16.49114	 13.99997	  2.11354	 15.84319	  0.92488	 -0.86686	 19.36733	709.64001	 24.80	
 17.006	 58.063	 16.52472	 13.16785	  2.79461	 16.46658	  0.48854	 -0.87930	 19.40084	709.67102	 24.80	
 17.002	 63.866	 16.54586	 12.27003	  3.53964	 17.00182	  0.11988	 -0.90877	 19.41605	709.58801	 24.80	
 17.001	 69.690	 16.52715	 11.30782	  4.33992	 17.40071	 -0.18794	 -0.94821	 19.39688	709.62799	 24.80	
 16.988	 75.483	 16.53031	 10.33281	  5.20731	 17.70236	 -0.40283	 -0.98947	 19.38651	709.64801	 24.80	
 17.012	 81.253	 16.51645	  9.34380	  6.09499	 17.91009	 -0.56948	 -1.01181	 19.38519	709.69299	 24.80	
 16.996	 87.091	 16.53315	  8.36250	  7.05560	 18.00605	 -0.62190	 -1.02267	 19.38732	709.64001	 24.80	
 16.996	 92.909	 16.54383	  7.37958	  8.03428	 18.00596	 -0.62673	 -1.01096	 19.38745	709.68500	 24.80	
 17.008	 98.662	 16.56249	  6.44239	  9.02928	 17.93193	 -0.56854	 -0.99509	 19.40929	709.66400	 24.80	
 16.988	104.517	 16.55743	  5.51894	 10.01587	 17.69571	 -0.40824	 -0.98772	 19.38127	709.69299	 24.80	
 17.001	110.310	 16.57514	  4.64405	 11.01816	 17.40121	 -0.20410	 -1.01632	 19.40157	709.68402	 24.80	
 17.002	116.134	 16.59363	  3.82679	 11.97958	 16.99298	  0.08151	 -1.03421	 19.40596	709.62500	 24.80	
 17.006	121.937	 16.59060	  3.06409	 12.89649	 16.46904	  0.45530	 -1.04786	 19.39164	709.58801	 24.80	
 17.001	127.699	 16.59660	  2.37070	 13.75817	 15.86506	  0.88537	 -1.06838	 19.37588	709.64502	 24.80	
 17.007	133.546	 16.61122	  1.73504	 14.57377	 15.18435	  1.38086	 -1.05286	 19.37998	709.58801	 24.80	
 17.014	139.343	 16.62494	  1.17280	 15.32711	 14.42076	  1.96626	 -1.04122	 19.39544	709.59698	 24.80	
 16.988	145.161	 16.64930	  0.70443	 15.98173	 13.56724	  2.64503	 -1.02848	 19.38648	709.59497	 24.80	
 16.995	150.919	 16.66059	  0.29439	 16.54248	 12.68900	  3.35564	 -1.00334	 19.38365	709.53302	 24.80	
 16.990	156.759	 16.67349	 -0.04314	 17.02320	 11.75624	  4.13565	 -0.98483	 19.38769	709.63098	 24.80	
 17.000	162.596	 16.69269	 -0.30275	 17.41203	 10.77319	  4.98498	 -0.97586	 19.38313	709.63599	 24.80	
 17.009	168.383	 16.71791	 -0.49888	 17.70464	  9.79797	  5.87210	 -0.98759	 19.40591	709.56897	 24.80	
 16.990	174.179	 16.71347	 -0.61305	 17.83983	  8.81132	  6.79071	 -0.98647	 19.38417	709.72998	 24.80	
 18.709	174.675	 16.07492	 -1.64950	 18.27882	  8.30591	  6.29926	 -1.01030	 19.39389	709.72601	 24.80	
 18.703	169.441	 16.09401	 -1.54055	 18.16617	  9.28109	  5.40644	 -1.03134	 19.42866	709.52600	 24.80	
 18.691	164.085	 16.05436	 -1.37480	 17.88168	 10.25052	  4.51603	 -1.03692	 19.38461	709.48499	 24.80	
 18.706	158.818	 16.03963	 -1.15468	 17.55062	 11.23009	  3.66978	 -1.06073	 19.40029	709.50201	 24.80	
 18.695	153.537	 16.02311	 -0.84655	 17.10697	 12.15281	  2.90896	 -1.07489	 19.38449	709.51300	 24.80	
 18.704	148.255	 16.03005	 -0.50894	 16.61173	 13.08576	  2.18082	 -1.08301	 19.41225	709.61902	 24.80	
 18.698	142.952	 16.01403	 -0.07607	 15.99010	 13.96192	  1.49931	 -1.08721	 19.41290	709.55200	 24.90	
 18.699	137.625	 16.00380	  0.41422	 15.30266	 14.78084	  0.89215	 -1.08885	 19.41075	709.66699	 24.80	
 18.705	132.343	 15.96430	  0.96717	 14.52259	 15.49258	  0.36011	 -1.08101	 19.37142	709.61102	 24.80	
 18.713	127.067	 15.95560	  1.57436	 13.71053	 16.17404	 -0.11758	 -1.06982	 19.38079	709.50201	 24.80	
 18.700	121.794	 15.95848	  2.26461	 12.85096	 16.78547	 -0.52471	 -1.04043	 19.40161	709.45099	 24.80	
 18.698	116.504	 15.94233	  2.98947	 11.92954	 17.28999	 -0.88062	 -0.98395	 19.40078	709.43597	 24.80	
 18.707	111.165	 15.92135	  3.77586	 10.97125	 17.71000	 -1.16409	 -0.95331	 19.39551	709.42297	 24.80	
 18.690	105.863	 15.90019	  4.62260	  9.98677	 18.00737	 -1.36878	 -0.92533	 19.37338	709.48499	 24.80	
 18.696	100.583	 15.93694	  5.52056	  9.03199	 18.27904	 -1.52316	 -0.90518	 19.41885	709.56702	 24.80	
 18.700	 95.309	 15.92158	  6.44189	  8.05069	 18.40191	 -1.60177	 -0.90710	 19.40635	709.53601	 24.80	
 18.700	 90.000	 15.89222	  7.39116	  7.06006	 18.42460	 -1.63146	 -0.93675	 19.38619	709.44000	 24.80	
 18.700	 84.691	 15.88828	  8.37021	  6.11014	 18.37667	 -1.59345	 -0.96747	 19.38259	709.51300	 24.80	
 18.696	 79.417	 15.89929	  9.34596	  5.20824	 18.26319	 -1.49538	 -0.98954	 19.41160	709.54901	 24.80	
 18.690	 74.137	 15.88698	 10.31178	  4.32869	 18.01409	 -1.33568	 -0.99604	 19.39073	709.61200	 24.80	
 18.707	 68.835	 15.85985	 11.26956	  3.47988	 17.68285	 -1.12514	 -0.98099	 19.37984	709.49902	 24.80	
 18.698	 63.496	 15.85053	 12.20752	  2.69231	 17.25838	 -0.83842	 -0.96368	 19.37502	709.62500	 24.80	
 18.700	 58.206	 15.81872	 13.08871	  1.97244	 16.71447	 -0.47727	 -0.93539	 19.34854	709.50201	 24.80	
 18.713	 52.933	 15.83918	 13.99020	  1.31200	 16.15765	 -0.13395	 -0.80707	 19.34998	709.38898	 24.80	
 18.705	 47.657	 15.80951	 14.76444	  0.72138	 15.45358	  0.35218	 -0.78492	 19.31250	709.46698	 24.80	
 18.699	 42.375	 15.84090	 15.53053	  0.19980	 14.76145	  0.88805	 -0.75606	 19.36256	709.59198	 24.80	
 18.698	 37.048	 15.84256	 16.21074	 -0.26316	 13.95413	  1.49986	 -0.71515	 19.36793	709.44800	 24.80	
 18.704	 31.745	 15.82426	 16.79548	 -0.67428	 13.07739	  2.18180	 -0.66408	 19.35411	709.51300	 24.80	
 18.695	 26.463	 15.81816	 17.29337	 -1.00620	 12.18012	  2.91519	 -0.63814	 19.35893	709.47302	 24.80	
 18.706	 21.182	 15.81893	 17.71537	 -1.29622	 11.25896	  3.67867	 -0.60022	 19.37023	709.46399	 24.80	
 18.691	 15.915	 15.79902	 18.01182	 -1.49756	 10.28829	  4.51310	 -0.58902	 19.33925	709.45697	 24.80	
 18.703	 10.559	 15.81302	 18.25614	 -1.65839	  9.31545	  5.40212	 -0.58521	 19.36251	709.49799	 24.80	
 18.709	  5.325	 15.80391	 18.37364	 -1.74722	  8.35586	  6.29318	 -0.58715	 19.34953	709.52600	 24.80	
 18.700	  0.000	 15.79698	 18.38733	 -1.77011	  7.36231	  7.24867	 -0.58786	 19.31783	709.55200	 24.80	
 18.709	 -5.325	 15.81914	 18.36771	 -1.74698	  6.42283	  8.22380	 -0.59610	 19.34428	709.58502	 24.80	
 18.703	-10.559	 15.82905	 18.22343	 -1.65839	  5.51697	  9.18074	 -0.60660	 19.34172	709.63599	 24.80	
 18.691	-15.915	 15.84286	 17.97603	 -1.47602	  4.61881	 10.18881	 -0.63107	 19.33586	709.53497	 24.80	
 18.706	-21.182	 15.85108	 17.64691	 -1.26553	  3.77759	 11.14008	 -0.63608	 19.34301	709.58301	 24.80	
 18.695	-26.463	 15.86399	 17.22009	 -0.98993	  2.99312	 12.09477	 -0.64109	 19.33523	709.46503	 24.80	
 18.704	-31.745	 15.87926	 16.71338	 -0.64595	  2.23410	 13.01621	 -0.63742	 19.35046	709.59998	 24.80	
 18.698	-37.048	 15.88452	 16.09558	 -0.22438	  1.57096	 13.86952	 -0.61870	 19.33501	709.46997	 24.80	
 18.699	-42.375	 15.89420	 15.41694	  0.25911	  0.96232	 14.68107	 -0.60951	 19.33442	709.55200	 24.80	
 18.705	-47.657	 15.91426	 14.68446	  0.78697	  0.39679	 15.43589	 -0.60344	 19.35597	709.42603	 24.80	
 18.713	-52.933	 15.88535	 13.85456	  1.38678	 -0.10433	 16.09323	 -0.56831	 19.33673	709.47803	 24.80	
 18.700	-58.206	 15.90811	 12.99953	  2.07588	 -0.50843	 16.69866	 -0.54971	 19.35576	709.54602	 24.80	
 18.698	-63.496	 15.90530	 12.08455	  2.81481	 -0.85155	 17.18940	 -0.53564	 19.34553	709.44000	 24.80	
 18.707	-68.835	 15.88847	 11.12396	  3.60664	 -1.14962	 17.58951	 -0.52533	 19.32991	709.50403	 24.80	
 18.690	-74.137	 15.91053	 10.15971	  4.47298	 -1.36628	 17.93011	 -0.51790	 19.34490	709.36298	 24.80	
 18.696	-79.417	 15.93781	  9.19903	  5.36349	 -1.53669	 18.19570	 -0.53412	 19.38463	709.47900	 24.80	
 18.700	-84.691	 15.89505	  8.19574	  6.27216	 -1.63791	 18.28757	 -0.54245	 19.32837	709.40198	 24.80	
 18.700	-90.000	 15.89445	  7.21433	  7.23532	 -1.68531	 18.32942	 -0.58362	 19.32915	709.57703	 24.80	
 18.700	-95.309	 15.90003	  6.25916	  8.20924	 -1.66101	 18.28316	 -0.60388	 19.33741	709.59998	 24.80	
 18.696	-100.583	 15.89954	  5.33577	  9.18122	 -1.57451	 18.12463	 -0.64605	 19.32659	709.56000	 24.80	
 18.690	-105.863	 15.94905	  4.45131	 10.18078	 -1.42562	 17.92872	 -0.69619	 19.36648	709.50702	 24.80	
 18.707	-111.165	 15.94173	  3.60340	 11.13143	 -1.21977	 17.57574	 -0.75575	 19.33858	709.48199	 24.80	
 18.698	-116.504	 15.97306	  2.81336	 12.10208	 -0.93089	 17.15927	 -0.80629	 19.35686	709.37701	 24.80	
 18.700	-121.794	 15.99506	  2.08291	 13.00216	 -0.59533	 16.65120	 -0.81912	 19.35459	709.56097	 24.80	
 18.713	-127.067	 15.99268	  1.40285	 13.84414	 -0.17902	 16.02948	 -0.83907	 19.32909	709.64301	 24.80	
 18.705	-132.343	 16.03489	  0.80161	 14.67246	  0.31166	 15.35710	 -0.84718	 19.34323	709.61200	 24.80	
 18.699	-137.625	 16.05365	  0.27688	 15.40747	  0.86825	 14.60325	 -0.86125	 19.33266	709.56702	 24.80	
 18.698	-142.952	 16.08319	 -0.20565	 16.09090	  1.48267	 13.80219	 -0.86945	 19.34426	709.47101	 24.80	
 18.704	-148.255	 16.08501	 -0.62695	 16.68703	  2.15928	 12.92900	 -0.87275	 19.33714	709.40503	 24.80	
 18.695	-153.537	 16.10163	 -0.96417	 17.20994	  2.91144	 12.02535	 -0.85533	 19.35477	709.43298	 24.80	
 18.706	-158.818	 16.11283	 -1.24210	 17.64085	  3.69802	 11.09022	 -0.83659	 19.36616	709.50403	 24.80	
 18.691	-164.085	 16.11674	 -1.44903	 17.95808	  4.53861	 10.14293	 -0.83170	 19.37023	709.58002	 24.80	
 18.703	-169.441	 16.08035	 -1.58614	 18.15629	  5.43786	  9.12092	 -0.84551	 19.33189	709.59497	 24.80	
 18.709	-174.675	 16.08997	 -1.67599	 18.30644	  6.35506	  8.17530	 -0.87332	 19.35653	709.37201	 24.80	
 18.700	180.000	 16.06167	 -1.68000	 18.32022	  7.30663	  7.19954	 -0.89287	 19.33046	709.43402	 24.80	
 20.400	180.000	 15.37400	 -2.66895	 18.67530	  6.79182	  6.68067	 -0.82731	 19.34433	709.51501	 24.80	
 20.401	-175.153	 15.37523	 -2.66234	 18.64089	  5.85032	  7.61392	 -0.79706	 19.33116	709.51001	 24.80	
 20.407	-170.264	 15.37962	 -2.60281	 18.53295	  4.93131	  8.58204	 -0.78447	 19.33626	709.49500	 24.80	
 20.410	-165.423	 15.37898	 -2.48274	 18.31775	  4.04927	  9.54538	 -0.78348	 19.32709	709.38800	 24.80	
 20.392	-160.496	 15.39228	 -2.29456	 18.02791	  3.22222	 10.51175	 -0.77391	 19.33153	709.56702	 24.80	
 20.401	-155.705	 15.39523	 -2.06971	 17.67390	  2.44009	 11.46398	 -0.77765	 19.35148	709.60498	 24.80	
 20.405	-150.835	 15.37833	 -1.77273	 17.19465	  1.68808	 12.37964	 -0.80155	 19.33045	709.57703	 24.80	
 20.397	-145.903	 15.37462	 -1.40400	 16.64218	  0.99622	 13.27303	 -0.83217	 19.33135	709.56403	 24.80	
 20.392	-141.062	 15.36699	 -0.98858	 16.02566	  0.37406	 14.10469	 -0.84002	 19.32804	709.54401	 24.80	
 20.396	-136.227	 15.34944	 -0.51525	 15.34160	 -0.19321	 14.90997	 -0.83737	 19.34113	709.63898	 24.80	
 20.408	-131.372	 15.31021	  0.00160	 14.57409	 -0.72138	 15.62842	 -0.83565	 19.32803	709.60498	 24.80	
 20.410	-126.511	 15.30086	  0.59840	 13.76732	 -1.17413	 16.29329	 -0.83448	 19.34072	709.53497	 24.80	
 20.400	-121.604	 15.28342	  1.25744	 12.90453	 -1.56067	 16.87330	 -0.80766	 19.34004	709.55200	 24.80	
 20.403	-116.741	 15.25361	  1.96477	 11.98706	 -1.89561	 17.37587	 -0.77703	 19.32698	709.58301	 24.80	
 20.413	-111.900	 15.25454	  2.72296	 11.07177	 -2.17697	 17.83322	 -0.71750	 19.36249	709.57703	 24.80	
 20.398	-107.004	 15.20758	  3.53372	 10.09236	 -2.38690	 18.14703	 -0.67248	 19.32822	709.51300	 24.80	
 20.394	-102.132	 15.19340	  4.38492	  9.11918	 -2.53884	 18.40249	 -0.60440	 19.32230	709.54102	 24.80	
 20.403	-97.332	 15.18547	  5.26792	  8.15994	 -2.66331	 18.58451	 -0.55819	 19.34370	709.34399	 24.80	
 20.392	-92.440	 15.18530	  6.19487	  7.19346	 -2.70563	 18.67115	 -0.53002	 19.33981	709.45898	 24.80	
 20.392	-87.560	 15.16215	  7.14011	  6.22960	 -2.69467	 18.65436	 -0.53072	 19.31390	709.43903	 24.80	
 20.403	-82.668	 15.15151	  8.10416	  5.29013	 -2.63851	 18.58361	 -0.50624	 19.31348	709.61902	 24.80	
 20.394	-77.868	 15.18785	  9.08177	  4.42716	 -2.51911	 18.46075	 -0.48369	 19.35663	709.61902	 24.80	
 20.398	-72.996	 15.19311	 10.05951	  3.56350	 -2.34411	 18.21430	 -0.48278	 19.36139	709.45898	 24.80	
 20.413	-68.100	 15.16793	 11.01009	  2.72807	 -2.12058	 17.85042	 -0.47007	 19.32328	709.56000	 24.80	
 20.403	-63.259	 15.21195	 11.96440	  1.97751	 -1.83184	 17.46741	 -0.48536	 19.36966	709.40900	 24.80	
 20.400	-58.396	 15.20656	 12.87208	  1.26828	 -1.48342	 16.95668	 -0.50307	 19.35646	709.40198	 24.80	
 20.410	-53.489	 15.16568	 13.72311	  0.59181	 -1.09806	 16.34163	 -0.52161	 19.31947	709.49799	 24.80	
 20.408	-48.628	 15.17687	 14.55026	  0.00113	 -0.65328	 15.70678	 -0.54761	 19.34844	709.43903	 24.80	
 20.396	-43.773	 15.19534	 15.32494	 -0.52875	 -0.12500	 14.98905	 -0.55126	 19.35161	709.36401	 24.80	
 20.392	-38.938	 15.18671	 16.01634	 -0.99876	  0.46103	 14.18386	 -0.56046	 19.34163	709.31299	 24.80	
 20.397	-34.097	 15.15241	 16.61755	 -1.41219	  1.06987	 13.33604	 -0.56449	 19.30638	709.37500	 24.80	
 20.405	-29.165	 15.15862	 17.21148	 -1.78488	  1.76621	 12.46362	 -0.58067	 19.33472	709.64301	 24.80	
 20.401	-24.295	 15.13042	 17.66112	 -2.08709	  2.51466	 11.51699	 -0.57886	 19.31281	709.58502	 24.80	
 20.392	-19.504	 15.12167	 18.04324	 -2.31598	  3.29413	 10.59185	 -0.57168	 19.31624	709.38000	 24.80	
 20.410	-14.577	 15.09297	 18.34681	 -2.52500	  4.12725	  9.61548	 -0.55158	 19.31029	709.49799	 24.80	
 20.407	 -9.736	 15.10141	 18.58204	 -2.67266	  5.01322	  8.65442	 -0.54178	 19.33992	709.41901	 24.80	
 20.401	 -4.847	 15.08212	 18.69562	 -2.74976	  5.91333	  7.68247	 -0.53546	 19.32310	709.36700	 24.80	
 20.400	  0.000	 15.06226	 18.72853	 -2.77867	  6.83643	  6.73527	 -0.51987	 19.31421	709.54901	 24.80	
 20.401	  4.847	 15.08831	 18.73452	 -2.75990	  7.80788	  5.81343	 -0.52357	 19.36447	709.49500	 24.80	
 20.407	  9.736	 15.05983	 18.59860	 -2.68354	  8.74699	  4.90479	 -0.52337	 19.33863	709.38800	 24.80	
 20.410	 14.577	 15.05344	 18.40079	 -2.55161	  9.69705	  4.04285	 -0.52735	 19.33161	709.42603	 24.80	
 20.392	 19.504	 15.06153	 18.10378	 -2.35562	 10.67416	  3.20456	 -0.53691	 19.33413	709.33899	 24.80	
 20.401	 24.295	 15.08289	 17.75749	 -2.11885	 11.60450	  2.44545	 -0.54256	 19.35494	709.37701	 24.80	
 20.405	 29.165	 15.06707	 17.27670	 -1.81766	 12.50240	  1.71125	 -0.58213	 19.32387	709.40503	 24.80	
 20.397	 34.097	 15.06235	 16.71567	 -1.45772	 13.39225	  1.01186	 -0.61967	 19.31866	709.45398	 24.80	
 20.392	 38.938	 15.07247	 16.10823	 -1.05039	 14.22367	  0.40205	 -0.67733	 19.32022	709.41199	 24.80	
 20.396	 43.773	 15.10174	 15.44831	 -0.58021	 15.00729	 -0.14713	 -0.73205	 19.33594	709.45898	 24.80	
 20.408	 48.628	 15.09641	 14.70991	 -0.07279	 15.74103	 -0.67135	 -0.76621	 19.33973	709.51501	 24.80	
 20.410	 53.489	 15.11269	 13.91799	  0.50588	 16.41701	 -1.14089	 -0.81541	 19.36150	709.66803	 24.80	
 20.400	 58.396	 15.09663	 13.03150	  1.14905	 16.98157	 -1.52434	 -0.84450	 19.33319	709.34601	 24.80	
 20.403	 63.259	 15.11523	 12.13372	  1.85225	 17.48772	 -1.85767	 -0.87218	 19.34078	709.40198	 24.80	
 20.413	 68.100	 15.12053	 11.21632	  2.59022	 17.90727	 -2.13708	 -0.87172	 19.33662	709.33197	 24.80	
 20.398	 72.996	 15.13437	 10.26950	  3.40149	 18.25249	 -2.35963	 -0.85516	 19.34236	709.51898	 24.80	
 20.394	 77.868	 15.14085	  9.29617	  4.25897	 18.50677	 -2.52072	 -0.82533	 19.34352	709.41199	 24.80	
 20.403	 82.668	 15.12169	  8.32565	  5.11607	 18.64794	 -2.63783	 -0.78813	 19.31954	709.34100	 24.80	
 20.392	 87.560	 15.16222	  7.37329	  6.06076	 18.75293	 -2.68287	 -0.74818	 19.33805	709.57202	 24.80	
 20.392	 92.440	 15.16537	  6.41818	  7.00390	 18.74379	 -2.68366	 -0.70640	 19.32691	709.51501	 24.80	
 20.403	 97.332	 15.16890	  5.48230	  7.97631	 18.66642	 -2.63415	 -0.70789	 19.33301	709.41901	 24.80	
 20.394	102.132	 15.16818	  4.60132	  8.92324	 18.48385	 -2.52523	 -0.72238	 19.31276	709.46399	 24.80	
 20.398	107.004	 15.18175	  3.74573	  9.90079	 18.24479	 -2.37164	 -0.74511	 19.32176	709.59198	 24.80	
 20.413	111.900	 15.19603	  2.92437	 10.87339	 17.92827	 -2.16083	 -0.76466	 19.33233	709.34698	 24.80	
 20.403	116.741	 15.20670	  2.16923	 11.78983	 17.51008	 -1.89730	 -0.81485	 19.33298	709.35999	 24.80	
 20.400	121.604	 15.21588	  1.44869	 12.70396	 17.00975	 -1.58439	 -0.86764	 19.33646	709.38000	 24.80	
 20.410	126.511	 15.24970	  0.78520	 13.59708	 16.44830	 -1.18950	 -0.91038	 19.35614	709.48999	 24.80	
 20.408	131.372	 15.24942	  0.18833	 14.40732	 15.76301	 -0.73893	 -0.94291	 19.32950	709.46399	 24.80	
 20.396	136.227	 15.28334	 -0.33772	 15.18949	 15.04124	 -0.21334	 -0.97118	 19.34118	709.54102	 24.70	
 20.392	141.062	 15.26787	 -0.83521	 15.87147	 14.23799	  0.32928	 -0.97976	 19.31536	709.49500	 24.80	
 20.397	145.903	 15.28702	 -1.26518	 16.51957	 13.41483	  0.93627	 -0.99005	 19.33422	709.41498	 24.80	
 20.405	150.835	 15.30492	 -1.64683	 17.10420	 12.51480	  1.62433	 -0.99376	 19.34483	709.41901	 24.80	
 20.401	155.705	 15.30721	 -1.95054	 17.56347	 11.57795	  2.35940	 -0.98813	 19.32438	709.54303	 24.80	
 20.392	160.496	 15.34124	 -2.18587	 17.96519	 10.67189	  3.13014	 -0.95848	 19.33989	709.43402	 24.80	
 20.410	165.423	 15.33988	 -2.39120	 18.26641	  9.68375	  3.96337	 -0.92651	 19.33348	709.40802	 24.80	
 20.407	170.264	 15.36300	 -2.54189	 18.49971	  8.72282	  4.83241	 -0.89412	 19.34540	709.53802	 24.80	
 20.401	175.153	 15.34855	 -2.63453	 18.61156	  7.74580	  5.72996	 -0.85545	 19.32614	709.54602	 24.80	
  0.141	 45.000	 19.37442	 10.44107	 10.22768	 10.49909	 10.27560	  0.15829	 19.33944	709.68201	 24.80	
  4.001	128.691	 19.31281	  8.78184	 11.53134	 12.09156	  8.37729	  0.07090	 19.33468	709.53003	 24.80	
  4.002	 76.995	 19.32340	 10.73279	  9.51778	 12.58152	  7.97741	  0.07928	 19.34882	709.42798	 24.80	
  4.002	 25.892	 19.29765	 12.35087	  8.04469	 11.29209	  9.10969	  0.07608	 19.32704	709.40302	 24.80	
  4.002	-25.892	 19.31254	 12.33983	  8.08215	  9.27720	 11.13224	  0.04370	 19.34029	709.43402	 24.80	
  4.002	-76.995	 19.31179	 10.69350	  9.55842	  8.10580	 12.44485	  0.02730	 19.33195	709.45599	 24.80	
  4.001	-128.691	 19.29158	  8.74363	 11.55717	  8.48283	 11.94937	  0.06521	 19.30864	709.43298	 24.80	
  4.000	180.000	 19.33842	  7.98622	 12.48302	 10.22166	 10.12460	  0.08351	 19.34672	709.36401	 24.80	
  8.000	180.000	 18.99338	  5.29519	 14.54157	  9.75991	  9.66825	 -0.17451	 19.34917	709.54999	 24.80	
  7.991	-152.370	 19.00765	  5.74754	 13.98750	  7.64196	 11.89776	 -0.16324	 19.34851	709.56097	 24.80	
  7.997	-124.550	 18.95308	  7.09873	 12.40163	  6.06560	 13.67384	 -0.21595	 19.33471	709.56598	 24.80	
  8.006	-96.837	 18.89507	  9.11889	 10.21044	  5.36321	 14.51701	 -0.29613	 19.31235	709.49799	 24.80	
  7.988	-69.228	 18.90220	 11.39752	  8.00184	  5.62339	 14.23990	 -0.31908	 19.32026	709.52100	 24.80	
  7.997	-41.563	 18.87412	 13.33975	  6.24261	  6.77595	 12.87902	 -0.26168	 19.31013	709.54901	 24.80	
  8.008	-13.821	 18.86560	 14.47458	  5.29004	  8.69155	 10.77955	 -0.21571	 19.30579	709.61603	 24.80	
  8.008	 13.821	 18.89642	 14.50915	  5.27941	 10.96173	  8.54194	 -0.18189	 19.33163	709.56702	 24.80	
  7.997	 41.563	 18.89185	 13.39641	  6.18792	 13.01017	  6.66655	 -0.15988	 19.31779	709.57202	 24.80	
  7.988	 69.228	 18.89281	 11.46348	  7.90907	 14.35275	  5.51766	 -0.17924	 19.31591	709.46698	 24.80	
  8.006	 96.837	 18.88075	  9.20717	 10.10527	 14.63571	  5.26345	 -0.23703	 19.30297	709.59497	 24.80	
  7.997	124.550	 18.92930	  7.18801	 12.31558	 13.80983	  5.98078	 -0.22422	 19.34913	709.62299	 24.80	
  7.991	152.370	 18.94665	  5.79848	 13.93115	 11.99174	  7.54480	 -0.16621	 19.34263	709.75098	 24.80	
 12.009	161.059	 18.16478	  2.89248	 15.81489	 11.35335	  6.72661	 -0.50547	 19.31420	709.63898	 24.80	
 12.013	142.081	 18.10725	  3.84985	 14.59882	 13.49139	  4.83284	 -0.55454	 19.30515	709.69202	 24.80	
 12.006	123.113	 18.11381	  5.39392	 12.79413	 15.17343	  3.47640	 -0.63524	 19.33422	709.73999	 24.80	
 12.007	104.200	 18.09534	  7.38951	 10.56786	 16.17432	  2.68083	 -0.67463	 19.32819	709.72302	 24.80	
 11.989	 85.301	 18.10456	  9.67203	  8.26050	 16.37520	  2.55887	 -0.64690	 19.34141	709.50201	 24.80	
 12.013	 66.294	 18.09103	 11.95799	  6.10226	 15.76403	  3.04027	 -0.50324	 19.32847	709.56097	 24.80	
 12.012	 47.388	 18.05919	 13.97069	  4.33452	 14.40040	  4.13264	 -0.48794	 19.31082	709.64801	 24.80	
 11.990	 28.440	 18.03143	 15.45012	  3.12054	 12.49601	  5.73788	 -0.52427	 19.29888	709.60498	 24.80	
 11.991	  9.464	 18.07693	 16.28006	  2.52015	 10.29188	  7.81231	 -0.54939	 19.34856	709.60602	 24.80	
 11.991	 -9.464	 18.05382	 16.23955	  2.53520	  7.97552	 10.10688	 -0.55148	 19.32037	709.73297	 24.80	
 11.990	-28.440	 18.06121	 15.42842	  3.16511	  5.86753	 12.37805	 -0.55500	 19.31737	709.73999	 24.80	
 12.012	-47.388	 18.07820	 13.91842	  4.40664	  4.20909	 14.30465	 -0.61510	 19.32162	709.65399	 24.80	
 12.013	-66.294	 18.07736	 11.86080	  6.18399	  3.08967	 15.66590	 -0.66743	 19.31885	709.68500	 24.80	
 11.989	-85.301	 18.08765	  9.55275	  8.37082	  2.63906	 16.23959	 -0.66857	 19.31607	709.78003	 24.80	
 12.007	-104.200	 18.10379	  7.26995	 10.69347	  2.75776	 16.04679	 -0.61452	 19.32119	709.61200	 24.80	
 12.006	-123.113	 18.19022	  5.29837	 12.92515	  3.53516	 15.09614	 -0.53287	 19.36277	709.61603	 24.80	
 12.013	-142.081	 18.22157	  3.77313	 14.70923	  4.92297	 13.38812	 -0.51948	 19.33767	709.74402	 24.80	
 12.009	-161.059	 18.21958	  2.83562	 15.85576	  6.81051	 11.24156	 -0.50843	 19.31932	709.56000	 24.80	
 16.000	180.000	 17.02046	 -0.06285	 17.58829	  8.07236	  7.95303	 -0.86016	 19.29305	709.74597	 24.80	
 15.990	-165.604	 17.05780	  0.12217	 17.32058	  5.86491	 10.25959	 -0.82504	 19.31666	709.64301	 24.80	
 16.002	-151.165	 17.05545	  0.75476	 16.43469	  3.87827	 12.49970	 -0.81727	 19.31819	709.51501	 24.80	
 16.002	-136.836	 17.03594	  1.83526	 15.00095	  2.24251	 14.51262	 -0.78263	 19.33936	709.48199	 24.80	
 15.995	-122.439	 16.95922	  3.34809	 13.08088	  1.04577	 16.05702	 -0.75254	 19.29918	709.53497	 24.80	
 15.993	-107.966	 16.93499	  5.24634	 10.90037	  0.26118	 17.17071	 -0.77168	 19.35288	709.59497	 24.80	
 16.005	-93.629	 16.87965	  7.39322	  8.56914	 -0.06256	 17.61304	 -0.72799	 19.31248	709.70599	 24.80	
 15.992	-79.234	 16.87951	  9.72169	  6.30946	  0.06987	 17.49088	 -0.66358	 19.33040	709.58502	 24.70	
 16.009	-64.774	 16.87133	 12.01007	  4.24365	  0.62275	 16.73179	 -0.66296	 19.32492	709.53497	 24.70	
 15.997	-50.364	 16.88928	 14.10605	  2.52960	  1.65246	 15.40418	 -0.68478	 19.32986	709.52698	 24.70	
 15.997	-36.045	 16.88777	 15.81642	  1.21726	  3.07229	 13.63095	 -0.68485	 19.34370	709.49799	 24.70	
 16.000	-21.597	 16.84551	 16.99845	  0.35289	  4.89292	 11.47807	 -0.69300	 19.31877	709.46698	 24.70	
 16.003	 -7.169	 16.82631	 17.62518	 -0.09950	  7.01332	  9.15334	 -0.68524	 19.32062	709.49597	 24.70	
 16.003	  7.169	 16.79917	 17.62043	 -0.10161	  9.28464	  6.86013	 -0.68662	 19.31206	709.44598	 24.70	
 16.000	 21.597	 16.81029	 17.04489	  0.31027	 11.56753	  4.77773	 -0.68356	 19.32183	709.41101	 24.70	
 15.997	 36.045	 16.81970	 15.85585	  1.16268	 13.67474	  2.99182	 -0.72104	 19.30626	709.45001	 24.70	
 15.997	 50.364	 16.84074	 14.19259	  2.43719	 15.48402	  1.58831	 -0.73187	 19.31067	709.39697	 24.70	
 16.009	 64.774	 16.84945	 12.14566	  4.11485	 16.79840	  0.59243	 -0.77549	 19.31189	709.38800	 24.70	
 15.992	 79.234	 16.86131	  9.86533	  6.14327	 17.55569	  0.03644	 -0.88911	 19.32533	709.39502	 24.70	
 16.005	 93.629	 16.86243	  7.55726	  8.38592	 17.70207	 -0.08925	 -0.92316	 19.30667	709.40503	 24.70	
 15.993	107.966	 16.89220	  5.40629	 10.70937	 17.24788	  0.24291	 -0.91332	 19.31525	709.39203	 24.70	
 15.995	122.439	 16.94101	  3.51710	 12.96504	 16.22235	  1.00635	 -0.93897	 19.34272	709.38599	 24.70	
 16.002	136.836	 16.94565	  1.98287	 14.86751	 14.64958	  2.19749	 -0.90106	 19.31781	709.38898	 24.70	
 16.002	151.165	 16.95940	  0.86642	 16.32655	 12.65748	  3.78551	 -0.83894	 19.30709	709.42499	 24.70	
 15.990	165.604	 17.00491	  0.21266	 17.26016	 10.38648	  5.76703	 -0.82712	 19.29539	709.46399	 24.70	
 20.003	168.362	 15.50777	 -2.24685	 18.32668	  9.17337	  4.65583	 -0.92031	 19.32179	709.55200	 24.70	
 20.008	156.764	 15.47530	 -1.77865	 17.60320	 11.43164	  2.70776	 -0.98543	 19.32527	709.50500	 24.70	
 20.000	145.147	 15.42253	 -0.98283	 16.35508	 13.53580	  1.03694	 -0.99615	 19.29537	709.47803	 24.70	
 19.995	133.545	 15.42514	  0.15606	 14.74387	 15.41112	 -0.29296	 -0.96832	 19.32073	709.52600	 24.70	
 20.009	121.926	 15.37477	  1.59246	 12.79094	 16.91921	 -1.32588	 -0.89242	 19.32754	709.50201	 24.70	
 20.005	110.327	 15.37224	  3.36818	 10.62794	 17.97640	 -2.00136	 -0.79088	 19.33696	709.53601	 24.70	
 19.989	 98.733	 15.36026	  5.37969	  8.37007	 18.54827	 -2.36320	 -0.72655	 19.33159	709.47900	 24.70	
 19.999	 87.075	 15.32717	  7.57812	  6.10416	 18.65677	 -2.42969	 -0.77865	 19.32524	709.48499	 24.70	
 19.992	 75.457	 15.31413	  9.84357	  4.01692	 18.29342	 -2.18790	 -0.87146	 19.31962	709.52899	 24.80	
 20.009	 63.844	 15.29313	 12.05795	  2.14600	 17.47469	 -1.65050	 -0.87374	 19.32468	709.38098	 24.70	
 19.989	 52.269	 15.28232	 14.09851	  0.58229	 16.19329	 -0.78925	 -0.80901	 19.32983	709.37000	 24.70	
 19.999	 40.602	 15.25512	 15.85178	 -0.67520	 14.48864	  0.40910	 -0.70565	 19.31697	709.36700	 24.70	
 20.004	 29.051	 15.23456	 17.21307	 -1.58969	 12.50471	  1.91147	 -0.58858	 19.31467	709.51202	 24.70	
 20.005	 17.433	 15.21221	 18.13750	 -2.19625	 10.32711	  3.71497	 -0.53840	 19.29470	709.43298	 24.70	
 20.006	  5.780	 15.22800	 18.60168	 -2.50224	  8.08222	  5.75785	 -0.53802	 19.30949	709.61102	 24.70	
 20.006	 -5.780	 15.25199	 18.60126	 -2.50092	  5.88418	  7.96216	 -0.54820	 19.32449	709.35498	 24.70	
 20.005	-17.433	 15.27450	 18.11818	 -2.19475	  3.80798	 10.24790	 -0.57038	 19.31480	709.48999	 24.70	
 20.004	-29.051	 15.31846	 17.16023	 -1.56745	  1.98346	 12.44889	 -0.58315	 19.32097	709.46997	 24.70	
 19.999	-40.602	 15.37502	 15.77281	 -0.61870	  0.47417	 14.46027	 -0.57474	 19.35087	709.59998	 24.70	
 19.989	-52.269	 15.33700	 13.93251	  0.65501	 -0.75108	 16.13065	 -0.53262	 19.30687	709.48199	 24.70	
 20.009	-63.844	 15.36101	 11.89200	  2.25861	 -1.62167	 17.41735	 -0.49648	 19.33509	709.50403	 24.70	
 19.992	-75.457	 15.35626	  9.66070	  4.15497	 -2.17561	 18.23414	 -0.47917	 19.31983	709.38599	 24.70	
 19.999	-87.075	 15.35935	  7.38190	  6.27072	 -2.43305	 18.57794	 -0.52864	 19.32757	709.47302	 24.70	
 19.989	-98.733	 15.38052	  5.18070	  8.54161	 -2.38026	 18.46830	 -0.58150	 19.34013	709.54901	 24.70	
 20.005	-110.327	 15.40482	  3.16368	 10.81018	 -2.01022	 17.86584	 -0.70182	 19.34139	709.46997	 24.70	
 20.009	-121.926	 15.47758	  1.42771	 12.98540	 -1.30998	 16.82071	 -0.80818	 19.36916	709.45001	 24.70	
 19.995	-133.545	 15.48847	 -0.00857	 14.89192	 -0.27546	 15.27262	 -0.85505	 19.31191	709.59998	 24.70	
 20.000	-145.147	 15.54638	 -1.12084	 16.50338	  1.09872	 13.42757	 -0.83475	 19.32757	709.46997	 24.70	
 20.008	-156.764	 15.54481	 -1.89060	 17.67560	  2.78734	 11.27094	 -0.79339	 19.32172	709.38000	 24.70	
 20.003	-168.362	 15.52270	 -2.32293	 18.34393	  4.73513	  9.03422	 -0.78437	 19.29768	709.40002	 24.70	
 20.000	180.000	 15.52669	 -2.42923	 18.58098	  6.90949	  6.79810	 -0.84781	 19.32377	709.49298	 24.70	
