FileType=PCF
NHL=14
Date=03/12/19	15:27:44
Facility=APL
Serial=16071-1
Customer=NASA
NP=6
Mach=0.150000
Calibration=1:1
CalPts=490
TstPts=95
PortNumbering=AP Standard
Units=Torr C m/s kg/m^3 deg mm 
Theta[deg]	Phi[deg]	P1[Torr]	P2[Torr]	P3[Torr]	P4[Torr]	P5[Torr]	P6[Torr]	Pt[Torr]	Ps[Abs,Torr]	Ts[C]	
  0.000	  0.000	 10.95468	  4.46322	  4.81933	  4.65679	  4.50318	  0.22098	 10.95801	710.67999	 23.90	
  1.691	128.401	 10.95683	  4.11616	  5.14484	  5.11586	  4.04117	  0.20520	 10.96817	710.73999	 23.90	
  1.692	 77.194	 10.95858	  4.59264	  4.65942	  5.19575	  3.96248	  0.22396	 10.96460	710.69000	 23.90	
  1.699	 26.182	 10.95818	  4.99680	  4.28696	  4.85387	  4.28249	  0.23194	 10.96505	710.77002	 23.90	
  1.699	-26.182	 10.95419	  4.97484	  4.30718	  4.36662	  4.77551	  0.22361	 10.96481	710.70001	 23.90	
  1.692	-77.194	 10.95133	  4.57061	  4.70480	  4.10187	  5.06762	  0.20823	 10.96099	710.72998	 23.90	
  1.691	-128.401	 10.95492	  4.10001	  5.18733	  4.24117	  4.92302	  0.19364	 10.96602	710.70001	 23.90	
  1.700	180.000	 10.95765	  3.89747	  5.38508	  4.68670	  4.45864	  0.19164	 10.97003	710.71997	 23.90	
  3.400	180.000	 10.92434	  3.31685	  5.93063	  4.65195	  4.37804	  0.13552	 10.96169	710.73999	 23.90	
  3.388	-152.325	 10.92534	  3.43205	  5.81411	  4.13886	  4.91510	  0.14244	 10.96456	710.71997	 23.90	
  3.397	-124.529	 10.93206	  3.75910	  5.47364	  3.74691	  5.34814	  0.15558	 10.96634	710.66998	 23.90	
  3.399	-96.763	 10.93936	  4.26248	  4.94746	  3.53618	  5.61126	  0.16533	 10.96806	710.62000	 23.90	
  3.394	-69.283	 10.93772	  4.78464	  4.42375	  3.57495	  5.58586	  0.18265	 10.96330	710.71002	 23.90	
  3.400	-41.398	 10.94654	  5.25542	  3.96575	  3.84015	  5.27548	  0.19720	 10.96626	710.72998	 23.90	
  3.401	-14.021	 10.95171	  5.57415	  3.68813	  4.29209	  4.76147	  0.21654	 10.97057	710.71997	 23.90	
  3.401	 14.021	 10.95091	  5.59759	  3.65848	  4.82044	  4.24383	  0.22315	 10.96667	710.69000	 23.90	
  3.400	 41.398	 10.94173	  5.33237	  3.87937	  5.32422	  3.76906	  0.22322	 10.95888	710.76001	 23.90	
  3.394	 69.283	 10.94311	  4.84061	  4.31662	  5.69179	  3.44203	  0.21261	 10.96814	710.62000	 23.90	
  3.399	 96.763	 10.93239	  4.28716	  4.84292	  5.80003	  3.33837	  0.19025	 10.96147	710.69000	 23.90	
  3.397	124.529	 10.93212	  3.80151	  5.34928	  5.61562	  3.49578	  0.16245	 10.96711	710.75000	 23.90	
  3.388	152.325	 10.92878	  3.44993	  5.76700	  5.20346	  3.86107	  0.14956	 10.96693	710.64001	 23.90	
  5.099	161.165	 10.85643	  2.77884	  6.35370	  5.16894	  3.71088	  0.06894	 10.96466	710.70001	 23.90	
  5.109	142.013	 10.86231	  3.04132	  6.03640	  5.69268	  3.24210	  0.07892	 10.96560	710.77002	 23.90	
  5.095	123.033	 10.87620	  3.46639	  5.56015	  6.10641	  2.91498	  0.09754	 10.97232	710.70001	 24.00	
  5.105	104.191	 10.87698	  3.96974	  5.01933	  6.32174	  2.74689	  0.11657	 10.96082	710.72998	 23.90	
  5.093	 85.207	 10.89460	  4.53840	  4.44802	  6.35281	  2.73886	  0.14320	 10.97053	710.70001	 24.00	
  5.104	 66.290	 10.90303	  5.10325	  3.90929	  6.17704	  2.88367	  0.17774	 10.97406	710.66998	 24.00	
  5.094	 47.331	 10.91250	  5.61375	  3.47011	  5.81303	  3.20888	  0.19115	 10.97340	710.69000	 24.00	
  5.089	 28.397	 10.91102	  5.99406	  3.17308	  5.30206	  3.66932	  0.19062	 10.96795	710.59998	 24.00	
  5.096	  9.576	 10.91396	  6.16507	  3.03894	  4.75175	  4.17168	  0.17857	 10.96945	710.63000	 24.00	
  5.096	 -9.576	 10.91063	  6.15204	  3.05840	  4.18698	  4.72865	  0.17771	 10.96120	710.62000	 24.00	
  5.089	-28.397	 10.90640	  5.90563	  3.25751	  3.67020	  5.29120	  0.15339	 10.96325	710.67999	 24.00	
  5.094	-47.331	 10.91156	  5.50983	  3.60419	  3.25939	  5.76848	  0.14722	 10.97427	710.71002	 24.00	
  5.104	-66.290	 10.90372	  4.98525	  4.08009	  3.01248	  6.08012	  0.11732	 10.97415	710.67999	 24.00	
  5.093	-85.207	 10.89714	  4.42480	  4.62934	  2.93079	  6.19615	  0.10950	 10.97341	710.71997	 24.00	
  5.105	-104.191	 10.88048	  3.87106	  5.19039	  2.98007	  6.09860	  0.09007	 10.96977	710.71002	 24.00	
  5.095	-123.033	 10.88230	  3.38004	  5.74027	  3.20144	  5.81890	  0.08331	 10.97597	710.65997	 24.00	
  5.109	-142.013	 10.86537	  2.99508	  6.15833	  3.52507	  5.40301	  0.08027	 10.96896	710.72998	 24.00	
  5.099	-161.165	 10.86688	  2.75754	  6.43243	  4.03552	  4.84226	  0.06739	 10.97494	710.59998	 24.00	
  5.100	180.000	 10.85914	  2.68093	  6.49833	  4.59330	  4.26722	  0.06674	 10.97066	710.60999	 24.00	
  6.800	180.000	 10.74761	  2.00974	  7.04016	  4.50110	  4.11326	 -0.01639	 10.97224	710.58002	 24.00	
  6.796	-166.229	 10.75577	  2.06037	  6.99976	  3.94143	  4.68468	 -0.02208	 10.97748	710.70001	 24.00	
  6.808	-152.311	 10.75040	  2.22402	  6.80469	  3.40744	  5.25492	 -0.01780	 10.96894	710.71002	 24.00	
  6.795	-138.383	 10.75546	  2.50417	  6.47726	  2.96745	  5.76936	 -0.00623	 10.96744	710.78003	 24.00	
  6.792	-124.591	 10.77067	  2.89257	  6.05025	  2.65409	  6.19471	 -0.00381	 10.97192	710.78003	 24.00	
  6.787	-110.754	 10.78198	  3.35905	  5.53749	  2.43321	  6.51304	 -0.00212	 10.97480	710.71002	 24.00	
  6.800	-96.985	 10.79712	  3.87454	  4.98169	  2.29898	  6.70473	  0.00802	 10.97743	710.83002	 24.00	
  6.800	-83.015	 10.79906	  4.42626	  4.41059	  2.27416	  6.74162	  0.01625	 10.96848	710.65002	 24.00	
  6.787	-69.246	 10.81532	  4.99481	  3.87684	  2.37136	  6.62524	  0.02747	 10.97162	710.65997	 24.00	
  6.792	-55.409	 10.82335	  5.53791	  3.38757	  2.56379	  6.37023	  0.04253	 10.97483	710.63000	 24.00	
  6.795	-41.617	 10.82768	  6.00584	  2.98702	  2.86800	  5.99190	  0.05952	 10.97098	710.65997	 24.00	
  6.808	-27.689	 10.83018	  6.38617	  2.67023	  3.28888	  5.50030	  0.07562	 10.96806	710.56000	 24.00	
  6.796	-13.771	 10.84332	  6.63278	  2.47874	  3.80034	  4.94793	  0.09781	 10.97671	710.62000	 24.00	
  6.800	  0.000	 10.84091	  6.72900	  2.40076	  4.34398	  4.38449	  0.10974	 10.97452	710.66998	 24.00	
  6.796	 13.771	 10.84411	  6.66828	  2.43682	  4.91393	  3.83528	  0.11670	 10.97497	710.67999	 24.00	
  6.808	 27.689	 10.83513	  6.46841	  2.57231	  5.47094	  3.31926	  0.12044	 10.97027	710.67999	 24.00	
  6.795	 41.617	 10.82428	  6.12511	  2.83325	  5.98203	  2.86649	  0.11458	 10.97157	710.76001	 24.00	
  6.792	 55.409	 10.82055	  5.68429	  3.19353	  6.39995	  2.51291	  0.11389	 10.97193	710.71997	 24.00	
  6.787	 69.246	 10.81589	  5.15813	  3.65417	  6.70939	  2.25434	  0.10174	 10.97545	710.66998	 24.00	
  6.800	 83.015	 10.79569	  4.59231	  4.16651	  6.87866	  2.09681	  0.06909	 10.96812	710.73999	 24.00	
  6.800	 96.985	 10.79554	  4.02157	  4.73025	  6.90544	  2.06571	  0.04242	 10.97738	710.66998	 24.00	
  6.787	110.754	 10.78822	  3.48620	  5.29606	  6.77154	  2.15670	  0.02199	 10.97865	710.76001	 24.00	
  6.792	124.591	 10.77564	  3.00139	  5.83516	  6.50477	  2.35281	  0.01260	 10.97627	710.76001	 24.00	
  6.795	138.383	 10.76661	  2.60136	  6.30467	  6.12493	  2.65516	  0.00144	 10.97918	710.70001	 24.00	
  6.808	152.311	 10.75542	  2.27754	  6.68601	  5.63296	  3.06418	 -0.01557	 10.97260	710.77002	 24.00	
  6.796	166.229	 10.75383	  2.09099	  6.93338	  5.07493	  3.57447	 -0.01857	 10.97273	710.75000	 24.00	
  8.491	168.704	 10.59396	  1.40655	  7.45968	  4.97506	  3.38106	 -0.11649	 10.97193	710.72998	 24.00	
  8.502	157.493	 10.60405	  1.57173	  7.24729	  5.55761	  2.86413	 -0.11769	 10.97667	710.71002	 24.00	
  8.494	146.194	 10.61338	  1.83486	  6.91868	  6.09485	  2.40369	 -0.10891	 10.98021	710.73999	 24.00	
  8.495	135.039	 10.61563	  2.17411	  6.48760	  6.55034	  2.03503	 -0.08942	 10.97240	710.66998	 24.00	
  8.487	123.723	 10.63007	  2.59288	  5.98683	  6.94452	  1.73172	 -0.08389	 10.97627	710.71997	 24.00	
  8.492	112.575	 10.63791	  3.07081	  5.43927	  7.23115	  1.52246	 -0.08745	 10.97576	710.78998	 24.00	
  8.510	101.220	 10.64723	  3.62142	  4.85094	  7.40506	  1.40152	 -0.07209	 10.97799	710.85999	 24.00	
  8.500	 90.000	 10.66269	  4.19120	  4.27519	  7.44817	  1.39183	 -0.04158	 10.97935	710.77002	 24.00	
  8.510	 78.780	 10.66986	  4.77465	  3.71472	  7.36315	  1.46512	 -0.02463	 10.97808	710.84003	 24.00	
  8.492	 67.425	 10.68514	  5.36320	  3.19047	  7.14621	  1.64916	 -0.00406	 10.98155	710.90997	 24.00	
  8.487	 56.277	 10.69044	  5.89513	  2.74236	  6.81967	  1.91680	  0.00963	 10.97076	710.83002	 24.00	
  8.495	 44.961	 10.69955	  6.37080	  2.36789	  6.39492	  2.27287	  0.02482	 10.96905	710.83002	 24.10	
  8.494	 33.806	 10.71015	  6.75916	  2.07471	  5.91346	  2.68217	  0.03827	 10.97307	710.77002	 24.00	
  8.502	 22.507	 10.71964	  7.05452	  1.87014	  5.35707	  3.17811	  0.03283	 10.97283	710.75000	 24.00	
  8.491	 11.296	 10.72342	  7.21839	  1.76563	  4.77677	  3.72249	  0.02576	 10.97729	710.78003	 24.10	
  8.500	  0.000	 10.72468	  7.26725	  1.73867	  4.19456	  4.29133	  0.02270	 10.97716	710.82001	 24.10	
  8.491	-11.296	 10.71887	  7.18059	  1.80942	  3.62407	  4.87777	  0.00918	 10.97394	710.78003	 24.10	
  8.502	-22.507	 10.71438	  6.97003	  1.97451	  3.08880	  5.45656	 -0.01419	 10.97354	710.83002	 24.10	
  8.494	-33.806	 10.71097	  6.63666	  2.23510	  2.62989	  5.98718	 -0.03396	 10.97706	710.91998	 24.10	
  8.495	-44.961	 10.70408	  6.21419	  2.57733	  2.24339	  6.45088	 -0.04454	 10.97434	710.78003	 24.10	
  8.487	-56.277	 10.70071	  5.71020	  2.99813	  1.94356	  6.83553	 -0.06407	 10.98144	710.88000	 24.10	
  8.492	-67.425	 10.69010	  5.16407	  3.47588	  1.74125	  7.11139	 -0.08458	 10.98062	710.89001	 24.10	
  8.510	-78.780	 10.67406	  4.57336	  4.02151	  1.61995	  7.26269	 -0.08842	 10.97643	710.90997	 24.10	
  8.500	-90.000	 10.66259	  3.99679	  4.58765	  1.59749	  7.28214	 -0.09015	 10.97454	710.87000	 24.10	
  8.510	-101.220	 10.65127	  3.44371	  5.16465	  1.65829	  7.18272	 -0.10018	 10.97929	710.84003	 24.10	
  8.492	-112.575	 10.64011	  2.91631	  5.74146	  1.81395	  6.95090	 -0.11008	 10.97807	710.76001	 24.10	
  8.487	-123.723	 10.62808	  2.46318	  6.25537	  2.04725	  6.61492	 -0.10786	 10.97412	710.84998	 24.10	
  8.495	-135.039	 10.61494	  2.05732	  6.72574	  2.36449	  6.17876	 -0.10406	 10.96962	710.84998	 24.10	
  8.494	-146.194	 10.60627	  1.73476	  7.10458	  2.76751	  5.67928	 -0.11214	 10.97470	710.81000	 24.10	
  8.502	-157.493	 10.59821	  1.49886	  7.38297	  3.25128	  5.11893	 -0.12090	 10.97561	710.82001	 24.10	
  8.491	-168.704	 10.59586	  1.37067	  7.53007	  3.80345	  4.52990	 -0.12114	 10.97722	710.83002	 24.10	
  8.500	180.000	 10.59760	  1.33241	  7.56804	  4.38726	  3.94277	 -0.11582	 10.98010	710.79999	 24.10	
 10.200	180.000	 10.39968	  0.67997	  8.04404	  4.23826	  3.75336	 -0.22245	 10.97720	710.85999	 24.10	
 10.191	-170.497	 10.40158	  0.70726	  8.02913	  3.64935	  4.34252	 -0.22328	 10.97888	710.77002	 24.10	
 10.210	-161.034	 10.40587	  0.81118	  7.90777	  3.08356	  4.94484	 -0.22380	 10.97860	710.83002	 24.10	
 10.194	-151.526	 10.41528	  1.00592	  7.67106	  2.58093	  5.52645	 -0.21486	 10.97909	710.77002	 24.10	
 10.190	-142.105	 10.42083	  1.27650	  7.34114	  2.13464	  6.07228	 -0.19875	 10.97380	710.82001	 24.10	
 10.215	-132.646	 10.42827	  1.61330	  6.92577	  1.75019	  6.57627	 -0.20030	 10.97176	710.81000	 24.10	
 10.203	-123.092	 10.44429	  2.01916	  6.44160	  1.44225	  7.01340	 -0.20645	 10.97935	710.71997	 24.10	
 10.192	-113.678	 10.46004	  2.47169	  5.91520	  1.21480	  7.35054	 -0.21187	 10.98213	710.82001	 24.10	
 10.208	-104.249	 10.46538	  2.97405	  5.34827	  1.04803	  7.59874	 -0.20388	 10.97260	710.82001	 24.10	
 10.210	-94.801	 10.48454	  3.52869	  4.76040	  0.95884	  7.75295	 -0.19241	 10.97964	710.83002	 24.10	
 10.210	-85.199	 10.48878	  4.10609	  4.16905	  0.94140	  7.78219	 -0.19538	 10.97060	710.71997	 24.10	
 10.208	-75.751	 10.50141	  4.69703	  3.60364	  0.99100	  7.71967	 -0.19823	 10.97481	710.79999	 24.10	
 10.192	-66.322	 10.51776	  5.28616	  3.06870	  1.11823	  7.54979	 -0.19014	 10.97810	710.76001	 24.10	
 10.203	-56.908	 10.51890	  5.84074	  2.58033	  1.30794	  7.26973	 -0.17504	 10.96824	710.91998	 24.10	
 10.215	-47.354	 10.53051	  6.37345	  2.14540	  1.58537	  6.89602	 -0.15969	 10.97295	710.85999	 24.10	
 10.190	-37.895	 10.54404	  6.83784	  1.78606	  1.96228	  6.43340	 -0.14903	 10.97568	710.78998	 24.10	
 10.194	-28.474	 10.54830	  7.21595	  1.49125	  2.38803	  5.91629	 -0.13382	 10.97141	710.77002	 24.10	
 10.210	-18.966	 10.55267	  7.50982	  1.27024	  2.87817	  5.35272	 -0.11595	 10.97386	710.77002	 24.10	
 10.191	 -9.503	 10.55940	  7.68805	  1.14223	  3.43524	  4.75670	 -0.08656	 10.97157	710.73999	 24.10	
 10.200	  0.000	 10.56257	  7.77067	  1.07595	  4.01168	  4.16172	 -0.07554	 10.97753	710.67999	 24.10	
 10.191	  9.503	 10.56313	  7.73196	  1.09396	  4.59754	  3.58481	 -0.07133	 10.97297	710.70001	 24.10	
 10.210	 18.966	 10.55966	  7.59695	  1.17132	  5.19524	  3.02158	 -0.06918	 10.97827	710.82001	 24.10	
 10.194	 28.474	 10.55055	  7.34151	  1.33700	  5.77275	  2.50688	 -0.05764	 10.97371	710.82001	 24.10	
 10.190	 37.895	 10.54207	  7.00011	  1.58289	  6.30468	  2.05896	 -0.05623	 10.97391	710.87000	 24.10	
 10.215	 47.354	 10.53605	  6.57673	  1.89746	  6.80345	  1.65144	 -0.07502	 10.97895	710.79999	 24.10	
 10.203	 56.908	 10.52547	  6.07348	  2.28660	  7.22447	  1.30599	 -0.09933	 10.98117	710.82001	 24.10	
 10.192	 66.322	 10.50760	  5.52451	  2.73098	  7.55011	  1.04827	 -0.11399	 10.97319	710.96002	 24.10	
 10.208	 75.751	 10.49722	  4.94030	  3.23985	  7.78777	  0.85970	 -0.12882	 10.97755	710.79999	 24.10	
 10.210	 85.199	 10.48250	  4.34603	  3.79062	  7.91597	  0.75140	 -0.13671	 10.97618	710.70001	 24.10	
 10.210	 94.801	 10.47338	  3.75179	  4.37390	  7.93882	  0.72465	 -0.16317	 10.98097	710.77002	 24.10	
 10.208	104.249	 10.45785	  3.18022	  4.96409	  7.84917	  0.77375	 -0.18768	 10.97600	710.82001	 24.10	
 10.192	113.678	 10.45136	  2.64510	  5.55377	  7.65611	  0.89888	 -0.19679	 10.97899	710.82001	 24.10	
 10.203	123.092	 10.44090	  2.17517	  6.10802	  7.36522	  1.11133	 -0.19800	 10.97794	710.78998	 24.10	
 10.215	132.646	 10.42747	  1.74581	  6.62926	  6.97365	  1.39838	 -0.19805	 10.97366	710.96002	 24.10	
 10.190	142.105	 10.41819	  1.39726	  7.08811	  6.51040	  1.76086	 -0.20868	 10.97376	710.84003	 24.10	
 10.194	151.526	 10.40604	  1.11076	  7.46286	  5.99974	  2.17026	 -0.21985	 10.96954	710.70001	 24.10	
 10.210	161.034	 10.40571	  0.88347	  7.76656	  5.44119	  2.64874	 -0.22237	 10.97813	710.83002	 24.10	
 10.191	170.497	 10.40457	  0.74070	  7.95946	  4.83941	  3.18725	 -0.22048	 10.97771	710.75000	 24.10	
 11.899	171.783	 10.17216	  0.08788	  8.42028	  4.66751	  2.97084	 -0.31436	 10.97728	710.79999	 24.10	
 11.890	163.610	 10.17682	  0.22297	  8.24319	  5.27761	  2.43242	 -0.32533	 10.97892	710.79999	 24.10	
 11.889	155.445	 10.18422	  0.41777	  7.97702	  5.85929	  1.94377	 -0.33014	 10.97896	710.73999	 24.20	
 11.909	147.299	 10.18912	  0.65289	  7.64013	  6.40065	  1.49939	 -0.32212	 10.97993	710.75000	 24.10	
 11.902	139.148	 10.19134	  0.95343	  7.21738	  6.90337	  1.11136	 -0.31062	 10.97343	710.76001	 24.10	
 11.894	130.867	 10.20541	  1.32433	  6.73173	  7.36195	  0.77521	 -0.30355	 10.97307	710.84003	 24.20	
 11.897	122.732	 10.21339	  1.74801	  6.19808	  7.73644	  0.51378	 -0.30435	 10.97556	710.76001	 24.20	
 11.903	114.597	 10.22220	  2.21253	  5.63745	  8.02939	  0.31112	 -0.30791	 10.97518	710.78003	 24.20	
 11.893	106.346	 10.23948	  2.74134	  5.04602	  8.24487	  0.17854	 -0.30318	 10.97653	710.81000	 24.20	
 11.892	 98.155	 10.25133	  3.30570	  4.44487	  8.36469	  0.11122	 -0.28782	 10.97677	710.72998	 24.20	
 11.900	 90.000	 10.25875	  3.88572	  3.85831	  8.39061	  0.10688	 -0.26343	 10.97263	710.85999	 24.20	
 11.892	 81.845	 10.27139	  4.47569	  3.30237	  8.32107	  0.16798	 -0.24557	 10.97506	710.85999	 24.20	
 11.893	 73.654	 10.29394	  5.08470	  2.76536	  8.16543	  0.28923	 -0.23439	 10.98224	710.73999	 24.20	
 11.903	 65.403	 10.29766	  5.67299	  2.26121	  7.90732	  0.47559	 -0.22783	 10.97594	710.84003	 24.20	
 11.897	 57.268	 10.31070	  6.22386	  1.81924	  7.57962	  0.71868	 -0.20596	 10.97584	710.75000	 24.20	
 11.894	 49.133	 10.32452	  6.73797	  1.43124	  7.17008	  1.03579	 -0.18539	 10.98133	710.78998	 24.20	
 11.902	 40.852	 10.33228	  7.19774	  1.09658	  6.67825	  1.41713	 -0.16436	 10.97098	710.79999	 24.20	
 11.909	 32.701	 10.34404	  7.58085	  0.83157	  6.14810	  1.85314	 -0.15740	 10.97342	710.82001	 24.20	
 11.889	 24.555	 10.35519	  7.87235	  0.64233	  5.59107	  2.33383	 -0.16169	 10.97392	710.78998	 24.20	
 11.890	 16.390	 10.36304	  8.08513	  0.51438	  5.00034	  2.86360	 -0.16652	 10.97394	710.77002	 24.20	
 11.899	  8.217	 10.35983	  8.20712	  0.44348	  4.39611	  3.42651	 -0.17196	 10.97112	710.78998	 24.20	
 11.900	  0.000	 10.36562	  8.23692	  0.42871	  3.80640	  4.00901	 -0.17710	 10.97400	710.82001	 24.20	
 11.899	 -8.217	 10.36171	  8.17360	  0.48530	  3.22644	  4.61311	 -0.18674	 10.97303	710.72998	 24.20	
 11.890	-16.390	 10.35795	  8.00153	  0.60661	  2.67005	  5.21933	 -0.21316	 10.97802	710.78003	 24.20	
 11.889	-24.555	 10.35479	  7.74735	  0.79113	  2.15960	  5.79612	 -0.23517	 10.97988	710.77002	 24.20	
 11.909	-32.701	 10.34483	  7.40783	  1.03016	  1.69312	  6.34544	 -0.25491	 10.97405	710.78998	 24.20	
 11.902	-40.852	 10.33302	  6.98335	  1.33900	  1.28663	  6.85249	 -0.26281	 10.97936	710.77002	 24.20	
 11.894	-49.133	 10.33049	  6.48515	  1.72914	  0.95068	  7.30649	 -0.26092	 10.98027	710.88000	 24.20	
 11.897	-57.268	 10.32241	  5.95267	  2.16138	  0.70359	  7.66317	 -0.27608	 10.97729	710.71002	 24.20	
 11.903	-65.403	 10.31398	  5.39173	  2.64332	  0.51829	  7.94839	 -0.28424	 10.98007	710.70001	 24.20	
 11.893	-73.654	 10.29402	  4.78961	  3.17189	  0.39264	  8.13731	 -0.28616	 10.96922	710.83002	 24.20	
 11.892	-81.845	 10.28566	  4.19155	  3.73486	  0.32331	  8.24293	 -0.27843	 10.97731	710.81000	 24.20	
 11.900	-90.000	 10.27390	  3.61250	  4.30489	  0.30747	  8.25379	 -0.27105	 10.97670	710.87000	 24.20	
 11.892	-98.155	 10.25602	  3.04430	  4.89493	  0.35703	  8.16187	 -0.27618	 10.97420	710.90002	 24.20	
 11.893	-106.346	 10.24641	  2.50583	  5.48670	  0.46230	  7.98053	 -0.28019	 10.97561	710.90997	 24.20	
 11.903	-114.597	 10.23138	  2.00473	  6.06227	  0.63687	  7.70854	 -0.28362	 10.97549	710.90002	 24.20	
 11.897	-122.732	 10.21987	  1.56381	  6.59552	  0.86208	  7.35552	 -0.28775	 10.97771	710.89001	 24.20	
 11.894	-130.867	 10.20906	  1.16522	  7.09035	  1.15194	  6.93038	 -0.28088	 10.97584	710.84998	 24.20	
 11.902	-139.148	 10.19592	  0.82091	  7.53269	  1.50668	  6.43869	 -0.28254	 10.97714	710.78998	 24.20	
 11.909	-147.299	 10.18040	  0.52840	  7.89617	  1.91137	  5.89292	 -0.29800	 10.97253	710.78998	 24.20	
 11.889	-155.445	 10.17614	  0.31747	  8.17627	  2.38833	  5.32364	 -0.30551	 10.97404	710.81000	 24.20	
 11.890	-163.610	 10.17256	  0.15413	  8.38273	  2.90386	  4.73967	 -0.31288	 10.98235	710.83002	 24.20	
 11.899	-171.783	 10.16797	  0.06075	  8.48908	  3.47023	  4.13455	 -0.31678	 10.97936	710.85999	 24.20	
 11.900	180.000	 10.16619	  0.03601	  8.50323	  4.06413	  3.53596	 -0.31474	 10.97553	710.79999	 24.20	
 13.600	180.000	  9.88929	 -0.59660	  8.92427	  3.85627	  3.29138	 -0.39192	 10.97709	710.79999	 24.20	
 13.608	-172.853	  9.88688	 -0.58232	  8.91856	  3.26793	  3.87434	 -0.39510	 10.97508	710.81000	 24.20	
 13.611	-165.583	  9.89179	 -0.49940	  8.83094	  2.69877	  4.48807	 -0.38921	 10.98000	710.82001	 24.20	
 13.601	-158.353	  9.89910	 -0.35815	  8.65084	  2.17660	  5.08355	 -0.37079	 10.97472	710.87000	 24.20	
 13.609	-151.210	  9.90880	 -0.16964	  8.39553	  1.68966	  5.67232	 -0.35781	 10.97430	710.81000	 24.20	
 13.611	-143.999	  9.91701	  0.07429	  8.06368	  1.26030	  6.23919	 -0.34344	 10.96976	710.94000	 24.20	
 13.601	-136.825	  9.92619	  0.36592	  7.67114	  0.88755	  6.76179	 -0.33301	 10.96842	711.03003	 24.20	
 13.596	-129.640	  9.95230	  0.70771	  7.22539	  0.56906	  7.24626	 -0.32867	 10.97970	710.88000	 24.20	
 13.611	-122.431	  9.95285	  1.09206	  6.71352	  0.27631	  7.67281	 -0.33045	 10.97166	710.82001	 24.20	
 13.604	-115.211	  9.96461	  1.52773	  6.16385	  0.04778	  8.03629	 -0.33030	 10.97013	710.92999	 24.20	
 13.595	-108.042	  9.98458	  2.01058	  5.59818	 -0.12546	  8.32799	 -0.32619	 10.97536	710.87000	 24.20	
 13.607	-100.793	  9.99177	  2.53084	  5.00458	 -0.25101	  8.53880	 -0.32004	 10.97695	710.89001	 24.20	
 13.601	-93.617	 10.01125	  3.08760	  4.41164	 -0.31565	  8.66406	 -0.31642	 10.97655	710.90002	 24.20	
 13.601	-86.383	 10.01857	  3.66670	  3.82603	 -0.32989	  8.70061	 -0.32698	 10.97152	710.90002	 24.20	
 13.607	-79.207	 10.03474	  4.25850	  3.25939	 -0.29726	  8.66078	 -0.33181	 10.97704	711.01001	 24.20	
 13.595	-71.958	 10.04832	  4.86396	  2.70287	 -0.21620	  8.53465	 -0.34105	 10.97412	710.98999	 24.20	
 13.604	-64.789	 10.05729	  5.44682	  2.19081	 -0.08608	  8.31999	 -0.34094	 10.97302	710.92999	 24.20	
 13.611	-57.569	 10.07220	  6.02658	  1.71896	  0.08820	  8.03445	 -0.34370	 10.97916	710.90002	 24.20	
 13.596	-50.360	 10.07887	  6.57453	  1.28961	  0.33423	  7.65696	 -0.34076	 10.97308	710.94000	 24.20	
 13.601	-43.175	 10.08588	  7.07612	  0.90799	  0.62870	  7.23378	 -0.34459	 10.97308	710.94000	 24.20	
 13.611	-36.001	 10.08800	  7.52611	  0.57912	  0.99306	  6.74354	 -0.34719	 10.97320	710.94000	 24.20	
 13.609	-28.790	 10.09957	  7.91874	  0.30938	  1.42423	  6.20080	 -0.34274	 10.97211	710.85999	 24.20	
 13.601	-21.647	 10.10849	  8.22968	  0.09819	  1.90336	  5.63246	 -0.32928	 10.97421	710.83002	 24.20	
 13.611	-14.417	 10.11738	  8.47086	 -0.06294	  2.42691	  5.04270	 -0.31262	 10.97598	710.84003	 24.20	
 13.608	 -7.147	 10.11695	  8.61541	 -0.16168	  2.99258	  4.42374	 -0.28772	 10.96923	710.87000	 24.20	
 13.600	  0.000	 10.12841	  8.68162	 -0.20649	  3.57281	  3.82816	 -0.28366	 10.97896	710.89001	 24.20	
 13.608	  7.147	 10.12596	  8.66275	 -0.20199	  4.15422	  3.25192	 -0.27755	 10.97549	711.01001	 24.20	
 13.611	 14.417	 10.12256	  8.55567	 -0.15200	  4.76348	  2.67469	 -0.27765	 10.97360	710.89001	 24.20	
 13.601	 21.647	 10.11692	  8.35982	 -0.04077	  5.36450	  2.13620	 -0.26588	 10.97634	710.95001	 24.20	
 13.609	 28.790	 10.11254	  8.09740	  0.12130	  5.94069	  1.64428	 -0.26118	 10.97770	710.90002	 24.20	
 13.611	 36.001	 10.09676	  7.75247	  0.33972	  6.50066	  1.18462	 -0.26352	 10.97621	710.95001	 24.20	
 13.601	 43.175	 10.08069	  7.33603	  0.61855	  7.01721	  0.78375	 -0.27736	 10.97270	710.96997	 24.20	
 13.596	 50.360	 10.07988	  6.87066	  0.95172	  7.48838	  0.43663	 -0.29920	 10.98132	710.91998	 24.20	
 13.611	 57.569	 10.06158	  6.33923	  1.33331	  7.89632	  0.13306	 -0.32741	 10.97576	710.90002	 24.20	
 13.604	 64.789	 10.05166	  5.77829	  1.77465	  8.24357	 -0.10860	 -0.34785	 10.98168	711.03998	 24.20	
 13.595	 71.958	 10.03489	  5.19055	  2.25026	  8.50578	 -0.29512	 -0.35479	 10.97847	710.95001	 24.20	
 13.607	 79.207	 10.01971	  4.58700	  2.77498	  8.69794	 -0.42947	 -0.36137	 10.97618	710.97998	 24.30	
 13.601	 86.383	 10.00965	  3.98704	  3.32965	  8.80626	 -0.50667	 -0.37753	 10.97980	710.90002	 24.20	
 13.601	 93.617	  9.98477	  3.38779	  3.90089	  8.81974	 -0.53039	 -0.39553	 10.96806	710.85999	 24.20	
 13.607	100.793	  9.97752	  2.81648	  4.49330	  8.75887	 -0.50611	 -0.41811	 10.96791	710.84998	 24.20	
 13.595	108.042	  9.97728	  2.27177	  5.10038	  8.61733	 -0.41422	 -0.42638	 10.98273	710.84998	 24.20	
 13.604	115.211	  9.95717	  1.76394	  5.68029	  8.38148	 -0.27404	 -0.42296	 10.97189	710.92999	 24.30	
 13.611	122.431	  9.94967	  1.29769	  6.25844	  8.08174	 -0.08445	 -0.41686	 10.97586	710.90997	 24.30	
 13.596	129.640	  9.93900	  0.88060	  6.79750	  7.70146	  0.16855	 -0.41607	 10.97330	710.94000	 24.20	
 13.601	136.825	  9.92706	  0.51911	  7.29598	  7.27615	  0.46102	 -0.42424	 10.98084	710.96997	 24.20	
 13.611	143.999	  9.91379	  0.20234	  7.74146	  6.77699	  0.81880	 -0.42936	 10.97251	710.91998	 24.30	
 13.609	151.210	  9.91040	 -0.05130	  8.13074	  6.23973	  1.23758	 -0.43300	 10.97865	710.91998	 24.30	
 13.601	158.353	  9.89939	 -0.26567	  8.43732	  5.67319	  1.68640	 -0.43298	 10.97093	710.88000	 24.30	
 13.611	165.583	  9.89184	 -0.45404	  8.69030	  5.07452	  2.17634	 -0.42056	 10.97758	710.81000	 24.30	
 13.608	172.853	  9.88250	 -0.56756	  8.84856	  4.44756	  2.72730	 -0.40486	 10.96658	710.90002	 24.30	
 15.298	173.587	  9.58162	 -1.17136	  9.23168	  4.22791	  2.46964	 -0.47119	 10.97602	710.91998	 24.30	
 15.291	167.167	  9.58361	 -1.08094	  9.08261	  4.84047	  1.93235	 -0.49517	 10.97207	710.89001	 24.30	
 15.307	160.676	  9.59327	 -0.92569	  8.86822	  5.45326	  1.42716	 -0.51828	 10.97595	710.94000	 24.30	
 15.300	154.261	  9.60183	 -0.72654	  8.57760	  6.03143	  0.97281	 -0.53681	 10.97648	710.84003	 24.30	
 15.288	147.854	  9.60233	 -0.49917	  8.21432	  6.58564	  0.55428	 -0.54016	 10.97011	710.95001	 24.30	
 15.293	141.428	  9.61781	 -0.23135	  7.80132	  7.11465	  0.17652	 -0.53168	 10.97450	710.92999	 24.30	
 15.299	134.985	  9.62764	  0.08390	  7.33618	  7.58694	 -0.14673	 -0.52567	 10.97419	710.90002	 24.30	
 15.305	128.583	  9.63501	  0.44114	  6.82407	  8.01827	 -0.43263	 -0.52191	 10.97289	710.84998	 24.30	
 15.309	122.142	  9.64631	  0.84819	  6.27740	  8.39349	 -0.67040	 -0.53261	 10.97415	711.00000	 24.30	
 15.304	115.711	  9.65323	  1.30254	  5.69742	  8.70289	 -0.85870	 -0.54296	 10.97484	710.96997	 24.30	
 15.297	109.291	  9.66960	  1.79819	  5.11290	  8.94231	 -0.99453	 -0.55321	 10.97629	710.95001	 24.30	
 15.293	102.897	  9.67975	  2.31932	  4.52335	  9.10219	 -1.08062	 -0.54502	 10.97338	711.01001	 24.30	
 15.293	 96.458	  9.69162	  2.88454	  3.92585	  9.19500	 -1.12706	 -0.52452	 10.97383	710.91998	 24.30	
 15.300	 90.000	  9.70916	  3.46730	  3.34638	  9.21596	 -1.12715	 -0.50820	 10.97844	710.95001	 24.30	
 15.293	 83.542	  9.71611	  4.06583	  2.77905	  9.15219	 -1.08651	 -0.48860	 10.97229	710.92999	 24.30	
 15.293	 77.103	  9.73109	  4.67062	  2.23546	  9.02244	 -1.00302	 -0.48180	 10.97377	710.96997	 24.30	
 15.297	 70.709	  9.74335	  5.26573	  1.73748	  8.81764	 -0.86854	 -0.47976	 10.97510	710.87000	 24.30	
 15.304	 64.289	  9.76341	  5.85533	  1.27377	  8.54438	 -0.68633	 -0.47163	 10.98285	710.95001	 24.30	
 15.309	 57.858	  9.77590	  6.42531	  0.84543	  8.19775	 -0.45490	 -0.45189	 10.97975	710.97998	 24.30	
 15.305	 51.417	  9.79217	  6.95825	  0.46927	  7.78513	 -0.16589	 -0.42312	 10.98306	710.94000	 24.30	
 15.299	 45.015	  9.80406	  7.44666	  0.14092	  7.32140	  0.16512	 -0.39494	 10.97781	711.02002	 24.30	
 15.293	 38.572	  9.81662	  7.87744	 -0.13833	  6.82072	  0.53693	 -0.37462	 10.97739	710.90997	 24.30	
 15.288	 32.146	  9.82630	  8.25109	 -0.37148	  6.26712	  0.96102	 -0.37322	 10.97445	710.90002	 24.30	
 15.300	 25.739	  9.83881	  8.56813	 -0.55932	  5.69384	  1.42578	 -0.37123	 10.97652	710.90997	 24.30	
 15.307	 19.324	  9.84424	  8.80533	 -0.69059	  5.10758	  1.92562	 -0.38073	 10.97420	710.84003	 24.30	
 15.291	 12.833	  9.85552	  8.97531	 -0.77598	  4.50144	  2.47461	 -0.38149	 10.97743	710.88000	 24.30	
 15.298	  6.413	  9.85739	  9.07059	 -0.81808	  3.90011	  3.04055	 -0.38116	 10.97891	710.89001	 24.30	
 15.300	  0.000	  9.85888	  9.08755	 -0.82130	  3.31796	  3.61923	 -0.37579	 10.97762	711.03003	 24.30	
 15.298	 -6.413	  9.85112	  9.02712	 -0.78481	  2.74080	  4.21514	 -0.37741	 10.97971	710.97998	 24.30	
 15.291	-12.833	  9.84599	  8.89179	 -0.69933	  2.17871	  4.82944	 -0.38839	 10.97816	710.91998	 24.30	
 15.307	-19.324	  9.83589	  8.68097	 -0.56871	  1.64729	  5.42833	 -0.40229	 10.97765	710.90002	 24.30	
 15.300	-25.739	  9.82158	  8.38693	 -0.38554	  1.15497	  6.01427	 -0.41065	 10.97385	710.84998	 24.30	
 15.288	-32.146	  9.82524	  8.03536	 -0.14947	  0.71044	  6.57876	 -0.40524	 10.97996	710.90002	 24.30	
 15.293	-38.572	  9.81525	  7.61094	  0.13676	  0.32750	  7.09757	 -0.40017	 10.97933	710.92999	 24.30	
 15.299	-45.015	  9.80817	  7.13808	  0.46848	 -0.01153	  7.57961	 -0.38673	 10.98114	710.96997	 24.30	
 15.305	-51.417	  9.79236	  6.61915	  0.84319	 -0.29177	  7.99844	 -0.37997	 10.97495	710.84998	 24.30	
 15.309	-57.858	  9.78253	  6.06586	  1.26340	 -0.51269	  8.36518	 -0.37030	 10.97553	710.91998	 24.30	
 15.304	-64.289	  9.77046	  5.48567	  1.73529	 -0.66352	  8.65688	 -0.36365	 10.97239	710.98999	 24.30	
 15.297	-70.709	  9.77131	  4.90646	  2.23461	 -0.78300	  8.88123	 -0.35867	 10.97900	710.95001	 24.30	
 15.293	-77.103	  9.75849	  4.31547	  2.76937	 -0.87027	  9.02255	 -0.34710	 10.98004	711.00000	 24.30	
 15.293	-83.542	  9.74232	  3.70911	  3.33055	 -0.92167	  9.09002	 -0.33591	 10.97469	711.03003	 24.30	
 15.300	-90.000	  9.72789	  3.12488	  3.91147	 -0.93010	  9.08982	 -0.32797	 10.97601	710.95001	 24.30	
 15.293	-96.458	  9.71490	  2.55676	  4.50209	 -0.89093	  9.00897	 -0.32766	 10.97227	711.03003	 24.30	
 15.293	-102.897	  9.70344	  2.01553	  5.10236	 -0.81152	  8.85559	 -0.32758	 10.98100	711.00000	 24.30	
 15.297	-109.291	  9.68090	  1.51178	  5.67516	 -0.69400	  8.63164	 -0.33098	 10.97321	711.06000	 24.30	
 15.304	-115.711	  9.67610	  1.04581	  6.25011	 -0.52166	  8.34264	 -0.33292	 10.98523	710.92999	 24.30	
 15.309	-122.142	  9.65209	  0.61991	  6.79359	 -0.30729	  7.96624	 -0.34262	 10.97147	710.98999	 24.30	
 15.305	-128.583	  9.64462	  0.24207	  7.30884	 -0.03998	  7.54069	 -0.34395	 10.97644	711.00000	 24.30	
 15.299	-134.985	  9.63601	 -0.08642	  7.77032	  0.28024	  7.05918	 -0.35168	 10.97440	711.03003	 24.30	
 15.293	-141.428	  9.62435	 -0.37869	  8.19295	  0.63601	  6.54198	 -0.36114	 10.97354	710.92999	 24.30	
 15.288	-147.854	  9.61378	 -0.62464	  8.55190	  1.03114	  5.99123	 -0.38086	 10.97861	711.09003	 24.30	
 15.300	-154.261	  9.60281	 -0.83324	  8.84797	  1.46449	  5.41084	 -0.40099	 10.98121	710.96997	 24.30	
 15.307	-160.676	  9.59134	 -0.99622	  9.07452	  1.95598	  4.81659	 -0.41990	 10.98086	711.04999	 24.30	
 15.291	-167.167	  9.58891	 -1.10903	  9.22568	  2.48827	  4.21516	 -0.43783	 10.98288	710.96997	 24.30	
 15.298	-173.587	  9.57799	 -1.18119	  9.29885	  3.04708	  3.61406	 -0.44725	 10.97616	711.07001	 24.30	
 15.300	180.000	  9.57971	 -1.20476	  9.30510	  3.63303	  3.02805	 -0.45285	 10.97866	711.07001	 24.30	
 17.000	180.000	  9.23484	 -1.79483	  9.65644	  3.38057	  2.74674	 -0.49374	 10.98128	711.09003	 24.30	
 16.990	-174.179	  9.23573	 -1.75609	  9.64842	  2.80954	  3.32694	 -0.47508	 10.97810	710.96002	 24.30	
 17.009	-168.383	  9.23731	 -1.69565	  9.58167	  2.25144	  3.91804	 -0.45631	 10.97431	711.13000	 24.30	
 17.000	-162.596	  9.24382	 -1.60256	  9.44955	  1.73590	  4.51016	 -0.43851	 10.97811	711.04999	 24.30	
 16.990	-156.759	  9.25327	 -1.46365	  9.24556	  1.23860	  5.10992	 -0.41724	 10.97675	711.09998	 24.30	
 16.995	-150.919	  9.27095	 -1.28974	  8.98670	  0.78465	  5.71200	 -0.38947	 10.98531	711.15002	 24.30	
 16.988	-145.161	  9.28042	 -1.07528	  8.65861	  0.38455	  6.26927	 -0.38106	 10.97942	711.12000	 24.30	
 17.014	-139.343	  9.28891	 -0.83608	  8.27972	 -0.00171	  6.81604	 -0.35706	 10.98122	711.03998	 24.30	
 17.007	-133.546	  9.29609	 -0.54038	  7.83380	 -0.34218	  7.32930	 -0.33995	 10.97598	711.09998	 24.30	
 17.001	-127.699	  9.31250	 -0.20843	  7.35816	 -0.63481	  7.80768	 -0.33456	 10.97944	711.10999	 24.30	
 17.006	-121.937	  9.32214	  0.14775	  6.84811	 -0.87525	  8.22202	 -0.32207	 10.97626	710.97998	 24.30	
 17.002	-116.134	  9.34334	  0.56348	  6.30555	 -1.07926	  8.59074	 -0.31565	 10.98063	711.03003	 24.30	
 17.001	-110.310	  9.35900	  1.01724	  5.73058	 -1.24537	  8.90038	 -0.31355	 10.98111	711.12000	 24.30	
 16.988	-104.517	  9.36942	  1.50334	  5.14922	 -1.36758	  9.14059	 -0.31346	 10.97834	711.13000	 24.30	
 17.008	-98.662	  9.38009	  2.01827	  4.55500	 -1.46810	  9.32565	 -0.31554	 10.97960	711.09998	 24.30	
 16.996	-92.909	  9.39757	  2.56758	  3.96704	 -1.51761	  9.43146	 -0.32137	 10.97942	711.04999	 24.30	
 16.996	-87.091	  9.41223	  3.13324	  3.38812	 -1.53180	  9.46939	 -0.31853	 10.97787	711.09003	 24.30	
 17.012	-81.253	  9.42150	  3.72149	  2.81149	 -1.52192	  9.45018	 -0.32555	 10.98068	711.10999	 24.30	
 16.988	-75.483	  9.44249	  4.32841	  2.27263	 -1.44939	  9.35124	 -0.34227	 10.98219	711.04999	 24.30	
 17.001	-69.690	  9.44963	  4.92486	  1.75497	 -1.35110	  9.18677	 -0.34204	 10.97981	710.95001	 24.30	
 17.002	-63.866	  9.46470	  5.51714	  1.26701	 -1.22216	  8.96119	 -0.35590	 10.98470	711.00000	 24.30	
 17.006	-58.063	  9.46330	  6.08189	  0.80884	 -1.07945	  8.65671	 -0.36565	 10.97443	710.89001	 24.30	
 17.001	-52.301	  9.46978	  6.62602	  0.40069	 -0.89096	  8.30475	 -0.37834	 10.97513	710.96002	 24.30	
 17.007	-46.454	  9.48334	  7.15780	  0.02456	 -0.64732	  7.88666	 -0.38789	 10.97797	710.94000	 24.30	
 17.014	-40.657	  9.49118	  7.64841	 -0.31594	 -0.34226	  7.42256	 -0.40880	 10.98079	710.94000	 24.30	
 16.988	-34.839	  9.49777	  8.09133	 -0.60360	  0.02074	  6.90837	 -0.43184	 10.97814	711.02002	 24.30	
 16.995	-29.081	  9.50508	  8.48113	 -0.85308	  0.40852	  6.37557	 -0.44360	 10.97804	711.03003	 24.30	
 16.990	-23.241	  9.52264	  8.81465	 -1.04740	  0.87531	  5.80006	 -0.44687	 10.98647	711.01001	 24.30	
 17.000	-17.404	  9.52794	  9.07934	 -1.20218	  1.37641	  5.20065	 -0.45025	 10.98158	710.97998	 24.30	
 17.009	-11.617	  9.53046	  9.27315	 -1.32170	  1.89723	  4.60163	 -0.45503	 10.97796	710.98999	 24.30	
 16.990	 -5.821	  9.54282	  9.39456	 -1.38350	  2.46590	  3.99191	 -0.44958	 10.98023	711.02002	 24.30	
 17.000	  0.000	  9.54474	  9.44963	 -1.41995	  3.03765	  3.39388	 -0.45645	 10.97778	711.08002	 24.30	
 16.990	  5.821	  9.54853	  9.43446	 -1.41647	  3.61990	  2.81755	 -0.47026	 10.97864	711.06000	 24.30	
 17.009	 11.617	  9.54764	  9.36228	 -1.39081	  4.22219	  2.24951	 -0.48040	 10.98164	711.09998	 24.30	
 17.000	 17.404	  9.54364	  9.21370	 -1.31781	  4.82342	  1.71220	 -0.48505	 10.98335	710.96002	 24.30	
 16.990	 23.241	  9.53656	  8.99393	 -1.20352	  5.41607	  1.20980	 -0.48971	 10.98114	711.14001	 24.30	
 16.995	 29.081	  9.52138	  8.71206	 -1.05364	  6.00700	  0.72596	 -0.48978	 10.97964	711.10999	 24.30	
 16.988	 34.839	  9.50875	  8.37094	 -0.86337	  6.55910	  0.29806	 -0.49195	 10.97813	711.14001	 24.40	
 17.014	 40.657	  9.49318	  7.97590	 -0.62724	  7.08945	 -0.09358	 -0.50135	 10.97792	711.21997	 24.40	
 17.007	 46.454	  9.47589	  7.51542	 -0.34243	  7.58997	 -0.44940	 -0.51856	 10.97464	711.13000	 24.30	
 17.001	 52.301	  9.46452	  7.01181	 -0.00822	  8.05169	 -0.76254	 -0.54864	 10.98204	711.10999	 24.40	
 17.006	 58.063	  9.44827	  6.47565	  0.35729	  8.45433	 -1.02572	 -0.57736	 10.98053	711.03003	 24.40	
 17.002	 63.866	  9.43646	  5.90826	  0.77256	  8.79921	 -1.23810	 -0.59469	 10.97620	711.12000	 24.30	
 17.001	 69.690	  9.42392	  5.32424	  1.22540	  9.08287	 -1.41341	 -0.60262	 10.97596	711.09998	 24.30	
 16.988	 75.483	  9.41343	  4.73030	  1.71087	  9.30405	 -1.54538	 -0.60295	 10.97989	711.03998	 24.30	
 17.012	 81.253	  9.39021	  4.12612	  2.21744	  9.46020	 -1.64928	 -0.61490	 10.97748	710.98999	 24.40	
 16.996	 87.091	  9.38332	  3.53174	  2.77435	  9.55180	 -1.69716	 -0.62382	 10.97844	711.09003	 24.40	
 16.996	 92.909	  9.36967	  2.94512	  3.33949	  9.56940	 -1.72259	 -0.64279	 10.97958	710.96997	 24.40	
 17.008	 98.662	  9.35378	  2.37577	  3.91720	  9.52588	 -1.70779	 -0.65568	 10.97575	711.01001	 24.40	
 16.988	104.517	  9.34547	  1.83528	  4.51852	  9.40627	 -1.64130	 -0.66782	 10.97432	710.96002	 24.40	
 17.001	110.310	  9.33536	  1.32162	  5.11468	  9.22989	 -1.55026	 -0.66856	 10.97743	711.07001	 24.40	
 17.002	116.134	  9.32595	  0.84105	  5.70181	  8.98476	 -1.41871	 -0.66079	 10.98068	711.06000	 24.40	
 17.006	121.937	  9.30684	  0.39385	  6.27205	  8.67880	 -1.25043	 -0.64549	 10.98044	711.00000	 24.40	
 17.001	127.699	  9.30166	  0.00400	  6.81880	  8.31213	 -1.02315	 -0.63499	 10.98060	711.07001	 24.40	
 17.007	133.546	  9.29170	 -0.35696	  7.34993	  7.88684	 -0.76226	 -0.63058	 10.98114	711.12000	 24.40	
 17.014	139.343	  9.27243	 -0.67538	  7.82798	  7.41117	 -0.45446	 -0.63285	 10.97144	711.03998	 24.40	
 16.988	145.161	  9.27092	 -0.94199	  8.26585	  6.91197	 -0.11062	 -0.63609	 10.97907	710.96997	 24.40	
 16.995	150.919	  9.25651	 -1.16848	  8.64101	  6.36984	  0.26845	 -0.63195	 10.97133	710.96997	 24.40	
 16.990	156.759	  9.25663	 -1.38162	  8.97965	  5.79695	  0.69898	 -0.61483	 10.97967	710.94000	 24.40	
 17.000	162.596	  9.24979	 -1.57146	  9.25336	  5.20006	  1.15890	 -0.58286	 10.98349	711.02002	 24.40	
 17.009	168.383	  9.23447	 -1.70051	  9.44956	  4.58822	  1.65642	 -0.55087	 10.97539	711.02002	 24.40	
 16.990	174.179	  9.23501	 -1.76353	  9.57873	  3.97883	  2.18905	 -0.51696	 10.97262	711.00000	 24.40	
 18.709	174.675	  8.84777	 -2.34115	  9.89810	  3.70334	  1.90079	 -0.54246	 10.97307	710.96997	 24.40	
 18.703	169.441	  8.85079	 -2.28735	  9.77448	  4.29869	  1.37621	 -0.58374	 10.97693	710.94000	 24.40	
 18.691	164.085	  8.86217	 -2.18675	  9.58665	  4.91467	  0.87672	 -0.62379	 10.98048	710.88000	 24.40	
 18.706	158.818	  8.86148	 -2.04365	  9.33953	  5.50371	  0.41889	 -0.65454	 10.97633	711.00000	 24.40	
 18.695	153.537	  8.88095	 -1.82496	  9.03159	  6.10216	 -0.00063	 -0.68766	 10.97953	711.01001	 24.40	
 18.704	148.255	  8.88692	 -1.61206	  8.67317	  6.65760	 -0.39417	 -0.70606	 10.97498	710.92999	 24.40	
 18.698	142.952	  8.90430	 -1.36867	  8.26822	  7.18194	 -0.74273	 -0.72071	 10.97764	711.00000	 24.40	
 18.699	137.625	  8.91270	 -1.09892	  7.81734	  7.68856	 -1.06887	 -0.72144	 10.97790	711.00000	 24.40	
 18.705	132.343	  8.91607	 -0.79063	  7.31443	  8.14446	 -1.35834	 -0.73042	 10.97422	711.06000	 24.40	
 18.713	127.067	  8.92710	 -0.44225	  6.78759	  8.55335	 -1.60127	 -0.74407	 10.96889	711.08002	 24.40	
 18.700	121.794	  8.94193	 -0.05258	  6.24630	  8.90942	 -1.79610	 -0.75434	 10.96915	711.06000	 24.40	
 18.698	116.504	  8.95675	  0.36963	  5.67607	  9.22384	 -1.96122	 -0.76916	 10.97565	710.98999	 24.40	
 18.707	111.165	  8.96537	  0.83591	  5.08343	  9.48337	 -2.10388	 -0.77774	 10.97596	710.96997	 24.40	
 18.690	105.863	  8.97804	  1.33731	  4.49160	  9.67479	 -2.19850	 -0.77620	 10.97567	710.96997	 24.40	
 18.696	100.583	  8.98410	  1.85526	  3.90042	  9.80752	 -2.26429	 -0.77650	 10.97461	711.09998	 24.40	
 18.700	 95.309	  8.99402	  2.40947	  3.30989	  9.87365	 -2.29499	 -0.76277	 10.96905	711.07001	 24.40	
 18.700	 90.000	  9.00897	  2.97739	  2.74100	  9.88528	 -2.29339	 -0.74688	 10.97067	710.98999	 24.40	
 18.700	 84.691	  9.01921	  3.55968	  2.19130	  9.83439	 -2.25902	 -0.73703	 10.97077	710.97998	 24.40	
 18.696	 79.417	  9.03774	  4.16444	  1.66370	  9.72106	 -2.18937	 -0.72556	 10.97064	710.90997	 24.40	
 18.690	 74.137	  9.05289	  4.76108	  1.16891	  9.55167	 -2.09463	 -0.71928	 10.97532	711.07001	 24.40	
 18.707	 68.835	  9.06727	  5.35137	  0.70049	  9.31946	 -1.95566	 -0.71873	 10.97698	710.96997	 24.40	
 18.698	 63.496	  9.08025	  5.94446	  0.26168	  9.01633	 -1.77875	 -0.71327	 10.97197	711.06000	 24.40	
 18.700	 58.206	  9.09820	  6.50567	 -0.13217	  8.66869	 -1.56673	 -0.69561	 10.97397	711.07001	 24.40	
 18.713	 52.933	  9.10549	  7.04049	 -0.49332	  8.27337	 -1.33303	 -0.67174	 10.97211	711.09003	 24.40	
 18.705	 47.657	  9.11669	  7.54203	 -0.81907	  7.82736	 -1.05038	 -0.63975	 10.96992	711.03998	 24.40	
 18.699	 42.375	  9.13385	  8.01335	 -1.09463	  7.32911	 -0.71394	 -0.62523	 10.96626	711.06000	 24.40	
 18.698	 37.048	  9.15456	  8.44418	 -1.33856	  6.81009	 -0.33917	 -0.61047	 10.97706	710.98999	 24.40	
 18.704	 31.745	  9.16190	  8.80542	 -1.54433	  6.26453	  0.04627	 -0.59870	 10.96980	711.06000	 24.40	
 18.695	 26.463	  9.17763	  9.11839	 -1.70386	  5.69676	  0.49112	 -0.58863	 10.97393	711.07001	 24.40	
 18.706	 21.182	  9.18910	  9.38099	 -1.83513	  5.10420	  0.97009	 -0.58439	 10.97591	711.09003	 24.40	
 18.691	 15.915	  9.19279	  9.56299	 -1.92635	  4.51341	  1.47594	 -0.57112	 10.96866	711.09998	 24.40	
 18.703	 10.559	  9.19722	  9.70447	 -1.99696	  3.91123	  2.00903	 -0.55897	 10.97163	711.07001	 24.40	
 18.709	  5.325	  9.19866	  9.77828	 -2.01944	  3.32282	  2.56251	 -0.54121	 10.97557	711.06000	 24.40	
 18.700	  0.000	  9.19606	  9.78624	 -2.01762	  2.73890	  3.14766	 -0.52312	 10.97057	711.02002	 24.40	
 18.709	 -5.325	  9.18856	  9.73598	 -1.99322	  2.16266	  3.74203	 -0.50268	 10.97259	711.04999	 24.40	
 18.703	-10.559	  9.18441	  9.62104	 -1.92943	  1.61048	  4.34542	 -0.48635	 10.97644	711.15002	 24.40	
 18.691	-15.915	  9.18459	  9.43860	 -1.82149	  1.09128	  4.94958	 -0.48222	 10.97849	711.06000	 24.40	
 18.706	-21.182	  9.16989	  9.18916	 -1.68618	  0.58608	  5.54424	 -0.46640	 10.97792	711.02002	 24.40	
 18.695	-26.463	  9.15455	  8.87649	 -1.51575	  0.12079	  6.12273	 -0.45728	 10.96748	710.94000	 24.40	
 18.704	-31.745	  9.15258	  8.52698	 -1.29743	 -0.27788	  6.67815	 -0.42994	 10.97425	710.94000	 24.40	
 18.698	-37.048	  9.14311	  8.11380	 -1.04719	 -0.64944	  7.20639	 -0.40915	 10.97183	711.06000	 24.40	
 18.699	-42.375	  9.13332	  7.64514	 -0.74904	 -0.97718	  7.70760	 -0.38860	 10.96978	711.07001	 24.40	
 18.705	-47.657	  9.12112	  7.14768	 -0.41875	 -1.25023	  8.15988	 -0.36530	 10.96928	711.02002	 24.40	
 18.713	-52.933	  9.12233	  6.62758	 -0.04828	 -1.45448	  8.56161	 -0.35207	 10.97086	711.01001	 24.40	
 18.700	-58.206	  9.11350	  6.08651	  0.34450	 -1.61427	  8.90359	 -0.32952	 10.97040	710.90997	 24.40	
 18.698	-63.496	  9.10594	  5.51115	  0.78320	 -1.76987	  9.20745	 -0.32507	 10.97141	711.01001	 24.40	
 18.707	-68.835	  9.09454	  4.91218	  1.25994	 -1.91229	  9.45626	 -0.32090	 10.97659	711.00000	 24.40	
 18.690	-74.137	  9.08561	  4.31682	  1.76368	 -2.01276	  9.63591	 -0.31204	 10.97698	710.91998	 24.40	
 18.696	-79.417	  9.06297	  3.72029	  2.28599	 -2.08020	  9.74239	 -0.30084	 10.96984	710.94000	 24.40	
 18.700	-84.691	  9.05049	  3.13414	  2.83773	 -2.11423	  9.79610	 -0.29543	 10.97311	710.88000	 24.40	
 18.700	-90.000	  9.03711	  2.54763	  3.40770	 -2.12153	  9.78938	 -0.29768	 10.97334	710.96002	 24.40	
 18.700	-95.309	  9.02362	  2.00075	  3.98997	 -2.08192	  9.71670	 -0.29723	 10.97272	711.01001	 24.40	
 18.696	-100.583	  9.00825	  1.47294	  4.58458	 -2.01861	  9.57792	 -0.30005	 10.97099	710.96002	 24.40	
 18.690	-105.863	  9.00083	  0.98563	  5.16560	 -1.92066	  9.38763	 -0.29179	 10.97879	711.04999	 24.40	
 18.707	-111.165	  8.98244	  0.51797	  5.74077	 -1.79948	  9.13041	 -0.29840	 10.97399	710.96002	 24.40	
 18.698	-116.504	  8.96988	  0.08428	  6.31890	 -1.62755	  8.80656	 -0.29861	 10.97510	711.04999	 24.40	
 18.700	-121.794	  8.95340	 -0.30690	  6.85776	 -1.43377	  8.43405	 -0.30416	 10.96702	711.10999	 24.40	
 18.713	-127.067	  8.94531	 -0.66500	  7.37840	 -1.20195	  8.02404	 -0.30964	 10.97323	711.04999	 24.40	
 18.705	-132.343	  8.93191	 -0.98485	  7.86249	 -0.94244	  7.56748	 -0.32435	 10.97504	711.03998	 24.40	
 18.699	-137.625	  8.91967	 -1.27467	  8.30937	 -0.63683	  7.05965	 -0.33728	 10.97528	711.06000	 24.40	
 18.698	-142.952	  8.91076	 -1.52996	  8.71354	 -0.26758	  6.51564	 -0.34772	 10.97142	711.04999	 24.40	
 18.704	-148.255	  8.90085	 -1.73953	  9.06653	  0.12028	  5.95719	 -0.36990	 10.97804	711.09998	 24.40	
 18.695	-153.537	  8.88906	 -1.91771	  9.36285	  0.53873	  5.38336	 -0.39258	 10.97847	710.98999	 24.40	
 18.706	-158.818	  8.87382	 -2.07133	  9.60019	  0.98854	  4.78653	 -0.40646	 10.97434	710.98999	 24.40	
 18.691	-164.085	  8.86716	 -2.18223	  9.77810	  1.48418	  4.19194	 -0.42905	 10.97166	711.00000	 24.40	
 18.703	-169.441	  8.86152	 -2.27255	  9.90137	  2.00615	  3.59785	 -0.45750	 10.97882	711.09003	 24.40	
 18.709	-174.675	  8.85061	 -2.32107	  9.95879	  2.54334	  3.01494	 -0.47802	 10.97396	710.96997	 24.40	
 18.700	180.000	  8.85231	 -2.35331	  9.95553	  3.11140	  2.44988	 -0.50777	 10.97369	711.06000	 24.40	
 20.400	180.000	  8.43437	 -2.89642	 10.21920	  2.82866	  2.12210	 -0.49694	 10.97108	711.07001	 24.40	
 20.401	-175.153	  8.44734	 -2.86362	 10.22980	  2.28323	  2.69324	 -0.47227	 10.97752	711.01001	 24.40	
 20.407	-170.264	  8.44452	 -2.81776	 10.17641	  1.73278	  3.27042	 -0.43890	 10.97265	711.04999	 24.40	
 20.410	-165.423	  8.45255	 -2.75730	 10.08004	  1.22645	  3.83948	 -0.40918	 10.97682	711.04999	 24.40	
 20.392	-160.496	  8.46196	 -2.64837	  9.91263	  0.73425	  4.44557	 -0.39105	 10.97804	711.03003	 24.40	
 20.401	-155.705	  8.47142	 -2.53217	  9.70243	  0.27838	  5.03394	 -0.37071	 10.98016	711.02002	 24.40	
 20.405	-150.835	  8.48600	 -2.37472	  9.43176	 -0.14495	  5.61191	 -0.35750	 10.98161	711.03003	 24.40	
 20.397	-145.903	  8.49732	 -2.18016	  9.09739	 -0.55130	  6.19284	 -0.34813	 10.97892	711.03003	 24.40	
 20.392	-141.062	  8.50282	 -1.96064	  8.71967	 -0.92624	  6.73801	 -0.31925	 10.96754	711.07001	 24.40	
 20.396	-136.227	  8.52086	 -1.71621	  8.32111	 -1.24114	  7.26497	 -0.31983	 10.97996	711.07001	 24.40	
 20.408	-131.372	  8.52985	 -1.43274	  7.86780	 -1.51534	  7.75198	 -0.30325	 10.97343	711.10999	 24.40	
 20.410	-126.511	  8.54234	 -1.12165	  7.37762	 -1.76651	  8.21245	 -0.29454	 10.97722	711.02002	 24.40	
 20.400	-121.604	  8.55605	 -0.76944	  6.84987	 -1.98551	  8.63249	 -0.28379	 10.97135	710.98999	 24.40	
 20.403	-116.741	  8.57136	 -0.39499	  6.31082	 -2.17530	  9.00918	 -0.27985	 10.97918	711.07001	 24.40	
 20.413	-111.900	  8.57612	  0.01511	  5.74439	 -2.33368	  9.32256	 -0.27789	 10.97012	711.00000	 24.40	
 20.398	-107.004	  8.59852	  0.46868	  5.16734	 -2.45358	  9.59078	 -0.28030	 10.97351	711.09003	 24.40	
 20.394	-102.132	  8.61397	  0.94215	  4.59167	 -2.54875	  9.79931	 -0.27726	 10.97447	711.10999	 24.40	
 20.403	-97.332	  8.62506	  1.43394	  4.00808	 -2.61885	  9.95084	 -0.28222	 10.97455	710.96997	 24.40	
 20.392	-92.440	  8.64009	  1.98544	  3.42200	 -2.65681	 10.04404	 -0.28945	 10.97139	710.96997	 24.40	
 20.392	-87.560	  8.65794	  2.53872	  2.85096	 -2.67330	 10.08865	 -0.28616	 10.97492	711.02002	 24.40	
 20.403	-82.668	  8.66915	  3.10971	  2.28976	 -2.66816	 10.07740	 -0.28711	 10.97957	711.03998	 24.40	
 20.394	-77.868	  8.68099	  3.68747	  1.76092	 -2.62427	 10.00073	 -0.28766	 10.97426	711.03003	 24.40	
 20.398	-72.996	  8.69007	  4.27336	  1.25276	 -2.55223	  9.87541	 -0.28520	 10.97252	711.07001	 24.40	
 20.413	-68.100	  8.69804	  4.86557	  0.75984	 -2.45837	  9.69084	 -0.30090	 10.97493	710.96997	 24.40	
 20.403	-63.259	  8.70882	  5.46005	  0.30614	 -2.32112	  9.44248	 -0.30494	 10.97064	711.03998	 24.40	
 20.400	-58.396	  8.72628	  6.03819	 -0.11560	 -2.16707	  9.14649	 -0.32030	 10.97680	711.03998	 24.40	
 20.410	-53.489	  8.72742	  6.58637	 -0.50681	 -2.00709	  8.79166	 -0.33439	 10.97067	711.00000	 24.40	
 20.408	-48.628	  8.73563	  7.11927	 -0.86546	 -1.82534	  8.39235	 -0.33748	 10.97085	711.04999	 24.40	
 20.396	-43.773	  8.73884	  7.61902	 -1.19014	 -1.60366	  7.95817	 -0.35306	 10.97417	711.08002	 24.40	
 20.392	-38.938	  8.75176	  8.08566	 -1.47599	 -1.31239	  7.48265	 -0.37273	 10.97505	711.09998	 24.40	
 20.397	-34.097	  8.75881	  8.51189	 -1.72948	 -0.97023	  6.96399	 -0.40466	 10.97498	711.03998	 24.40	
 20.405	-29.165	  8.76392	  8.90990	 -1.96942	 -0.59773	  6.40592	 -0.41670	 10.97746	711.12000	 24.40	
 20.401	-24.295	  8.77332	  9.24568	 -2.16075	 -0.18905	  5.84138	 -0.44920	 10.97781	710.96002	 24.40	
 20.392	-19.504	  8.78902	  9.52391	 -2.30180	  0.27755	  5.26350	 -0.46941	 10.97769	711.14001	 24.40	
 20.410	-14.577	  8.79651	  9.75814	 -2.42566	  0.77779	  4.65969	 -0.49471	 10.97830	711.14001	 24.40	
 20.407	 -9.736	  8.80058	  9.91961	 -2.51036	  1.29215	  4.07479	 -0.51049	 10.97367	711.09003	 24.40	
 20.401	 -4.847	  8.81112	 10.02786	 -2.55757	  1.85654	  3.46979	 -0.53340	 10.97133	711.04999	 24.40	
 20.400	  0.000	  8.81706	 10.07758	 -2.57978	  2.42495	  2.88793	 -0.55933	 10.97278	711.08002	 24.40	
 20.401	  4.847	  8.81928	 10.07316	 -2.58571	  2.99129	  2.32305	 -0.58117	 10.97373	710.98999	 24.40	
 20.407	  9.736	  8.81301	 10.00376	 -2.56641	  3.57840	  1.75792	 -0.60513	 10.96834	711.06000	 24.40	
 20.410	 14.577	  8.81144	  9.89332	 -2.51954	  4.16127	  1.23161	 -0.62760	 10.97290	711.01001	 24.40	
 20.392	 19.504	  8.81036	  9.71488	 -2.43373	  4.76536	  0.72313	 -0.65486	 10.97606	711.07001	 24.40	
 20.401	 24.295	  8.79626	  9.48542	 -2.33347	  5.34642	  0.24266	 -0.66826	 10.97410	710.96997	 24.40	
 20.405	 29.165	  8.78850	  9.19831	 -2.18710	  5.92404	 -0.19820	 -0.68853	 10.97624	711.09003	 24.40	
 20.397	 34.097	  8.77268	  8.84628	 -2.00565	  6.48809	 -0.59785	 -0.70110	 10.96699	711.07001	 24.40	
 20.392	 38.938	  8.75977	  8.46008	 -1.80131	  7.02716	 -0.97288	 -0.72419	 10.96872	711.03003	 24.40	
 20.396	 43.773	  8.74427	  8.03483	 -1.57118	  7.54056	 -1.31517	 -0.73213	 10.97297	711.06000	 24.40	
 20.408	 48.628	  8.72482	  7.55859	 -1.29662	  8.01462	 -1.61867	 -0.75895	 10.97073	711.09003	 24.40	
 20.410	 53.489	  8.71496	  7.04174	 -0.97323	  8.46106	 -1.88144	 -0.77502	 10.97208	711.09998	 24.40	
 20.400	 58.396	  8.70449	  6.50199	 -0.62033	  8.86446	 -2.11484	 -0.79557	 10.97572	711.12000	 24.40	
 20.403	 63.259	  8.68327	  5.93671	 -0.24227	  9.21332	 -2.32050	 -0.80910	 10.97414	711.08002	 24.40	
 20.413	 68.100	  8.66615	  5.35205	  0.17056	  9.51397	 -2.49043	 -0.81186	 10.97354	711.13000	 24.40	
 20.398	 72.996	  8.65342	  4.76249	  0.62000	  9.75475	 -2.62211	 -0.81395	 10.97092	711.03003	 24.40	
 20.394	 77.868	  8.63628	  4.16344	  1.10549	  9.94081	 -2.72820	 -0.82709	 10.97068	711.07001	 24.40	
 20.403	 82.668	  8.62708	  3.57676	  1.60613	 10.07739	 -2.79965	 -0.83761	 10.97618	711.06000	 24.40	
 20.392	 87.560	  8.62205	  2.99295	  2.14769	 10.15329	 -2.84018	 -0.84539	 10.98078	711.14001	 24.40	
 20.392	 92.440	  8.60446	  2.42329	  2.69560	 10.16537	 -2.85543	 -0.85076	 10.97418	711.21002	 24.40	
 20.403	 97.332	  8.59082	  1.85914	  3.27611	 10.13950	 -2.85279	 -0.85936	 10.97933	711.08002	 24.40	
 20.394	102.132	  8.57129	  1.33463	  3.84869	 10.03674	 -2.80664	 -0.86267	 10.96690	711.09003	 24.40	
 20.398	107.004	  8.56542	  0.82397	  4.43414	  9.90418	 -2.74764	 -0.85816	 10.97852	711.12000	 24.40	
 20.413	111.900	  8.54777	  0.33409	  5.02236	  9.69661	 -2.65311	 -0.85636	 10.97127	711.08002	 24.40	
 20.403	116.741	  8.54355	 -0.10611	  5.60817	  9.44095	 -2.51646	 -0.84690	 10.97212	711.12000	 24.40	
 20.400	121.604	  8.53773	 -0.51409	  6.17740	  9.13308	 -2.35992	 -0.83327	 10.97723	710.94000	 24.40	
 20.410	126.511	  8.52742	 -0.89045	  6.73580	  8.76965	 -2.16660	 -0.82182	 10.97666	710.95001	 24.40	
 20.408	131.372	  8.51255	 -1.23467	  7.26562	  8.35896	 -1.93869	 -0.81027	 10.97551	710.98999	 24.40	
 20.396	136.227	  8.49852	 -1.53902	  7.75754	  7.91621	 -1.67764	 -0.79482	 10.97323	711.02002	 24.40	
 20.392	141.062	  8.49398	 -1.80810	  8.22252	  7.43189	 -1.37680	 -0.77689	 10.97560	711.19000	 24.40	
 20.397	145.903	  8.48627	 -2.04744	  8.64895	  6.91718	 -1.05708	 -0.75108	 10.97741	711.10999	 24.40	
 20.405	150.835	  8.46624	 -2.27994	  9.03613	  6.36150	 -0.69537	 -0.72848	 10.97021	711.19000	 24.40	
 20.401	155.705	  8.45984	 -2.49983	  9.37652	  5.78839	 -0.30869	 -0.69807	 10.97942	711.15997	 24.50	
 20.392	160.496	  8.45074	 -2.66736	  9.65460	  5.19713	  0.12223	 -0.65766	 10.97784	711.03003	 24.40	
 20.410	165.423	  8.44380	 -2.78673	  9.88390	  4.59550	  0.58013	 -0.61321	 10.97612	711.13000	 24.40	
 20.407	170.264	  8.44142	 -2.85483	 10.05277	  4.00178	  1.06984	 -0.57959	 10.97292	711.03998	 24.40	
 20.401	175.153	  8.44348	 -2.89061	 10.16820	  3.40202	  1.59872	 -0.53737	 10.97742	711.08002	 24.40	
  0.141	 45.000	 10.96825	  4.50609	  4.78885	  4.70446	  4.47221	  0.22556	 10.97292	711.09998	 24.40	
  4.001	128.691	 10.92924	  3.59855	  5.53261	  5.73436	  3.34807	  0.13781	 10.98349	711.09003	 24.40	
  4.002	 76.995	 10.94252	  4.73242	  4.37531	  5.96162	  3.17807	  0.19622	 10.97743	711.03998	 24.50	
  4.002	 25.892	 10.95632	  5.71053	  3.52100	  5.12636	  3.92758	  0.22264	 10.97829	711.06000	 24.40	
  4.002	-25.892	 10.95300	  5.64007	  3.58764	  3.98265	  5.07028	  0.19254	 10.97779	710.95001	 24.40	
  4.002	-76.995	 10.94580	  4.66059	  4.51083	  3.34896	  5.82211	  0.15952	 10.98201	711.03003	 24.50	
  4.001	-128.691	 10.92726	  3.54536	  5.66533	  3.62871	  5.44830	  0.13420	 10.97805	710.98999	 24.50	
  4.000	180.000	 10.91614	  3.09870	  6.13277	  4.64180	  4.34699	  0.11546	 10.97482	711.09003	 24.40	
  8.000	180.000	 10.65321	  1.52862	  7.41578	  4.42673	  3.99272	 -0.08790	 10.97766	711.09003	 24.40	
  7.991	-152.370	 10.65640	  1.78173	  7.12984	  3.14247	  5.33964	 -0.08539	 10.97266	711.03003	 24.50	
  7.997	-124.550	 10.68692	  2.56854	  6.22363	  2.24008	  6.47631	 -0.07393	 10.97937	711.01001	 24.40	
  8.006	-96.837	 10.69690	  3.72315	  4.94211	  1.82480	  7.07610	 -0.06133	 10.96826	711.12000	 24.40	
  7.988	-69.228	 10.73778	  5.05322	  3.65476	  1.91630	  6.99062	 -0.04723	 10.98359	711.06000	 24.40	
  7.997	-41.563	 10.75262	  6.25700	  2.61536	  2.51274	  6.22348	 -0.01360	 10.97321	710.98999	 24.40	
  8.008	-13.821	 10.76993	  7.00479	  2.02570	  3.59609	  4.99739	  0.03239	 10.97934	711.12000	 24.50	
  8.008	 13.821	 10.76534	  7.04454	  1.96957	  4.91817	  3.66686	  0.05160	 10.97292	711.07001	 24.40	
  7.997	 41.563	 10.75877	  6.39816	  2.43725	  6.19008	  2.52904	  0.05416	 10.97981	711.04999	 24.40	
  7.988	 69.228	 10.72773	  5.24192	  3.38136	  7.05214	  1.80285	  0.02153	 10.97451	711.03003	 24.50	
  8.006	 96.837	 10.70022	  3.90144	  4.64396	  7.28568	  1.58100	 -0.03316	 10.97398	711.13000	 24.40	
  7.997	124.550	 10.68195	  2.69019	  5.96761	  6.80841	  1.92060	 -0.05706	 10.97714	711.01001	 24.50	
  7.991	152.370	 10.65763	  1.85834	  6.97773	  5.76290	  2.76428	 -0.08384	 10.97521	711.07001	 24.50	
 12.009	161.059	 10.16579	  0.23273	  8.19484	  5.47043	  2.23756	 -0.33488	 10.97961	710.97998	 24.40	
 12.013	142.081	 10.18370	  0.80305	  7.39474	  6.74917	  1.20861	 -0.32476	 10.98032	710.94000	 24.50	
 12.006	123.113	 10.20264	  1.69438	  6.22650	  7.74720	  0.48286	 -0.31040	 10.97854	711.09003	 24.50	
 12.007	104.200	 10.22952	  2.86222	  4.88008	  8.31639	  0.11465	 -0.31138	 10.97667	711.02002	 24.50	
 11.989	 85.301	 10.25606	  4.21675	  3.51355	  8.38714	  0.09563	 -0.26214	 10.96880	711.01001	 24.50	
 12.013	 66.294	 10.28753	  5.61425	  2.28010	  7.96487	  0.40689	 -0.23521	 10.98020	711.10999	 24.50	
 12.012	 47.388	 10.31059	  6.85476	  1.31314	  7.08588	  1.06726	 -0.18421	 10.97186	710.97998	 24.50	
 11.990	 28.440	 10.35189	  7.77046	  0.68847	  5.86651	  2.07747	 -0.16104	 10.98330	711.10999	 24.50	
 11.991	  9.464	 10.36114	  8.22708	  0.41403	  4.48657	  3.32355	 -0.17616	 10.97932	710.95001	 24.50	
 11.991	 -9.464	 10.36263	  8.18098	  0.46402	  3.12660	  4.70534	 -0.20132	 10.98454	711.02002	 24.40	
 11.990	-28.440	 10.34293	  7.62016	  0.85849	  1.90784	  6.06481	 -0.24854	 10.97891	711.07001	 24.50	
 12.012	-47.388	 10.31873	  6.61307	  1.60006	  0.97724	  7.23266	 -0.26980	 10.97506	710.97998	 24.50	
 12.013	-66.294	 10.29931	  5.33211	  2.66632	  0.46056	  7.99611	 -0.28296	 10.97530	710.97998	 24.50	
 11.989	-85.301	 10.26696	  3.93350	  3.95816	  0.27505	  8.27991	 -0.27606	 10.96812	711.07001	 24.40	
 12.007	-104.200	 10.24388	  2.62021	  5.33211	  0.39138	  8.06464	 -0.28537	 10.98033	711.00000	 24.50	
 12.006	-123.113	 10.21184	  1.51938	  6.62610	  0.84473	  7.35649	 -0.28834	 10.97420	711.06000	 24.40	
 12.013	-142.081	 10.18391	  0.67352	  7.69069	  1.61436	  6.25944	 -0.29116	 10.97791	711.08002	 24.40	
 12.009	-161.059	 10.15819	  0.15690	  8.34957	  2.71008	  4.92065	 -0.31515	 10.97210	711.06000	 24.50	
 16.000	180.000	  9.44747	 -1.44864	  9.44765	  3.53356	  2.91053	 -0.47344	 10.97787	711.12000	 24.50	
 15.990	-165.604	  9.45469	 -1.31751	  9.32781	  2.21209	  4.29673	 -0.44494	 10.97390	711.03998	 24.50	
 16.002	-151.165	  9.47760	 -0.97239	  8.83456	  1.05888	  5.69048	 -0.39537	 10.97891	711.04999	 24.50	
 16.002	-136.836	  9.50415	 -0.39073	  7.98057	  0.15889	  6.96889	 -0.35642	 10.97465	711.00000	 24.50	
 15.995	-122.439	  9.52930	  0.40253	  6.85005	 -0.52327	  8.05130	 -0.33410	 10.97497	711.08002	 24.50	
 15.993	-107.966	  9.56386	  1.45222	  5.53211	 -0.95706	  8.81914	 -0.32223	 10.97533	711.09003	 24.50	
 16.005	-93.629	  9.59756	  2.68318	  4.15904	 -1.16874	  9.21595	 -0.32381	 10.98236	710.96002	 24.50	
 15.992	-79.234	  9.62864	  4.04483	  2.81229	 -1.14604	  9.20475	 -0.33799	 10.97597	711.10999	 24.50	
 16.009	-64.774	  9.65409	  5.43577	  1.59079	 -0.91313	  8.81133	 -0.36159	 10.97482	711.09003	 24.50	
 15.997	-50.364	  9.67188	  6.74994	  0.56577	 -0.48427	  8.03291	 -0.38362	 10.97300	711.09003	 24.50	
 15.997	-36.045	  9.69364	  7.88260	 -0.22268	  0.25080	  6.94708	 -0.41432	 10.97374	711.17999	 24.50	
 16.000	-21.597	  9.71210	  8.71836	 -0.75914	  1.28184	  5.63030	 -0.42876	 10.97385	711.21002	 24.50	
 16.003	 -7.169	  9.73558	  9.17506	 -1.02775	  2.53633	  4.22744	 -0.41711	 10.98445	711.06000	 24.50	
 16.003	  7.169	  9.73289	  9.21622	 -1.07378	  3.88065	  2.85111	 -0.42206	 10.97161	711.07001	 24.50	
 16.000	 21.597	  9.71605	  8.86740	 -0.90105	  5.28370	  1.58070	 -0.42195	 10.96672	711.14001	 24.50	
 15.997	 36.045	  9.69865	  8.14740	 -0.48526	  6.64028	  0.49133	 -0.42150	 10.97502	711.14001	 24.50	
 15.997	 50.364	  9.66902	  7.10786	  0.18697	  7.79420	 -0.34214	 -0.46664	 10.97794	711.08002	 24.50	
 16.009	 64.774	  9.62881	  5.81613	  1.10646	  8.68757	 -0.94533	 -0.52643	 10.97578	711.09998	 24.50	
 15.992	 79.234	  9.59844	  4.42093	  2.25411	  9.21233	 -1.27881	 -0.53656	 10.97250	710.98999	 24.50	
 16.005	 93.629	  9.56325	  3.03160	  3.55704	  9.35745	 -1.37803	 -0.57031	 10.96324	711.07001	 24.50	
 15.993	107.966	  9.53923	  1.74793	  4.93984	  9.11927	 -1.26434	 -0.59831	 10.96731	711.04999	 24.50	
 15.995	122.439	  9.51005	  0.63762	  6.30897	  8.48790	 -0.89605	 -0.57479	 10.96688	711.03003	 24.50	
 16.002	136.836	  9.49116	 -0.22822	  7.53399	  7.52982	 -0.28276	 -0.57208	 10.97531	711.03998	 24.50	
 16.002	151.165	  9.46896	 -0.85729	  8.51742	  6.32677	  0.56435	 -0.58139	 10.97627	711.07001	 24.50	
 15.990	165.604	  9.45669	 -1.29553	  9.17348	  4.95448	  1.64029	 -0.52633	 10.97691	711.07001	 24.50	
 20.003	168.362	  8.54573	 -2.69904	  9.93653	  4.28500	  0.97162	 -0.59209	 10.97699	711.00000	 24.50	
 20.008	156.764	  8.55705	 -2.41150	  9.39656	  5.67799	 -0.10316	 -0.68360	 10.97799	710.96997	 24.50	
 20.000	145.147	  8.58291	 -1.88359	  8.55065	  6.98983	 -0.98144	 -0.74464	 10.97123	711.06000	 24.50	
 19.995	133.545	  8.60860	 -1.25765	  7.48297	  8.14059	 -1.69507	 -0.78134	 10.97610	710.96997	 24.50	
 20.009	121.926	  8.63595	 -0.42322	  6.22447	  9.06546	 -2.21912	 -0.81616	 10.97835	711.08002	 24.50	
 20.005	110.327	  8.65679	  0.59544	  4.87085	  9.71447	 -2.54747	 -0.83875	 10.97480	711.01001	 24.50	
 19.989	 98.733	  8.68917	  1.78960	  3.50114	 10.05491	 -2.70653	 -0.83886	 10.97880	711.12000	 24.50	
 19.999	 87.075	  8.71733	  3.10900	  2.17310	 10.08609	 -2.70740	 -0.82611	 10.98111	710.92999	 24.50	
 19.992	 75.457	  8.74107	  4.50040	  0.96270	  9.79747	 -2.54985	 -0.80114	 10.97148	710.95001	 24.50	
 20.009	 63.844	  8.77493	  5.87538	 -0.08074	  9.20526	 -2.21318	 -0.78816	 10.97290	711.06000	 24.50	
 19.989	 52.269	  8.82598	  7.16379	 -0.92709	  8.32827	 -1.69110	 -0.74571	 10.97907	711.15997	 24.50	
 19.999	 40.602	  8.85356	  8.28737	 -1.59965	  7.21138	 -0.98285	 -0.70434	 10.97946	711.03998	 24.50	
 20.004	 29.051	  8.87867	  9.14873	 -2.05867	  5.93420	 -0.08307	 -0.66794	 10.97147	711.07001	 24.50	
 20.005	 17.433	  8.90569	  9.73925	 -2.34527	  4.55749	  1.02362	 -0.63284	 10.97807	711.07001	 24.50	
 20.006	  5.780	  8.91288	  9.99919	 -2.44974	  3.17134	  2.28861	 -0.57768	 10.97614	711.04999	 24.50	
 20.006	 -5.780	  8.90651	  9.95615	 -2.41901	  1.83329	  3.63491	 -0.52841	 10.98217	711.13000	 24.50	
 20.005	-17.433	  8.89349	  9.58008	 -2.22750	  0.59309	  5.03914	 -0.48115	 10.98434	711.01001	 24.50	
 20.004	-29.051	  8.86401	  8.87202	 -1.84013	 -0.46615	  6.39745	 -0.42898	 10.97553	711.03003	 24.50	
 19.999	-40.602	  8.84816	  7.90295	 -1.25681	 -1.29194	  7.63091	 -0.37407	 10.97903	711.03003	 24.50	
 19.989	-52.269	  8.83749	  6.72328	 -0.47298	 -1.82396	  8.65471	 -0.33742	 10.97488	711.09003	 24.50	
 20.009	-63.844	  8.81413	  5.41678	  0.46737	 -2.20947	  9.42654	 -0.30512	 10.98243	711.19000	 24.50	
 19.992	-75.457	  8.78485	  4.02739	  1.59969	 -2.45945	  9.88643	 -0.28961	 10.97697	711.12000	 24.50	
 19.999	-87.075	  8.75543	  2.66331	  2.86807	 -2.54750	 10.02743	 -0.28917	 10.97849	711.09998	 24.50	
 19.989	-98.733	  8.72102	  1.38418	  4.22560	 -2.46718	  9.85048	 -0.28225	 10.97565	711.09998	 24.50	
 20.005	-110.327	  8.67717	  0.26233	  5.58019	 -2.24833	  9.36045	 -0.27866	 10.97189	711.09998	 24.50	
 20.009	-121.926	  8.65032	 -0.68250	  6.88423	 -1.84379	  8.56683	 -0.28119	 10.96943	711.02002	 24.50	
 19.995	-133.545	  8.62393	 -1.43764	  8.04546	 -1.27225	  7.51873	 -0.30717	 10.97021	711.02002	 24.50	
 20.000	-145.147	  8.59464	 -2.02134	  8.99728	 -0.49626	  6.28397	 -0.34708	 10.97178	711.02002	 24.50	
 20.008	-156.764	  8.56048	 -2.43111	  9.69594	  0.47326	  4.92868	 -0.38421	 10.97440	711.04999	 24.50	
 20.003	-168.362	  8.54546	 -2.67178	 10.08171	  1.61708	  3.55159	 -0.43477	 10.97225	711.10999	 24.50	
 20.000	180.000	  8.54163	 -2.76580	 10.16227	  2.90226	  2.20455	 -0.50458	 10.97250	711.06000	 24.50	
