FileType=PCF
NHL=14
Date=03/13/19	09:47:16
Facility=APL
Serial=16071-1
Customer=NASA
NP=6
Mach=0.380000
Calibration=1:1
CalPts=490
TstPts=95
PortNumbering=AP Standard
Units=Torr C m/s kg/m^3 deg mm 
Theta[deg]	Phi[deg]	P1[Torr]	P2[Torr]	P3[Torr]	P4[Torr]	P5[Torr]	P6[Torr]	Pt[Torr]	Ps[Abs,Torr]	Ts[C]	
0.000000	0.000000	67.242020	28.236760	30.735490	30.428000	28.012800	1.178820	67.136340	712.370000	26.600000	
1.691000	128.401000	67.159190	25.851750	32.591000	33.088000	25.002480	1.079790	67.067210	712.370000	26.700000	
1.692000	77.194000	67.195270	29.178030	29.651260	33.649820	24.501600	1.186530	67.098560	712.400020	26.700000	
1.699000	26.182000	67.230890	31.714830	27.485560	31.731360	26.527120	1.237740	67.117350	712.390010	26.800000	
1.699000	-26.182000	67.226080	31.615970	27.694370	28.708930	29.658180	1.198590	67.126460	712.390010	26.800000	
1.692000	-77.194000	67.236010	28.857060	30.127340	26.911990	31.338590	1.103840	67.142790	712.409970	26.900000	
1.691000	-128.401000	67.243680	25.726310	32.967410	27.705320	30.534570	1.027670	67.167200	712.330020	26.900000	
1.700000	180.000000	67.230820	24.413870	34.167060	30.461620	27.757500	1.012340	67.165850	712.390010	27.000000	
3.400000	180.000000	67.015090	20.506970	37.516590	30.299050	27.239230	0.743400	67.121540	712.380000	27.000000	
3.388000	-152.325000	67.073040	21.279380	36.849280	27.022710	30.466950	0.746600	67.144740	712.330020	27.100000	
3.397000	-124.529000	67.111820	23.460880	34.721520	24.192550	33.261030	0.792430	67.155430	712.340030	27.100000	
3.399000	-96.763000	67.132580	26.660370	31.638240	22.873170	34.781870	0.855930	67.139510	712.349980	27.200000	
3.394000	-69.283000	67.198780	30.454810	28.425990	23.209640	34.544960	0.959860	67.182750	712.359990	27.200000	
3.400000	-41.398000	67.220380	33.515610	25.644480	25.118820	32.584160	1.044810	67.165640	712.479980	27.300000	
3.401000	-14.021000	67.244870	35.216940	23.947720	28.214700	29.703170	1.128740	67.172040	712.289980	27.300000	
3.401000	14.021000	67.255690	35.371050	23.674950	31.583130	26.295870	1.171650	67.205670	712.299990	27.400000	
3.400000	41.398000	67.217030	33.761900	25.095690	34.579220	23.175280	1.178780	67.178070	712.409970	27.400000	
3.394000	69.283000	67.186900	30.821870	27.634730	36.628160	21.048370	1.109360	67.189620	712.359990	27.400000	
3.399000	96.763000	67.148700	27.091190	30.803670	37.139930	20.457040	0.984450	67.181450	712.349980	27.500000	
3.397000	124.529000	67.110340	23.812750	34.042280	35.987090	21.552480	0.866730	67.185960	712.460020	27.500000	
3.388000	152.325000	67.068240	21.479910	36.439640	33.445580	24.035640	0.754310	67.166100	712.409970	27.600000	
5.099000	161.165000	66.670590	17.195230	39.962360	33.295320	23.210160	0.357100	67.188920	712.440000	27.600000	
5.109000	142.013000	66.685630	18.925160	38.012260	36.463510	20.012550	0.399520	67.194550	712.429990	27.600000	
5.095000	123.033000	66.733640	21.662440	35.175940	38.848600	17.723790	0.515560	67.222940	712.510010	27.700000	
5.105000	104.191000	66.758030	24.955230	31.859890	40.187830	16.508790	0.624450	67.206280	712.419980	27.700000	
5.093000	85.207000	66.840970	28.549380	28.458700	40.330550	16.470690	0.771120	67.223400	712.370000	27.800000	
5.104000	66.290000	66.868700	32.428000	25.169470	39.328810	17.473720	0.883900	67.208210	712.359990	27.800000	
5.094000	47.331000	66.929860	35.504290	21.569040	37.220210	19.590560	0.967010	67.212160	712.520020	27.900000	
5.089000	28.397000	66.994090	37.606800	19.632150	34.297820	22.627970	0.994440	67.218380	712.479980	27.900000	
5.096000	9.576000	67.022280	38.727170	18.758350	30.949420	26.086560	0.967710	67.229530	712.280030	27.900000	
5.096000	-9.576000	67.042240	38.587960	18.976980	27.407400	29.609700	0.913610	67.224750	712.349980	28.000000	
5.089000	-28.397000	67.064320	37.219300	20.345600	24.068910	32.803940	0.831550	67.244660	712.359990	28.000000	
5.094000	-47.331000	67.019840	34.904930	23.388850	21.360700	35.732350	0.721950	67.227860	712.400020	28.000000	
5.104000	-66.290000	66.976430	31.704320	26.559560	19.619620	37.633180	0.610520	67.220880	712.489990	28.100000	
5.093000	-85.207000	66.953090	27.819020	29.886600	18.946640	38.361190	0.557330	67.247580	712.419980	28.100000	
5.105000	-104.191000	66.861550	24.249450	33.227040	19.300230	37.827680	0.472410	67.235490	712.359990	28.100000	
5.095000	-123.033000	66.814830	21.002440	36.385790	20.718270	36.085270	0.417880	67.244230	712.299990	28.200000	
5.109000	-142.013000	66.750340	18.476860	38.897210	23.129520	33.291520	0.376990	67.225720	712.330020	28.200000	
5.099000	-161.165000	66.744240	17.000630	40.439520	26.432680	29.994440	0.332490	67.254190	712.320010	28.200000	
5.100000	180.000000	66.731390	16.557230	40.830140	30.061180	26.582430	0.337140	67.275190	712.380000	28.200000	
6.800000	180.000000	66.025490	12.685610	44.125310	29.507990	25.735730	-0.131410	67.234260	712.390010	28.300000	
6.796000	-166.229000	66.033570	12.953130	43.878990	25.857090	29.205650	-0.126660	67.221240	712.310000	28.300000	
6.808000	-152.311000	66.092480	13.993960	42.852780	22.561510	32.521180	-0.102310	67.240910	712.400020	28.300000	
6.795000	-138.383000	66.133160	15.717960	40.756320	19.753860	35.656160	-0.058330	67.233470	712.429990	28.300000	
6.792000	-124.591000	66.234200	18.072860	38.260740	17.527900	38.350340	-0.033500	67.262540	712.359990	28.400000	
6.787000	-110.754000	66.262030	21.017120	35.219160	15.839400	40.292070	-0.022390	67.244930	712.440000	28.400000	
6.800000	-96.985000	66.339290	24.431340	31.940700	14.704340	41.452080	0.043010	67.238440	712.500000	28.500000	
6.800000	-83.015000	66.417280	27.998660	28.599730	14.581140	41.692530	0.110310	67.236940	712.390010	28.500000	
6.787000	-69.246000	66.491940	31.830140	25.325640	15.337000	40.955070	0.137450	67.258110	712.440000	28.500000	
6.792000	-55.409000	66.547260	35.118020	21.384450	16.989950	39.366220	0.233670	67.258860	712.400020	28.500000	
6.795000	-41.617000	66.576470	37.804020	18.812580	19.115700	37.024540	0.318350	67.248250	712.289980	28.600000	
6.808000	-27.689000	66.620130	40.070460	16.890490	21.818340	33.979060	0.408080	67.273220	712.349980	28.600000	
6.796000	-13.771000	66.603130	41.553640	15.641710	24.950560	30.748490	0.501410	67.258900	712.469970	28.600000	
6.800000	0.000000	66.597020	42.151770	15.072010	28.474260	27.361330	0.584550	67.252200	712.320010	28.700000	
6.796000	13.771000	66.552880	41.797520	15.215680	31.982760	23.843190	0.642460	67.238490	712.380000	28.700000	
6.808000	27.689000	66.486150	40.494950	16.090680	35.311660	20.396820	0.663450	67.239190	712.429990	28.700000	
6.795000	41.617000	66.465230	38.425920	17.714520	38.275580	17.461420	0.646680	67.277520	712.400020	28.700000	
6.792000	55.409000	66.386090	35.844650	19.898910	40.636220	15.120800	0.569570	67.257860	712.429990	28.800000	
6.787000	69.246000	66.324580	32.622860	22.942670	42.395880	13.356130	0.500330	67.248940	712.359990	28.800000	
6.800000	83.015000	66.245030	28.935590	26.883010	43.372280	12.340430	0.401990	67.240460	712.489990	28.800000	
6.800000	96.985000	66.196670	25.242960	30.311750	43.505530	12.213940	0.264410	67.237970	712.390010	28.800000	
6.787000	110.754000	66.151960	21.904980	33.612480	42.743050	12.907400	0.138240	67.259340	712.400020	28.900000	
6.792000	124.591000	66.146130	18.828670	36.801740	41.219260	14.281300	0.038220	67.281670	712.340030	28.900000	
6.795000	138.383000	66.113280	16.332300	39.555410	39.000730	16.368750	-0.039010	67.287960	712.390010	28.900000	
6.808000	152.311000	66.015580	14.409150	41.862690	36.110140	19.048170	-0.131310	67.215550	712.479980	28.900000	
6.796000	166.229000	66.085140	13.249900	43.525120	32.872590	22.356910	-0.151880	67.276130	712.460020	29.000000	
8.491000	168.704000	65.117130	9.174270	46.073610	32.323270	21.160200	-0.705090	67.249590	712.359990	29.000000	
8.502000	157.493000	65.101220	10.152110	45.230690	35.683320	17.831210	-0.678290	67.240260	712.440000	29.000000	
8.494000	146.194000	65.150920	11.757890	43.283950	38.824610	14.854460	-0.857530	67.278850	712.440000	29.000000	
8.495000	135.039000	65.191940	13.907670	40.532420	41.488420	12.435300	-0.557460	67.252740	712.479980	29.100000	
8.487000	123.723000	65.222970	16.522690	37.582420	43.704940	10.550180	-0.447830	67.256360	712.469970	29.100000	
8.492000	112.575000	65.241520	19.466840	34.427170	45.310230	9.201540	-0.378260	67.235690	712.080020	29.100000	
8.510000	101.220000	65.290840	22.842960	30.966090	46.411210	8.384090	-0.285940	67.262640	712.320010	29.100000	
8.500000	90.000000	65.369450	26.399270	27.349720	46.644700	8.237120	-0.163580	67.267070	712.429990	29.100000	
8.510000	78.780000	65.421360	30.239890	23.277560	46.129190	8.642350	-0.057510	67.281230	712.370000	29.100000	
8.492000	67.425000	65.517740	33.937110	20.026480	44.814430	9.807560	0.043600	67.289290	712.390010	29.200000	
8.487000	56.277000	65.578870	37.139670	17.357450	42.955200	11.500750	0.109990	67.250240	712.320010	29.200000	
8.495000	44.961000	65.641040	39.940340	15.025020	40.497340	13.756960	0.208070	67.228260	712.380000	29.200000	
8.494000	33.806000	65.743140	42.337020	13.191110	37.743160	16.508120	0.248830	67.267810	712.380000	29.200000	
8.502000	22.507000	65.811580	43.863690	11.874080	34.509940	19.707760	0.225290	67.277280	712.390010	29.300000	
8.491000	11.296000	65.851480	44.863030	11.162780	31.049060	23.202300	0.185260	67.254400	712.440000	29.300000	
8.500000	0.000000	65.881400	45.139900	11.038990	27.345550	26.789160	0.137910	67.261790	712.409970	29.300000	
8.491000	-11.296000	65.853730	44.573180	11.603360	23.889350	30.360140	0.043820	67.228310	712.349980	29.300000	
8.502000	-22.507000	65.900670	43.528110	12.704790	20.651660	33.646900	-0.081950	67.280820	712.479980	29.400000	
8.494000	-33.806000	65.881500	41.577380	14.382870	17.664200	36.920150	-0.198730	67.275710	712.469970	29.400000	
8.495000	-44.961000	65.860980	39.039630	16.516780	15.085580	39.740060	-0.261320	67.269580	712.409970	29.400000	
8.487000	-56.277000	65.787700	36.136380	19.060570	13.047090	42.032360	-0.345790	67.240010	711.710020	29.400000	
8.492000	-67.425000	65.728510	32.799410	22.015900	11.509080	43.763440	-0.448800	67.263300	712.510010	29.400000	
8.510000	-78.780000	65.652460	28.823010	26.158630	10.624400	44.803400	-0.483900	67.255500	711.700010	29.500000	
8.500000	-90.000000	65.588010	25.203050	29.717960	10.363820	44.983030	-0.482470	67.267910	712.479980	29.500000	
8.510000	-101.220000	65.515140	21.704240	33.106960	10.843240	44.300460	-0.584410	67.279710	711.679990	29.500000	
8.492000	-112.575000	65.425750	18.386970	36.468970	11.951990	42.863470	-0.587140	67.258620	712.460020	29.500000	
8.487000	-123.723000	65.384960	15.568960	39.512990	13.620720	40.860840	-0.602930	67.285000	712.370000	29.500000	
8.495000	-135.039000	65.307800	13.084000	42.233280	15.902680	38.179040	-0.573930	67.276600	712.400020	29.600000	
8.494000	-146.194000	65.202480	11.157100	44.548210	18.611250	35.048360	-0.701790	67.213520	712.210020	29.600000	
8.502000	-157.493000	65.133000	9.688860	45.709680	21.670470	31.750600	-0.652460	67.227960	712.440000	29.600000	
8.491000	-168.704000	65.161060	8.923360	46.625800	25.082240	28.329540	-0.673900	67.276010	712.510010	29.600000	
8.500000	180.000000	65.119160	8.731740	46.764020	28.704720	24.667720	-0.669580	67.255880	712.440000	29.600000	
10.200000	180.000000	63.985130	4.829530	49.695460	27.738800	23.488240	-1.275390	67.277820	712.520020	29.700000	
10.191000	-170.497000	63.963100	4.996600	49.594470	24.185540	27.185470	-1.227930	67.242950	712.429990	29.700000	
10.210000	-161.034000	63.962330	5.585660	48.776360	20.681590	30.780430	-1.332500	67.230830	712.520020	29.700000	
10.194000	-151.526000	64.073070	6.778760	47.395260	17.475280	34.129680	-1.355980	67.263260	712.250000	29.700000	
10.190000	-142.105000	64.121140	8.433700	45.834290	14.525700	37.426480	-1.385520	67.226260	712.120000	29.700000	
10.215000	-132.646000	64.184050	10.402060	43.551550	11.859200	40.558430	-1.139430	67.256320	711.979980	29.700000	
10.203000	-123.092000	64.302020	12.986750	40.498340	9.745440	43.209670	-1.357930	67.297290	712.539980	29.800000	
10.192000	-113.678000	64.353140	15.835760	37.384180	8.224160	45.318970	-1.171930	67.267970	711.630000	29.800000	
10.208000	-104.249000	64.405610	18.961310	34.080560	7.055120	46.865580	-1.329120	67.257850	712.510010	29.800000	
10.210000	-94.801000	64.525930	22.431100	30.615340	6.412790	47.820540	-1.079450	67.276570	712.530030	29.800000	
10.210000	-85.199000	64.598430	26.052150	26.687920	6.348020	48.059970	-1.093810	67.276660	712.460020	29.800000	
10.208000	-75.751000	64.676540	29.706910	22.741810	6.795880	47.579990	-1.106480	67.261830	712.289980	29.800000	
10.192000	-66.322000	64.760160	33.669560	19.543490	7.667060	46.499480	-1.157550	67.281810	712.310000	29.900000	
10.203000	-56.908000	64.797870	37.020670	16.626200	9.088750	44.688610	-1.092500	67.273410	711.830020	29.900000	
10.215000	-47.354000	64.876420	40.103530	13.980050	11.069450	42.388520	-0.939830	67.290600	711.830020	29.900000	
10.190000	-37.895000	64.940190	42.851580	11.770710	13.492690	39.602150	-0.883000	67.318650	712.510010	29.900000	
10.194000	-28.474000	64.925040	44.816310	9.888680	16.228980	36.405700	-0.802450	67.268960	712.429990	30.000000	
10.210000	-18.966000	64.947930	46.595570	9.154830	19.320800	33.144690	-0.663520	67.296670	712.380000	30.000000	
10.191000	-9.503000	64.966930	47.660120	8.370230	22.731810	29.640930	-0.536330	67.300780	712.570010	30.000000	
10.200000	0.000000	64.933080	48.119040	7.835780	26.183890	25.953390	-0.437830	67.289990	712.370000	30.000000	
10.191000	9.503000	64.909650	47.884930	7.763660	29.889910	22.273360	-0.361540	67.275420	712.030030	30.000000	
10.210000	18.966000	64.827260	47.042210	8.166730	33.673740	18.605200	-0.314480	67.279550	712.299990	30.000000	
10.194000	28.474000	64.819930	45.505040	8.825060	37.055710	15.373440	-0.276890	67.309170	712.380000	30.100000	
10.190000	37.895000	64.727260	43.669540	10.370770	40.051380	12.530990	-0.331590	67.292770	711.729980	30.100000	
10.215000	47.354000	64.621780	41.053850	12.284910	42.883850	9.985860	-0.382410	67.290410	712.489990	30.100000	
10.203000	56.908000	64.514170	38.066730	14.680280	45.240530	7.866220	-0.470540	67.263030	712.239990	30.100000	
10.192000	66.322000	64.450300	34.830110	17.405640	47.297800	6.255010	-0.586370	67.307810	711.789980	30.100000	
10.208000	75.751000	64.358220	31.183370	20.426090	48.736660	5.069480	-0.646490	67.308280	711.739990	30.100000	
10.210000	85.199000	64.255190	27.269690	23.759800	49.498070	4.463320	-0.775070	67.265520	711.739990	30.100000	
10.210000	94.801000	64.173510	23.631270	27.803110	49.621960	4.319910	-0.855900	67.240910	711.700010	30.100000	
10.208000	104.249000	64.111880	20.106270	31.657130	49.067070	4.751700	-1.424060	67.231220	711.789980	30.100000	
10.192000	113.678000	64.073520	16.864360	35.075750	47.886290	5.631030	-1.018890	67.226650	711.799990	30.100000	
10.203000	123.092000	64.019930	13.933370	38.263400	46.062500	6.912280	-1.281250	67.213630	711.789980	30.200000	
10.215000	132.646000	64.005230	11.300250	41.361610	43.843990	8.711610	-1.188540	67.252590	711.789980	30.200000	
10.190000	142.105000	63.990160	9.112980	44.306560	41.169660	10.908330	-1.641840	67.254910	711.840030	30.200000	
10.194000	151.526000	63.953300	7.377030	46.421780	38.238520	13.430160	-1.295200	67.235360	711.729980	30.200000	
10.210000	161.034000	63.928460	5.958100	47.878580	34.997680	16.489110	-1.725960	67.237340	712.159970	30.200000	
10.191000	170.497000	63.939570	5.177570	49.021070	31.465750	19.884120	-1.491270	67.228710	712.280030	30.200000	
11.899000	171.783000	62.560270	1.212600	51.698930	30.306430	18.545630	-2.209800	67.232750	711.780030	30.200000	
11.890000	163.610000	62.572520	1.956450	50.706750	34.040730	15.162580	-2.285090	67.249600	711.799990	30.300000	
11.889000	155.445000	62.543550	3.044250	49.049950	37.387470	12.097800	-2.375620	67.183030	712.169980	30.300000	
11.909000	147.299000	62.533160	4.967400	46.972820	40.494420	9.382850	-2.345580	67.194370	711.710020	30.300000	
11.902000	139.148000	62.537910	7.205540	44.961500	43.381310	6.918410	-2.231050	67.165390	711.739990	30.300000	
11.894000	130.867000	62.607790	9.520190	41.812880	45.988010	4.853350	-2.131930	67.204210	711.789980	30.300000	
11.897000	122.732000	62.670740	11.398410	38.674350	48.346490	3.289660	-2.113900	67.202550	711.739990	30.300000	
11.903000	114.597000	62.699500	14.298570	35.410720	50.085460	2.057510	-2.172490	67.196360	711.929990	30.300000	
11.893000	106.346000	62.743520	17.533880	31.946630	51.036000	1.198730	-2.140250	67.189860	711.750000	30.400000	
11.892000	98.155000	62.774270	20.949900	27.883710	51.763120	0.644740	-2.072260	67.171630	711.690000	30.400000	
11.900000	90.000000	62.821470	24.454460	24.089010	51.955510	0.529620	-1.533230	67.174740	712.130000	30.400000	
11.892000	81.845000	62.891070	28.051610	20.698430	51.483740	0.873440	-1.806460	67.178590	711.739990	30.400000	
11.893000	73.654000	62.958790	32.070530	17.447940	50.476360	1.626720	-1.795930	67.179140	711.789980	30.400000	
11.903000	65.403000	63.034170	35.742010	14.377070	48.895380	2.793390	-1.824390	67.171130	711.810000	30.500000	
11.897000	57.268000	63.127100	38.999400	11.684020	47.255860	4.315180	-1.782120	67.162700	711.859990	30.500000	
11.894000	49.133000	63.218520	41.983580	9.836870	44.820420	6.300050	-1.296870	67.188260	711.830020	30.500000	
11.902000	40.852000	63.313280	44.512830	7.804510	42.089230	8.680380	-1.112640	67.196270	711.789980	30.500000	
11.909000	32.701000	63.390850	46.871170	6.633080	39.028360	11.358810	-1.053160	67.163860	711.710020	30.500000	
11.889000	24.555000	63.499420	48.617570	5.535020	35.804710	14.316540	-0.979000	67.180350	712.219970	30.500000	
11.890000	16.390000	63.567940	49.887410	4.661420	32.293540	17.682740	-1.307490	67.184460	712.510010	30.500000	
11.899000	8.217000	63.632240	50.615910	4.216810	28.525540	21.265440	-1.242520	67.200530	712.239990	30.500000	
11.900000	0.000000	63.667710	50.795330	4.184230	25.000690	24.936170	-1.133340	67.199050	711.789980	30.500000	
11.899000	-8.217000	63.658270	50.348990	4.594380	21.359530	28.690860	-1.459030	67.184200	712.289980	30.500000	
11.890000	-16.390000	63.670680	49.418010	5.439080	17.992600	32.310210	-1.586240	67.174130	712.479980	30.500000	
11.889000	-24.555000	63.672040	47.952300	6.711040	14.842690	35.623030	-1.731100	67.205920	711.810000	30.600000	
11.909000	-32.701000	63.616680	45.899010	8.201570	11.910900	38.935820	-1.782800	67.164590	712.530030	30.600000	
11.902000	-40.852000	63.548070	43.652210	9.678060	9.303040	42.019140	-1.795090	67.144490	711.789980	30.600000	
11.894000	-49.133000	63.541210	40.789160	11.433820	7.186160	44.796030	-1.804040	67.158300	711.760010	30.600000	
11.897000	-57.268000	63.467350	37.662910	14.013310	5.707540	46.989460	-1.828380	67.145150	711.700010	30.600000	
11.903000	-65.403000	63.402000	34.274510	16.920760	4.270070	48.723290	-1.888180	67.152400	711.659970	30.600000	
11.893000	-73.654000	63.295880	30.254170	20.146150	3.352040	49.866120	-1.875290	67.095880	711.620000	30.700000	
11.892000	-81.845000	63.224460	26.503310	23.481570	2.720810	50.557920	-1.731530	67.133420	711.719970	30.700000	
11.900000	-90.000000	63.101330	22.863240	27.333400	2.574760	50.626140	-1.720320	67.098890	711.760010	30.700000	
11.892000	-98.155000	63.016160	19.411250	31.311450	3.009870	50.031380	-1.809200	67.059660	711.669980	30.700000	
11.893000	-106.346000	62.945960	16.046580	34.814090	3.702990	48.950610	-1.852730	67.093020	711.710020	30.700000	
11.903000	-114.597000	62.841780	12.918120	38.127340	4.791270	47.342910	-1.912110	67.081030	711.780030	30.700000	
11.897000	-122.732000	62.799800	10.214680	41.236390	6.063590	45.205340	-1.896740	67.085980	711.710020	30.700000	
11.894000	-130.867000	62.680110	7.739730	44.331440	7.940330	42.586980	-1.833380	67.042470	711.780030	30.700000	
11.902000	-139.148000	62.609180	5.593720	46.781030	10.345770	39.558030	-1.860030	67.058550	711.799990	30.700000	
11.909000	-147.299000	62.514730	4.475370	48.698940	13.087230	36.212300	-1.921910	67.051490	711.840030	30.700000	
11.889000	-155.445000	62.462120	2.525920	50.308850	16.282560	32.890250	-2.050200	67.023850	711.849980	30.700000	
11.890000	-163.610000	62.419940	1.484610	51.414260	19.538140	29.447730	-2.125600	67.043500	711.859990	30.800000	
11.899000	-171.783000	62.338780	0.897010	52.086510	22.985140	25.733030	-1.993260	67.015540	711.820010	30.800000	
11.900000	180.000000	62.342240	0.806980	52.144650	26.467550	22.029120	-2.152550	67.022300	711.679990	30.800000	
13.600000	180.000000	60.689720	-3.039810	54.517770	25.239370	20.470960	-2.562890	67.027420	711.840030	30.800000	
13.608000	-172.853000	60.688360	-3.047560	54.520470	21.800490	24.108420	-2.518770	67.017070	711.679990	30.800000	
13.611000	-165.583000	60.699340	-2.641970	54.007140	18.216200	27.901550	-2.481260	67.013450	711.799990	30.900000	
13.601000	-158.353000	60.769490	-1.765740	53.029220	14.873550	31.527440	-2.410300	67.018960	711.870000	30.900000	
13.609000	-151.210000	60.843440	-0.599980	51.618600	11.745980	34.889170	-2.304600	67.010610	712.520020	30.900000	
13.611000	-143.999000	60.936040	0.965290	49.658040	8.828510	38.347970	-2.176730	66.998110	711.810000	30.900000	
13.601000	-136.825000	60.987380	3.389990	47.267840	6.581910	41.529010	-2.091380	66.999580	711.799990	30.900000	
13.596000	-129.640000	61.049870	5.547210	45.038380	4.479300	44.436490	-2.085830	66.956660	711.880000	30.900000	
13.611000	-122.431000	61.134370	8.049060	41.867840	2.689260	47.092890	-2.125610	66.998660	711.789980	30.900000	
13.604000	-115.211000	61.164840	10.829840	38.632340	1.249370	49.168100	-2.133900	66.942970	711.789980	30.900000	
13.595000	-108.042000	61.270160	13.095700	35.339990	0.244630	50.914230	-2.113250	66.959180	711.719970	31.000000	
13.607000	-100.793000	61.355560	16.352410	31.847820	-0.529680	52.207490	-2.029340	66.962630	712.419980	31.000000	
13.601000	-93.617000	61.410250	19.734830	27.746230	-1.068960	52.964780	-1.996550	66.935950	711.729980	31.000000	
13.601000	-86.383000	61.482030	23.269740	23.989970	-1.275610	53.220670	-2.037370	66.943690	711.700010	31.000000	
13.607000	-79.207000	61.582550	26.892810	20.669940	-1.059390	52.955120	-2.154810	66.967690	711.870000	31.000000	
13.595000	-71.958000	61.700450	30.620690	17.347110	-0.324330	52.108190	-2.228640	66.957790	711.840030	31.000000	
13.604000	-64.789000	61.741130	34.590580	14.173880	0.631440	50.806390	-2.244200	66.954280	711.859990	31.100000	
13.611000	-57.569000	61.816570	38.071830	11.749470	1.971250	49.025000	-2.225440	66.947840	711.770020	31.100000	
13.596000	-50.360000	61.882390	41.292540	9.369030	3.652320	46.844760	-2.214490	66.952030	711.710020	31.100000	
13.601000	-43.175000	61.915290	44.171160	7.303420	5.532170	44.265220	-2.238260	66.973230	711.780030	31.100000	
13.611000	-36.001000	61.927620	46.601760	5.377260	7.779060	41.229700	-2.286800	66.946720	711.810000	31.100000	
13.609000	-28.790000	61.965820	48.871110	3.838490	10.396390	37.920230	-2.288910	66.934360	711.810000	31.200000	
13.601000	-21.647000	62.022770	50.674770	2.483020	13.195130	34.618920	-2.231470	66.973180	711.810000	31.200000	
13.611000	-14.417000	61.976910	52.006900	1.358730	16.387490	31.177280	-2.128580	66.942420	711.780030	31.200000	
13.608000	-7.147000	61.989200	52.870220	0.612450	19.887290	27.449650	-2.033240	66.953830	711.799990	31.200000	
13.600000	0.000000	61.992300	53.240720	0.283680	23.418010	23.735160	-2.002080	66.966320	711.750000	31.200000	
13.608000	7.147000	61.955580	53.092830	0.330250	26.894700	20.081720	-2.064030	66.953350	711.799990	31.200000	
13.611000	14.417000	61.892290	52.418850	0.723400	30.624260	16.439930	-2.124550	66.948170	711.729980	31.200000	
13.601000	21.647000	61.808870	51.240860	1.464120	34.326130	13.096580	-2.099490	66.900510	711.780030	31.200000	
13.609000	28.790000	61.739360	49.701730	2.464840	37.748560	10.094600	-2.075830	66.889520	711.739990	31.200000	
13.611000	36.001000	61.609760	47.611270	3.729650	40.929130	7.276680	-2.027830	66.876290	711.789980	31.300000	
13.601000	43.175000	61.503910	45.078040	5.338680	43.855530	4.756030	-2.044540	66.890360	711.780030	31.300000	
13.596000	50.360000	61.412340	42.521830	7.007410	46.493890	2.566040	-2.211060	66.883680	711.780030	31.300000	
13.611000	57.569000	61.286880	39.456640	9.189430	48.938260	0.630510	-2.431620	66.863060	711.650020	31.300000	
13.604000	64.789000	61.239700	36.109440	11.430570	50.730960	-0.825930	-2.514920	66.874800	711.739990	31.300000	
13.595000	71.958000	61.144130	32.542000	14.330370	52.315950	-1.988840	-2.462250	66.871150	711.760010	31.300000	
13.607000	79.207000	61.016780	28.480580	17.505040	53.373590	-2.846850	-2.456880	66.851150	711.630000	31.300000	
13.601000	86.383000	60.944290	24.854750	20.812170	53.954480	-3.315510	-2.517440	66.843190	711.719970	31.300000	
13.601000	93.617000	60.884920	21.312610	24.228570	54.083520	-3.368470	-2.617270	66.831810	711.729980	31.300000	
13.607000	100.793000	60.801050	17.855390	27.952850	53.744940	-3.226290	-2.785960	66.839630	711.770020	31.400000	
13.595000	108.042000	60.798210	14.566020	32.059550	52.916900	-2.582820	-2.852970	66.865000	711.760010	31.400000	
13.604000	115.211000	60.756280	11.444470	35.501160	51.616310	-1.715960	-2.829680	66.865140	711.820010	31.400000	
13.611000	122.431000	60.710790	8.518780	38.849370	49.722010	-0.452790	-2.776030	66.842820	711.830020	31.400000	
13.596000	129.640000	60.630260	6.706850	42.055640	47.801600	1.017820	-2.763820	66.837060	711.750000	31.400000	
13.601000	136.825000	60.579570	4.460260	45.185120	45.154380	2.890630	-2.859390	66.830000	711.729980	31.400000	
13.611000	143.999000	60.547950	1.592450	47.366830	42.413930	5.166600	-2.929590	66.822310	711.719970	31.500000	
13.609000	151.210000	60.558920	-0.019590	49.747990	39.325030	7.767970	-3.004460	66.819800	711.690000	31.500000	
13.601000	158.353000	60.520370	-1.287020	51.607720	36.036350	10.550210	-2.956260	66.813870	711.840030	31.500000	
13.611000	165.583000	60.469440	-2.228410	52.982990	32.356910	13.557090	-2.794840	66.800920	711.870000	31.500000	
13.608000	172.853000	60.513810	-2.838110	53.933940	28.654220	17.044920	-2.659950	66.848150	711.830020	31.500000	
15.298000	173.587000	58.616120	-6.690180	56.146470	27.116140	15.416610	-3.010750	66.795490	711.750000	31.500000	
15.291000	167.167000	58.654070	-6.106730	55.301810	30.733920	12.164310	-3.179290	66.833920	711.780030	31.500000	
15.307000	160.676000	58.643010	-5.354020	54.001720	34.493430	9.048830	-3.393740	66.795150	711.870000	31.600000	
15.300000	154.261000	58.653530	-4.280050	52.379710	38.022810	6.207120	-3.485280	66.794970	711.729980	31.600000	
15.288000	147.854000	58.679440	-2.876670	50.242720	41.275460	3.536200	-3.531740	66.793820	711.770020	31.600000	
15.293000	141.428000	58.722050	-1.121530	47.735130	44.257020	1.192600	-3.463470	66.801930	711.799990	31.600000	
15.299000	134.985000	58.773270	0.993050	45.351520	47.009690	-0.821970	-3.419360	66.784680	711.810000	31.600000	
15.305000	128.583000	58.765730	3.934800	42.137350	49.610130	-2.756480	-3.365760	66.782970	711.739990	31.600000	
15.309000	122.142000	58.791580	6.595000	38.867190	51.555600	-4.310800	-3.364720	66.760350	711.799990	31.600000	
15.304000	115.711000	58.861000	9.508640	35.496650	53.395760	-5.475410	-3.437400	66.799320	711.840030	31.600000	
15.297000	109.291000	58.875530	11.709680	31.858180	54.731950	-6.270330	-3.484650	66.779910	711.789980	31.700000	
15.293000	102.897000	58.907340	14.919240	28.012390	55.648370	-6.987300	-3.450380	66.733020	711.719970	31.700000	
15.293000	96.458000	58.992600	18.348570	24.231640	56.150990	-7.204330	-3.332100	66.771930	711.820010	31.700000	
15.300000	90.000000	59.071840	21.792800	20.904460	56.348700	-7.125700	-3.210590	66.758270	711.780030	31.700000	
15.293000	83.542000	59.094120	25.257310	17.554450	55.903140	-7.048390	-3.140820	66.742830	711.679990	31.700000	
15.293000	77.103000	59.112950	28.904690	14.230130	55.111630	-6.542850	-3.126050	66.690060	711.870000	31.700000	
15.297000	70.709000	59.227040	32.829970	11.608040	53.964770	-5.573870	-3.143630	66.734540	711.799990	31.700000	
15.304000	64.289000	59.323030	36.482100	8.826660	52.378180	-4.463660	-3.168430	66.731720	711.849980	31.800000	
15.309000	57.858000	59.416710	39.876690	6.235650	50.277550	-3.005680	-3.081650	66.739680	711.840030	31.800000	
15.305000	51.417000	59.497970	42.970270	4.231380	48.101670	-1.196430	-2.896450	66.738370	711.729980	31.800000	
15.299000	45.015000	59.630670	45.594800	2.355320	45.354410	0.973340	-2.731940	66.727680	711.669980	31.800000	
15.293000	38.572000	59.766510	48.273750	0.727970	42.595450	3.329330	-2.671470	66.757480	711.719970	31.800000	
15.288000	32.146000	59.879630	50.499690	-0.634020	39.458520	6.013340	-2.652310	66.746430	711.770020	31.800000	
15.300000	25.739000	59.949130	52.340440	-1.757640	36.041000	8.925360	-2.670770	66.728700	711.810000	31.900000	
15.307000	19.324000	60.012960	53.732330	-2.555120	32.272730	11.989000	-2.766840	66.731220	711.849980	31.900000	
15.291000	12.833000	60.075280	54.648880	-3.064510	28.740110	15.276760	-2.710870	66.704790	711.799990	31.900000	
15.298000	6.413000	60.108180	55.326520	-3.387110	25.168010	18.911140	-2.604340	66.726260	711.760010	31.900000	
15.300000	0.000000	60.113770	55.433020	-3.398460	21.659990	22.411700	-2.534230	66.709170	711.700010	31.900000	
15.298000	-6.413000	60.134370	54.994700	-3.074120	18.211640	26.075470	-2.487550	66.711970	711.710020	31.900000	
15.291000	-12.833000	60.141470	54.214670	-2.453070	14.781030	29.787960	-2.520600	66.717500	711.780030	31.900000	
15.307000	-19.324000	60.149260	53.056010	-1.539630	11.585150	33.332860	-2.565810	66.720470	711.810000	31.900000	
15.300000	-25.739000	60.124100	51.432550	-0.357030	8.566250	36.661390	-2.586630	66.711340	711.780030	32.000000	
15.288000	-32.146000	60.072010	49.388870	1.056150	6.205140	40.024990	-2.548770	66.690540	711.700010	32.000000	
15.293000	-38.572000	60.064030	46.944260	2.657970	3.751290	43.238670	-2.488030	66.728200	711.799990	32.000000	
15.299000	-45.015000	59.993190	44.327500	4.570230	1.627280	46.141320	-2.398030	66.681750	711.729980	32.000000	
15.305000	-51.417000	59.936330	41.445640	6.740880	-0.262330	48.649180	-2.387090	66.696910	711.799990	32.000000	
15.309000	-57.858000	59.875240	38.173960	9.257030	-1.857070	50.830600	-2.351370	66.706200	711.789980	32.000000	
15.304000	-64.289000	59.769260	34.623930	11.846820	-3.134770	52.624330	-2.331840	66.668370	711.739990	32.000000	
15.297000	-70.709000	59.694520	30.655160	14.397350	-4.015650	53.914310	-2.266190	66.641680	711.810000	32.100000	
15.293000	-77.103000	59.631290	27.074100	17.641400	-4.649750	54.773720	-2.187580	66.643460	711.820010	32.100000	
15.293000	-83.542000	59.541470	23.472700	21.051650	-4.952640	55.218100	-2.089820	66.636140	711.799990	32.100000	
15.300000	-90.000000	59.476750	19.981900	24.382410	-4.883710	55.225540	-2.056430	66.654250	711.789980	32.100000	
15.293000	-96.458000	59.389060	16.569480	28.080520	-4.603420	54.778750	-2.040270	66.658710	711.729980	32.100000	
15.293000	-102.897000	59.333140	13.192460	32.182800	-4.080320	53.884590	-2.052120	66.678400	711.719970	32.200000	
15.297000	-109.291000	59.191720	9.975560	35.589430	-3.435940	52.548400	-2.083180	66.652790	711.789980	32.200000	
15.304000	-115.711000	59.107320	7.021370	38.872030	-2.301160	50.739330	-2.131230	66.642430	711.770020	32.200000	
15.309000	-122.142000	58.987250	5.209290	42.070260	-0.995940	48.567170	-2.114690	66.629440	711.770020	32.200000	
15.305000	-128.583000	58.898660	2.709420	45.251690	0.646540	46.037800	-2.114960	66.604780	711.729980	32.200000	
15.299000	-134.985000	58.873140	0.488310	47.603470	2.740850	43.109030	-2.159540	66.610730	711.690000	32.200000	
15.293000	-141.428000	58.804760	-1.979790	50.099300	5.079360	39.945140	-2.227280	66.605900	711.750000	32.300000	
15.288000	-147.854000	58.726220	-3.544390	52.224280	7.623950	36.570670	-2.344230	66.631670	711.719970	32.300000	
15.300000	-154.261000	58.615620	-4.857290	53.880390	10.396090	33.206420	-2.453590	66.619020	711.690000	32.300000	
15.307000	-160.676000	58.536930	-5.869160	55.163250	13.380450	29.663310	-2.558340	66.639660	711.590030	32.300000	
15.291000	-167.167000	58.476840	-6.563450	55.989460	16.747200	25.973420	-2.658520	66.607790	711.620000	32.300000	
15.298000	-173.587000	58.418730	-6.837830	56.497340	20.228640	22.206260	-2.728230	66.574490	711.620000	32.300000	
15.300000	180.000000	58.445710	-6.792200	56.498250	23.592100	18.765520	-2.852250	66.585420	711.770020	32.300000	
17.000000	180.000000	56.333490	-10.278070	58.683680	21.806590	17.155300	-3.043060	66.572250	711.659970	32.300000	
16.990000	-174.179000	56.394730	-10.310280	58.701500	18.678230	20.305440	-2.787150	66.601400	711.650020	32.300000	
17.009000	-168.383000	56.363350	-10.263160	58.290540	15.163090	23.989150	-2.647340	66.590800	711.659970	32.300000	
17.000000	-162.596000	56.399610	-9.725050	57.462510	11.886960	27.694390	-2.547720	66.561940	711.739990	32.400000	
16.990000	-156.759000	56.490330	-8.851270	56.178170	9.059020	31.395000	-2.397240	66.583040	711.719970	32.400000	
16.995000	-150.919000	56.554600	-7.782560	54.664620	6.147390	34.889270	-2.276760	66.580730	711.840030	32.400000	
16.988000	-145.161000	56.690510	-6.365180	52.854910	3.556360	38.171430	-2.211840	66.590140	711.830020	32.400000	
17.014000	-139.343000	56.739780	-4.800820	50.631090	1.048460	41.549630	-2.095450	66.581340	711.760010	32.400000	
17.007000	-133.546000	56.798340	-2.501060	47.953820	-1.170610	44.706910	-2.005190	66.586810	711.719970	32.400000	
17.001000	-127.699000	56.862830	-0.257800	45.473880	-3.099190	47.570450	-1.982070	66.565930	711.659970	32.500000	
17.006000	-121.937000	56.941390	2.150730	42.365260	-4.652230	49.979060	-1.943780	66.561980	711.710020	32.500000	
17.002000	-116.134000	57.085830	4.921250	39.135200	-5.960790	52.216090	-1.953480	66.584300	711.710020	32.500000	
17.001000	-110.310000	57.161270	7.891440	35.753940	-7.090450	54.054620	-1.947000	66.569630	711.690000	32.500000	
16.988000	-104.517000	57.247930	10.944070	32.217240	-7.908420	55.442580	-1.980310	66.561550	711.690000	32.500000	
17.008000	-98.662000	57.300860	13.307000	28.234370	-8.529150	56.476640	-1.911020	66.567380	711.719970	32.500000	
16.996000	-92.909000	57.395980	16.681660	24.579360	-8.845130	57.112460	-1.914770	66.560200	711.679990	32.600000	
16.996000	-87.091000	57.472970	20.081250	21.269340	-8.853790	57.335850	-1.930190	66.563590	711.669980	32.600000	
17.012000	-81.253000	57.536110	23.462520	17.913340	-8.879650	57.201830	-2.001780	66.576800	711.760010	32.600000	
16.988000	-75.483000	57.629220	27.019570	14.625910	-8.500580	56.586230	-2.084280	66.539230	711.719970	32.600000	
17.001000	-69.690000	57.682860	30.575270	12.033110	-7.803690	55.640300	-2.168240	66.549670	711.609990	32.600000	
17.002000	-63.866000	57.732330	34.538810	9.264590	-6.886580	54.270740	-2.189450	66.523400	711.679990	32.600000	
17.006000	-58.063000	57.769120	38.100490	6.421500	-5.712300	52.486960	-2.237880	66.516610	711.630000	32.600000	
17.001000	-52.301000	57.835370	41.387370	3.965450	-4.229370	50.319300	-2.265530	66.517400	711.580020	32.600000	
17.007000	-46.454000	57.902980	44.313000	1.802690	-2.476980	47.923720	-2.361130	66.528470	711.669980	32.600000	
17.014000	-40.657000	57.940850	47.094200	-0.139570	-0.391710	45.072750	-2.454750	66.528340	711.710020	32.600000	
16.988000	-34.839000	58.015390	49.709840	-1.773210	1.957920	41.941020	-2.555730	66.524640	711.729980	32.700000	
16.995000	-29.081000	58.019160	51.878570	-3.276970	4.404660	38.678060	-2.666400	66.520940	711.750000	32.700000	
16.990000	-23.241000	58.074070	53.712750	-4.506550	7.211060	35.274600	-2.700380	66.511830	711.780030	32.700000	
17.000000	-17.404000	58.120450	55.178310	-5.505520	10.143070	31.825490	-2.737750	66.527530	711.820010	32.700000	
17.009000	-11.617000	58.106520	56.420960	-6.288590	13.146760	28.217630	-2.777940	66.534600	711.870000	32.700000	
16.990000	-5.821000	58.103700	57.139080	-6.751380	16.403310	24.500740	-2.822420	66.518100	711.810000	32.700000	
17.000000	0.000000	58.106260	57.488830	-6.981350	19.778840	20.952350	-2.941150	66.521900	711.810000	32.800000	
16.990000	5.821000	58.068550	57.383300	-7.110080	23.296130	17.482130	-3.113080	66.501700	711.799990	32.800000	
17.009000	11.617000	58.002900	56.871620	-6.973650	26.865350	13.948020	-3.242510	66.509010	711.780030	32.800000	
17.000000	17.404000	57.926290	55.887240	-6.473850	30.256520	10.672980	-3.326920	66.480750	711.870000	32.800000	
16.990000	23.241000	57.877410	54.557460	-5.813970	33.794160	7.562690	-3.272740	66.502050	711.870000	32.800000	
16.995000	29.081000	57.761940	52.909630	-4.922900	37.654270	4.570630	-3.254300	66.482990	711.900020	32.900000	
16.988000	34.839000	57.677950	50.943630	-3.748600	40.917470	1.903400	-3.292510	66.510930	711.979980	32.900000	
17.014000	40.657000	57.530780	48.578370	-2.322750	43.915010	-0.557990	-3.341120	66.469360	712.010010	32.900000	
17.007000	46.454000	57.431630	45.803190	-0.665460	46.751560	-2.847310	-3.425710	66.499280	711.979980	32.900000	
17.001000	52.301000	57.287670	43.008410	1.287850	49.481920	-4.894530	-3.559560	66.455930	711.960020	32.900000	
17.006000	58.063000	57.208050	39.932520	3.242980	51.643900	-6.677680	-3.720580	66.498500	711.960020	32.900000	
17.002000	63.866000	57.177890	36.602580	5.770860	53.650970	-8.380830	-3.829770	66.504660	711.900020	33.000000	
17.001000	69.690000	57.071410	32.880100	8.520740	55.243510	-9.503960	-3.817840	66.469420	711.969970	33.000000	
16.988000	75.483000	56.956940	29.046780	11.379630	56.509350	-10.197770	-3.802030	66.455720	712.049990	33.000000	
17.012000	81.253000	56.821500	25.418020	14.119920	57.662260	-10.998550	-3.807100	66.445180	711.960020	33.000000	
16.996000	87.091000	56.780640	21.855470	17.428870	58.164920	-11.082130	-3.845520	66.450660	711.960020	33.000000	
16.996000	92.909000	56.719730	18.584490	20.620930	58.327480	-10.962560	-3.953050	66.458980	711.909970	33.000000	
17.008000	98.662000	56.622460	15.187210	24.001730	58.028080	-11.117910	-4.056610	66.445370	711.969970	33.000000	
16.988000	104.517000	56.549780	11.844130	27.662170	57.255390	-10.590940	-4.084810	66.398820	711.919980	33.000000	
17.001000	110.310000	56.570470	8.684710	31.429290	56.092670	-10.009750	-4.114310	66.476500	711.940000	33.000000	
17.002000	116.134000	56.496840	6.404180	35.175190	54.693290	-9.153960	-4.030840	66.429500	711.940000	33.000000	
17.006000	121.937000	56.414940	3.669610	38.545280	52.935290	-8.055380	-3.945650	66.427350	711.849980	33.100000	
17.001000	127.699000	56.376590	1.307700	41.799290	50.750810	-6.576390	-3.890030	66.416660	711.890010	33.100000	
17.007000	133.546000	56.342750	-0.997280	45.050690	48.166030	-4.819280	-3.948330	66.417880	711.900020	33.100000	
17.014000	139.343000	56.299120	-3.005720	47.798250	45.559580	-2.799670	-4.004940	66.407720	711.859990	33.100000	
16.988000	145.161000	56.305900	-4.721670	50.192780	42.776210	-0.533880	-3.959860	66.419490	711.909970	33.100000	
16.995000	150.919000	56.291400	-6.929940	52.448830	39.695530	1.866480	-3.908870	66.425290	711.799990	33.100000	
16.990000	156.759000	56.280120	-8.192380	54.360360	36.226850	4.590060	-3.813640	66.454260	711.890010	33.100000	
17.000000	162.596000	56.233760	-9.128130	55.880050	32.234460	7.465560	-3.608780	66.439780	711.890010	33.200000	
17.009000	168.383000	56.188820	-9.828020	57.220340	28.844110	10.478650	-3.389450	66.429040	711.859990	33.200000	
16.990000	174.179000	56.175500	-10.169560	58.037250	25.248880	13.732060	-3.203540	66.392540	711.880000	33.200000	
18.709000	174.675000	53.850460	-13.856400	59.981120	23.415200	12.009670	-3.250430	66.395160	711.919980	33.200000	
18.703000	169.441000	53.857930	-13.460590	59.212900	26.978650	8.820330	-3.429590	66.398560	711.919980	33.200000	
18.691000	164.085000	53.911070	-12.688380	58.014290	30.467490	5.777530	-3.633660	66.390280	711.960020	33.200000	
18.706000	158.818000	53.934720	-11.823840	56.390180	34.064800	2.868980	-3.838030	66.386030	711.880000	33.200000	
18.695000	153.537000	54.020580	-10.620940	54.664660	37.903190	0.212950	-4.037450	66.417180	711.840030	33.200000	
18.704000	148.255000	54.027590	-9.180840	52.570610	41.220690	-2.217490	-4.146900	66.366770	711.870000	33.200000	
18.698000	142.952000	54.023030	-7.608600	50.158970	44.208350	-4.555300	-4.145230	66.331920	711.979980	33.300000	
18.699000	137.625000	54.052670	-5.727040	47.644460	47.125910	-6.719710	-4.160330	66.341300	711.940000	33.300000	
18.705000	132.343000	54.108560	-3.601550	44.720710	49.852060	-8.694060	-4.222980	66.343440	711.890010	33.300000	
18.713000	127.067000	54.177580	-1.247250	41.662740	52.092330	-10.384330	-4.301700	66.335410	711.830020	33.300000	
18.700000	121.794000	54.264080	1.272770	38.358970	54.202550	-11.846900	-4.360420	66.355460	711.799990	33.300000	
18.698000	116.504000	54.309970	3.946620	34.929660	55.972370	-13.139070	-4.450780	66.339680	711.909970	33.300000	
18.707000	111.165000	54.289300	6.763500	31.126200	57.619180	-14.278920	-4.525880	66.347340	711.960020	33.300000	
18.690000	105.863000	54.351300	9.664270	27.332010	58.854410	-14.950370	-4.596620	66.337740	711.890010	33.400000	
18.696000	100.583000	54.337990	12.760920	23.780590	59.623600	-15.455410	-4.653390	66.330150	711.900020	33.400000	
18.700000	95.309000	54.433790	15.329050	20.442770	60.016490	-15.420120	-4.565490	66.328220	711.830020	33.400000	
18.700000	90.000000	54.447810	18.334900	17.330850	60.108710	-15.725210	-4.408500	66.323080	711.849980	33.400000	
18.700000	84.691000	54.545940	21.893540	14.188570	59.787890	-15.571530	-4.392820	66.339900	711.840030	33.400000	
18.696000	79.417000	54.629940	25.570040	11.086000	59.088250	-15.100710	-4.349180	66.316120	711.979980	33.400000	
18.690000	74.137000	54.737930	29.205120	8.107480	57.938060	-14.199980	-4.289870	66.303100	711.780030	33.400000	
18.707000	68.835000	54.873410	32.859250	5.265470	56.485050	-13.071580	-4.334130	66.302620	711.870000	33.400000	
18.698000	63.496000	54.992590	36.691460	2.587050	54.766280	-11.816330	-4.288620	66.341410	711.820010	33.500000	
18.700000	58.206000	55.009670	40.063250	0.124330	52.695940	-10.418300	-4.174260	66.281100	711.909970	33.500000	
18.713000	52.933000	54.996630	43.109740	-1.784780	50.361810	-8.705670	-4.044110	66.300940	711.840030	33.500000	
18.705000	47.657000	55.083970	45.872390	-3.711130	47.741280	-6.704680	-3.935790	66.278770	711.870000	33.500000	
18.699000	42.375000	55.250570	48.775700	-5.457330	45.089110	-4.463140	-3.817130	66.308590	711.859990	33.500000	
18.698000	37.048000	55.337680	51.227990	-6.963440	42.088150	-2.055350	-3.772650	66.271660	711.969970	33.500000	
18.704000	31.745000	55.474320	53.373790	-8.191650	38.910430	0.457380	-3.735280	66.311640	711.950010	33.500000	
18.695000	26.463000	55.549440	55.129910	-9.126160	35.202480	3.189720	-3.686450	66.267630	711.840030	33.500000	
18.706000	21.182000	55.661000	56.765430	-9.846740	31.558870	6.174070	-3.688690	66.273840	711.880000	33.500000	
18.691000	15.915000	55.712550	57.935550	-10.468980	28.224580	9.264630	-3.642780	66.277770	711.890010	33.600000	
18.703000	10.559000	55.743760	58.747640	-10.869100	24.639180	12.584240	-3.532260	66.258090	711.919980	33.600000	
18.709000	5.325000	55.781040	59.199700	-11.013490	21.017620	15.897750	-3.375850	66.279910	711.909970	33.600000	
18.700000	0.000000	55.803900	59.227200	-10.694420	17.629980	19.396770	-3.154950	66.260940	711.870000	33.600000	
18.709000	-5.325000	55.781360	58.960900	-10.597530	14.483870	22.521640	-2.871220	66.239970	712.030030	33.600000	
18.703000	-10.559000	55.837020	58.296650	-10.195400	11.488100	26.256240	-2.780020	66.257030	712.030030	33.600000	
18.691000	-15.915000	55.934730	57.270330	-9.429340	8.467570	30.011010	-2.695540	66.311030	712.010010	33.600000	
18.706000	-21.182000	55.866490	55.750770	-8.552360	5.508760	33.556840	-2.613210	66.283950	712.000000	33.600000	
18.695000	-26.463000	55.816350	54.061020	-7.445280	2.720630	36.949890	-2.513780	66.278290	711.979980	33.600000	
18.704000	-31.745000	55.765730	52.056780	-6.139930	0.173200	40.242440	-2.399390	66.262200	712.030030	33.600000	
18.698000	-37.048000	55.712330	49.671630	-4.613030	-2.219000	43.492280	-2.301440	66.256900	712.049990	33.600000	
18.699000	-42.375000	55.627380	46.878200	-2.902580	-4.427340	46.535110	-2.185210	66.231030	711.940000	33.700000	
18.705000	-47.657000	55.582490	44.131450	-0.907770	-6.391830	49.222370	-2.148430	66.242450	711.859990	33.700000	
18.713000	-52.933000	55.526680	41.093940	1.312770	-8.024780	51.634840	-2.091400	66.210480	711.950010	33.700000	
18.700000	-58.206000	55.498200	37.816290	3.648930	-9.434910	53.761730	-1.976410	66.233080	711.880000	33.700000	
18.698000	-63.496000	55.383910	34.203750	6.202280	-10.628130	55.490200	-1.932310	66.229760	711.859990	33.700000	
18.707000	-68.835000	55.277920	30.290150	9.155280	-11.674870	56.928120	-1.877360	66.208340	711.870000	33.700000	
18.690000	-74.137000	55.248900	26.715310	12.190510	-12.482420	57.976960	-1.849490	66.204060	711.989990	33.700000	
18.696000	-79.417000	55.143960	23.147820	14.813610	-12.983310	58.654660	-1.813730	66.187370	711.960020	33.700000	
18.700000	-84.691000	55.085120	19.802080	17.934450	-12.993800	58.964700	-1.749330	66.189050	711.859990	33.700000	
18.700000	-90.000000	54.994860	16.596300	21.096370	-13.085400	58.938680	-1.724700	66.196800	711.789980	33.700000	
18.700000	-95.309000	54.916470	13.192400	24.483050	-13.004770	58.527270	-1.706950	66.187930	711.950010	33.800000	
18.696000	-100.583000	54.831330	10.838260	28.045480	-12.565410	57.728320	-1.718890	66.179550	711.979980	33.800000	
18.690000	-105.863000	54.760130	7.682710	31.788980	-11.869960	56.585380	-1.689940	66.183860	711.989990	33.800000	
18.707000	-111.165000	54.669900	4.573970	35.429310	-10.990410	55.099210	-1.662460	66.186040	711.909970	33.800000	
18.698000	-116.504000	54.575090	1.887700	38.783250	-9.852870	53.225120	-1.676270	66.174100	711.940000	33.800000	
18.700000	-121.794000	54.540700	-0.458700	42.160840	-8.361200	50.992690	-1.703310	66.186040	711.900020	33.800000	
18.713000	-127.067000	54.415340	-2.792490	45.311010	-6.792820	48.535110	-1.782550	66.168860	711.989990	33.800000	
18.705000	-132.343000	54.288020	-4.921000	48.029800	-4.993670	45.800760	-1.839600	66.155000	711.820010	33.800000	
18.699000	-137.625000	54.226140	-6.768720	50.478850	-2.892800	42.713380	-1.884860	66.129330	711.840030	33.800000	
18.698000	-142.952000	54.205460	-8.429600	52.856740	-0.556130	39.402520	-1.942440	66.141190	711.830020	33.900000	
18.704000	-148.255000	54.124510	-9.963360	54.814780	1.936240	36.075090	-2.054990	66.179930	711.900020	33.900000	
18.695000	-153.537000	54.014950	-11.293170	56.621490	4.596080	32.739710	-2.108060	66.202830	711.929990	33.900000	
18.706000	-158.818000	53.858250	-12.406350	58.104000	7.467130	29.090430	-2.232060	66.144230	711.940000	33.900000	
18.691000	-164.085000	53.808170	-13.095540	59.195890	10.507800	25.376190	-2.342780	66.160400	712.020020	33.900000	
18.703000	-169.441000	53.787520	-13.564820	59.891860	13.605990	21.574880	-2.498270	66.159150	711.890010	33.900000	
18.709000	-174.675000	53.758330	-13.681970	60.200290	16.844060	18.224900	-2.643640	66.181930	711.919980	34.000000	
18.700000	180.000000	53.715120	-13.743950	60.150120	19.842560	15.202400	-2.982740	66.164710	711.890010	34.000000	
20.400000	180.000000	51.199490	-17.648030	61.604390	17.888660	13.254410	-2.936780	66.134900	711.880000	34.000000	
20.401000	-175.153000	51.388840	-17.594680	61.691890	15.246030	15.865710	-2.575430	66.174160	711.969970	34.000000	
20.407000	-170.264000	51.423930	-17.500840	61.402280	12.049390	19.440520	-2.364220	66.116710	711.950010	34.000000	
20.410000	-165.423000	51.464130	-17.092330	60.872340	8.948700	22.941150	-2.149140	66.118430	711.909970	34.000000	
20.392000	-160.496000	51.496780	-16.437680	59.970620	5.826830	26.798630	-2.043570	66.119320	712.030030	34.000000	
20.401000	-155.705000	51.551520	-15.580710	58.690130	2.947470	30.426520	-1.984530	66.135540	712.080020	34.000000	
20.405000	-150.835000	51.671610	-14.414160	56.969460	0.300590	33.924440	-1.881710	66.134330	711.979980	34.000000	
20.397000	-145.903000	51.766890	-13.031740	55.021210	-2.240230	37.296240	-1.809860	66.153690	711.979980	34.000000	
20.392000	-141.062000	51.789630	-11.495260	52.952450	-4.545190	40.669490	-1.772300	66.145590	712.060000	34.100000	
20.396000	-136.227000	51.779530	-9.803230	50.501380	-6.726620	43.862790	-1.692330	66.112980	711.979980	34.100000	
20.408000	-131.372000	51.880980	-7.895900	48.078100	-8.641730	46.839860	-1.634050	66.132300	711.859990	34.100000	
20.410000	-126.511000	51.973230	-5.730360	45.181530	-10.381100	49.502230	-1.619660	66.129570	711.909970	34.100000	
20.400000	-121.604000	52.059970	-3.361020	41.876430	-12.048350	52.065220	-1.622400	66.139830	711.960020	34.100000	
20.403000	-116.741000	52.159810	-0.919140	38.599800	-13.456070	54.314900	-1.552460	66.160230	712.030030	34.100000	
20.413000	-111.900000	52.199860	1.747830	35.273210	-14.624650	56.151490	-1.529250	66.123540	711.929990	34.100000	
20.398000	-107.004000	52.319780	4.674010	31.688780	-15.456250	57.739410	-1.568030	66.127750	711.859990	34.100000	
20.394000	-102.132000	52.416910	7.481700	27.949530	-16.177360	58.983880	-1.572470	66.129430	711.950010	34.100000	
20.403000	-97.332000	52.467700	10.458820	24.499930	-16.798740	59.851960	-1.585810	66.098930	712.010010	34.100000	
20.392000	-92.440000	52.582300	13.946250	20.962440	-16.990130	60.445530	-1.599430	66.136040	711.989990	34.100000	
20.392000	-87.560000	52.647430	16.473920	17.507940	-16.889240	60.634610	-1.568480	66.105480	711.960020	34.100000	
20.403000	-82.668000	52.711390	19.243010	15.299740	-16.910110	60.536290	-1.664090	66.083650	711.979980	34.200000	
20.394000	-77.868000	52.839370	22.753090	12.250010	-16.747600	60.141030	-1.655390	66.117330	711.909970	34.200000	
20.398000	-72.996000	52.857850	26.349260	9.085180	-16.284560	59.352070	-1.642580	66.091710	711.900020	34.200000	
20.413000	-68.100000	52.856310	29.910900	6.053200	-15.623090	58.208610	-1.708590	66.075980	712.030030	34.200000	
20.403000	-63.259000	52.939300	33.486770	3.431880	-14.486740	56.742860	-1.717920	66.088130	711.880000	34.200000	
20.400000	-58.396000	53.026230	37.211700	0.941660	-13.322250	54.996310	-1.779020	66.053680	712.030030	34.200000	
20.410000	-53.489000	53.115920	40.643940	-1.495710	-12.001520	52.947000	-1.881440	66.107150	712.049990	34.200000	
20.408000	-48.628000	53.147140	43.797570	-3.803530	-10.368870	50.477500	-1.875180	66.085820	712.060000	34.300000	
20.396000	-43.773000	53.195030	46.561870	-5.806270	-8.520220	47.901420	-1.986360	66.075480	711.969970	34.300000	
20.392000	-38.938000	53.268940	49.334320	-7.503230	-6.464740	45.047980	-2.094290	66.083340	712.039980	34.300000	
20.397000	-34.097000	53.305800	51.857700	-9.041730	-4.266240	41.896830	-2.192290	66.093760	712.030030	34.300000	
20.405000	-29.165000	53.298670	54.107870	-10.418710	-1.853450	38.445870	-2.271830	66.068760	712.030030	34.300000	
20.401000	-24.295000	53.313930	55.985360	-11.570870	0.777090	35.163700	-2.343560	66.049340	712.000000	34.300000	
20.392000	-19.504000	53.418520	57.653280	-12.476050	3.579970	31.753350	-2.455690	66.059120	711.989990	34.300000	
20.410000	-14.577000	53.387250	58.992710	-13.356710	6.588620	28.010940	-2.597790	66.081490	712.049990	34.400000	
20.407000	-9.736000	53.355050	59.874970	-14.001290	9.598110	24.285970	-2.742160	66.062810	712.000000	34.400000	
20.401000	-4.847000	53.359170	60.500690	-14.281780	12.810610	20.687920	-2.922770	66.078610	712.049990	34.400000	
20.400000	0.000000	53.338060	60.747490	-14.319320	15.579960	17.592020	-3.220220	66.053560	712.039980	34.400000	
20.401000	4.847000	53.325680	60.732350	-14.701870	18.679290	14.427510	-3.522160	66.081340	712.039980	34.400000	
20.407000	9.736000	53.305130	60.319100	-14.645850	22.333270	10.995450	-3.721110	66.064010	712.080020	34.400000	
20.410000	14.577000	53.236730	59.646270	-14.461410	25.927030	7.702850	-3.787950	66.088790	712.080020	34.400000	
20.392000	19.504000	53.150420	58.544930	-13.965270	29.442150	4.596940	-3.871680	66.039250	712.000000	34.400000	
20.401000	24.295000	53.041970	57.179960	-13.381720	32.774910	1.699430	-3.984500	66.047490	712.080020	34.500000	
20.405000	29.165000	52.952700	55.393740	-12.672570	36.398250	-1.069050	-4.117430	66.072710	712.080020	34.500000	
20.397000	34.097000	52.909700	53.427720	-11.521370	39.995800	-3.709860	-4.168290	66.076440	711.979980	34.500000	
20.392000	38.938000	52.762500	51.159530	-10.190140	43.117940	-6.120290	-4.244760	66.019740	711.890010	34.500000	
20.396000	43.773000	52.665200	48.632020	-8.702080	45.917300	-8.393720	-4.326830	66.059070	711.950010	34.500000	
20.408000	48.628000	52.503120	45.674430	-7.005510	48.834820	-10.476840	-4.423800	66.016880	711.989990	34.600000	
20.410000	53.489000	52.413260	42.917070	-5.003360	51.256160	-12.368280	-4.436050	66.033250	711.909970	34.600000	
20.400000	58.396000	52.357160	39.704000	-2.690240	53.629760	-13.951410	-4.529170	66.044400	712.039980	34.600000	
20.403000	63.259000	52.236530	36.220520	-0.789400	55.616200	-15.256560	-4.600910	66.009060	712.060000	34.600000	
20.413000	68.100000	52.129080	32.416470	1.731420	57.402190	-16.490830	-4.640300	66.027370	712.099980	34.600000	
20.398000	72.996000	52.097320	28.913120	4.459160	58.973250	-17.563390	-4.693240	66.040230	712.060000	34.600000	
20.394000	77.868000	52.025760	25.321520	7.410010	60.113310	-18.326120	-4.767240	66.040150	712.049990	34.600000	
20.403000	82.668000	51.923420	21.706240	10.446400	60.823470	-18.839450	-4.862870	66.005770	712.030030	34.600000	
20.392000	87.560000	51.836540	18.086880	13.800250	61.241360	-18.910470	-4.834560	65.991940	712.060000	34.700000	
20.392000	92.440000	51.841920	14.967260	16.732420	61.352330	-18.629670	-4.978190	66.007290	712.020020	34.700000	
20.403000	97.332000	51.577310	12.689540	19.694770	61.165540	-18.746200	-5.180970	65.991440	712.030030	34.700000	
20.394000	102.132000	51.542530	9.680230	23.121770	60.727450	-18.618780	-5.002150	66.017010	711.989990	34.700000	
20.398000	107.004000	51.473540	6.625300	26.554790	59.879300	-18.181530	-4.865380	65.974990	712.080020	34.700000	
20.413000	111.900000	51.398390	3.646720	30.284860	58.632390	-17.497190	-4.746030	65.978200	712.080020	34.700000	
20.403000	116.741000	51.420620	0.900440	33.955880	56.992540	-16.507450	-4.679290	65.954810	711.950010	34.700000	
20.400000	121.604000	51.441320	-1.710310	37.502310	55.195500	-15.333490	-4.600510	66.017610	712.039980	34.700000	
20.410000	126.511000	51.363290	-4.188170	40.874180	53.047750	-13.916000	-4.519850	65.979370	711.989990	34.700000	
20.408000	131.372000	51.337710	-6.446140	44.094330	50.599730	-12.264970	-4.413300	65.989130	711.989990	34.700000	
20.396000	136.227000	51.323650	-8.543650	47.021400	48.187250	-10.622280	-4.396610	65.980980	712.070010	34.700000	
20.392000	141.062000	51.347810	-10.381700	49.560190	45.276690	-8.598700	-4.261750	66.004860	712.020020	34.700000	
20.397000	145.903000	51.263100	-12.020240	52.093270	42.380140	-6.372300	-4.128210	65.976180	712.030030	34.700000	
20.405000	150.835000	51.214930	-13.518610	54.360790	39.076390	-4.064460	-3.990890	65.981960	711.989990	34.700000	
20.401000	155.705000	51.121730	-14.802500	56.318900	35.492190	-1.634300	-3.839160	65.995050	711.919980	34.700000	
20.392000	160.496000	51.069080	-15.782960	58.042600	31.864570	1.032820	-3.631350	65.965740	711.960020	34.800000	
20.410000	165.423000	51.016380	-16.670770	59.451560	28.397290	3.850690	-3.413690	66.001780	712.000000	34.800000	
20.407000	170.264000	50.985680	-17.261130	60.484680	24.880550	6.831770	-3.236230	65.992010	712.030030	34.800000	
20.401000	175.153000	50.969700	-17.598250	61.122930	21.226370	10.058310	-3.137800	65.970760	712.020020	34.800000	
0.141000	45.000000	66.081840	28.127930	29.939040	30.093420	27.229580	1.090580	65.936390	711.969970	34.800000	
4.001000	128.691000	65.790570	22.059090	34.399860	36.003690	20.180130	0.639620	65.972930	711.979980	34.800000	
4.002000	76.995000	65.897280	29.616160	27.379610	37.364050	18.981190	0.895590	65.995110	712.030030	34.800000	
4.002000	25.892000	65.981860	35.347780	21.974530	32.675830	23.761780	1.033330	65.997360	712.000000	34.800000	
4.002000	-25.892000	65.969770	35.050910	22.790320	25.513820	30.821310	0.934830	65.963660	712.099980	34.800000	
4.002000	-76.995000	65.894680	29.080970	28.359430	21.148700	35.364020	0.736130	65.940460	712.010010	34.900000	
4.001000	-128.691000	65.803020	21.647060	35.162570	22.961840	33.098090	0.589580	65.959540	711.890010	34.900000	
4.000000	180.000000	65.722980	18.801750	37.918100	29.665740	26.409960	0.508580	65.924260	711.900020	34.900000	
8.000000	180.000000	64.162410	9.719500	44.930670	28.441530	24.502360	-0.567720	65.954240	712.030030	34.900000	
7.991000	-152.370000	64.246250	11.257820	43.678770	20.543400	32.373170	-0.511040	65.952220	712.020020	34.900000	
7.997000	-124.550000	64.357640	15.852300	38.473190	14.595620	39.165040	-0.467760	65.925870	711.960020	34.900000	
8.006000	-96.837000	64.506130	23.090610	31.095060	11.563150	42.887600	-0.378690	65.951300	711.969970	34.900000	
7.988000	-69.228000	64.673810	31.594940	22.802870	12.343660	42.216510	-0.317980	65.923900	712.010010	34.900000	
7.997000	-41.563000	64.811150	38.587630	16.243820	16.511050	37.572540	-0.104570	65.950290	711.960020	34.900000	
8.008000	-13.821000	64.814290	42.671630	12.624990	23.212550	30.225350	0.115200	65.927530	712.130000	34.900000	
8.008000	13.821000	64.765950	42.940830	12.141760	31.342530	22.277390	0.261070	65.933850	712.010010	34.900000	
7.997000	41.563000	64.610910	39.258050	15.045900	38.564410	15.030740	0.288990	65.916680	712.020020	34.900000	
7.988000	69.228000	64.432530	32.461270	20.758100	43.425730	10.289350	0.086730	65.917260	712.000000	34.900000	
8.006000	96.837000	64.303890	23.999990	29.220590	44.817760	9.154040	-0.162610	65.941600	711.969970	35.000000	
7.997000	124.550000	64.181680	16.635600	36.765310	42.042430	11.372820	-0.385190	65.921220	711.979980	35.000000	
7.991000	152.370000	64.143140	11.630330	42.868370	36.125270	16.863540	-0.559560	65.946730	711.950010	35.000000	
12.009000	161.059000	61.215350	2.059840	49.407200	34.395020	13.708760	-2.347360	65.904520	712.010010	35.000000	
12.013000	142.081000	61.264180	5.398100	45.046350	41.620650	7.425980	-2.319210	65.910580	712.010010	35.000000	
12.006000	123.113000	61.341950	10.834420	38.070180	47.433810	3.024920	-2.153470	65.887630	712.010010	35.100000	
12.007000	104.200000	61.444940	17.909060	30.317900	50.467290	0.702210	-2.176830	65.914030	711.979980	35.100000	
11.989000	85.301000	61.590390	25.950800	21.487540	50.918070	0.423620	-1.894180	65.919010	711.979980	35.100000	
12.013000	66.294000	61.743600	34.698360	14.202020	48.338780	2.300710	-1.863430	65.918550	711.989990	35.100000	
12.012000	47.388000	61.896230	41.815670	8.431330	43.474350	6.339350	-1.478750	65.880100	711.989990	35.100000	
11.990000	28.440000	62.169890	47.059620	5.651680	36.656810	12.447550	-1.047780	65.896840	711.960020	35.100000	
11.991000	9.464000	62.339970	49.732930	3.911760	28.438740	20.249360	-1.421690	65.929280	712.060000	35.100000	
11.991000	-9.464000	62.320470	49.439160	4.337990	20.277770	28.649070	-1.518840	65.862850	711.989990	35.100000	
11.990000	-28.440000	62.341980	46.315940	6.942160	13.009210	36.501650	-1.788630	65.887040	712.010010	35.100000	
12.012000	-47.388000	62.254640	40.751560	10.415570	7.250150	43.504520	-1.831880	65.880000	712.070010	35.100000	
12.013000	-66.294000	62.135670	33.294450	16.766220	3.691440	47.993930	-1.890270	65.863690	711.969970	35.100000	
11.989000	-85.301000	61.951600	24.433680	24.579490	2.176030	49.822330	-1.747790	65.864250	712.030030	35.200000	
12.007000	-104.200000	61.733670	16.453000	33.231400	3.016020	48.498790	-1.866870	65.857220	712.039980	35.200000	
12.006000	-123.113000	61.564990	9.713390	40.660590	5.915210	44.345520	-1.903810	65.863400	712.060000	35.200000	
12.013000	-142.081000	61.359920	4.618910	46.587130	10.971400	37.716470	-1.877830	65.839690	712.060000	35.200000	
12.009000	-161.059000	61.204810	2.247810	50.373030	17.948930	29.933280	-2.110340	65.865030	712.120000	35.200000	
16.000000	180.000000	56.943070	-8.340510	56.780990	22.639890	17.860670	-2.918000	65.845460	712.049990	35.200000	
15.990000	-165.604000	56.958370	-7.928360	56.076620	14.786680	26.138210	-2.599730	65.818470	712.060000	35.200000	
16.002000	-151.165000	57.149390	-5.749140	53.220200	7.467450	34.361910	-2.336640	65.859710	712.120000	35.200000	
16.002000	-136.836000	57.372950	-1.431090	48.330130	1.993670	42.038780	-2.097970	65.862710	712.080020	35.300000	
15.995000	-122.439000	57.525650	3.825090	41.920280	-2.385760	48.417020	-1.997600	65.858520	712.049990	35.300000	
15.993000	-107.966000	57.779570	9.546250	34.284860	-5.154210	52.963500	-1.998450	65.865400	712.190000	35.300000	
16.005000	-93.629000	57.982250	17.128710	25.567910	-6.394230	55.203990	-1.939600	65.886060	712.080020	35.300000	
15.992000	-79.234000	58.157420	25.103190	17.756650	-6.413650	55.147290	-2.063530	65.867610	712.169980	35.300000	
16.009000	-64.774000	58.272320	33.853580	10.844840	-4.722440	52.847160	-2.240870	65.831000	712.150020	35.300000	
15.997000	-50.364000	58.426350	41.656020	4.923550	-1.494960	48.190480	-2.334660	65.833440	712.219970	35.300000	
15.997000	-36.045000	58.542990	47.952190	0.469500	3.288020	41.758740	-2.507990	65.849220	712.210020	35.300000	
16.000000	-21.597000	58.622630	52.617810	-2.727970	9.437220	33.987280	-2.643490	65.843700	712.159970	35.300000	
16.003000	-7.169000	58.608430	55.225240	-4.532380	16.711100	25.745540	-2.617330	65.840130	712.150020	35.400000	
16.003000	7.169000	58.571220	55.468690	-4.925310	24.708150	17.499410	-2.815430	65.816280	712.210020	35.400000	
16.000000	21.597000	58.419700	53.344570	-3.883040	32.797000	9.672340	-2.928500	65.831860	712.080020	35.400000	
15.997000	36.045000	58.202360	49.138310	-1.430230	40.989910	2.985450	-2.892130	65.841260	712.159970	35.400000	
15.997000	50.364000	57.974210	43.084450	2.504220	47.578040	-2.295010	-3.103290	65.864530	712.109990	35.400000	
16.009000	64.774000	57.749600	35.716610	7.694790	52.544530	-6.104500	-3.406210	65.875040	712.080020	35.400000	
15.992000	79.234000	57.550700	26.952920	14.204780	55.474530	-8.204110	-3.368500	65.844470	712.159970	35.400000	
16.005000	93.629000	57.367770	18.882540	21.761350	56.528630	-8.591570	-3.543290	65.817400	712.070010	35.400000	
15.993000	107.966000	57.226890	11.212660	30.183220	54.946730	-7.937420	-3.734930	65.817340	712.070010	35.400000	
15.995000	122.439000	57.140020	5.123430	38.485610	51.414650	-5.776770	-3.572300	65.829020	712.070010	35.400000	
16.002000	136.836000	57.072250	-0.802630	45.816030	45.952180	-1.763590	-3.636290	65.857300	712.060000	35.400000	
16.002000	151.165000	56.961200	-5.101990	51.237340	39.140960	3.517750	-3.699260	65.808430	712.099980	35.500000	
15.990000	165.604000	56.974690	-7.433740	54.946620	30.706680	10.223310	-3.331040	65.844860	712.140010	35.500000	
20.003000	168.362000	51.494690	-16.127050	59.658910	26.526080	6.218950	-3.394840	65.822520	712.229980	35.500000	
20.008000	156.764000	51.540070	-14.143000	56.236130	34.750840	-0.389110	-3.820450	65.797310	712.070010	35.500000	
20.000000	145.147000	51.713120	-10.904230	51.394570	42.720210	-5.905950	-4.173060	65.798560	712.080020	35.500000	
19.995000	133.545000	51.744930	-6.579810	45.287720	49.362270	-10.679680	-4.389940	65.783100	712.090030	35.500000	
20.009000	121.926000	51.864200	-1.168810	37.725650	54.613660	-14.322720	-4.562720	65.804560	712.090030	35.500000	
20.005000	110.327000	51.886620	5.192410	29.277930	58.558560	-16.790780	-4.777930	65.776460	712.099980	35.500000	
19.989000	98.733000	52.026470	12.180100	21.082700	60.520940	-17.691790	-5.079070	65.791900	712.179990	35.500000	
19.999000	87.075000	52.146740	18.799280	13.917780	60.640980	-17.880540	-4.765170	65.754910	712.219970	35.500000	
19.992000	75.457000	52.379420	27.242300	6.620640	59.058340	-16.968080	-4.621410	65.804920	712.090030	35.500000	
20.009000	63.844000	52.644870	35.783150	0.255790	55.378640	-14.487080	-4.545090	65.794930	712.000000	35.600000	
19.989000	52.269000	52.885070	43.424660	-5.014780	50.234000	-10.907820	-4.365680	65.801400	712.109990	35.600000	
19.999000	40.602000	53.126030	49.941740	-8.729920	43.961760	-6.102230	-4.180550	65.816850	712.130000	35.600000	
20.004000	29.051000	53.332870	54.924630	-11.599270	36.309000	-0.291380	-4.064780	65.821800	712.109990	35.600000	
20.005000	17.433000	53.573360	58.490010	-13.201430	28.118900	6.487160	-3.812310	65.826160	712.210020	35.600000	
20.006000	5.780000	53.666070	60.068290	-13.805660	19.735910	14.163270	-3.579890	65.809180	712.090030	35.600000	
20.006000	-5.780000	53.684920	59.754630	-13.339280	12.643030	21.536940	-2.884940	65.789310	712.070010	35.600000	
20.005000	-17.433000	53.743550	57.656850	-12.013910	5.460410	30.236420	-2.590080	65.803020	712.190000	35.600000	
20.004000	-29.051000	53.650760	53.667250	-9.540640	-0.934890	38.229400	-2.312960	65.790210	712.179990	35.600000	
19.999000	-40.602000	53.536210	48.044450	-6.094820	-6.257080	45.688320	-2.118870	65.772340	712.120000	35.600000	
19.989000	-52.269000	53.482600	41.286910	-1.268480	-10.467330	51.812800	-1.966790	65.776930	712.140010	35.600000	
20.009000	-63.844000	53.237920	33.128180	4.240520	-13.552510	56.299980	-1.803940	65.756010	712.250000	35.600000	
19.992000	-75.457000	53.146370	24.686800	11.137940	-15.437510	59.081240	-1.746240	65.750710	712.239990	35.600000	
19.999000	-87.075000	53.002780	17.046020	17.665820	-15.933300	59.989360	-1.656950	65.816380	712.190000	35.700000	
19.989000	-98.733000	52.784710	10.140770	25.605200	-15.589530	58.970840	-1.591970	65.781170	712.169980	35.700000	
20.005000	-110.327000	52.545680	3.296810	34.122960	-13.904150	56.073250	-1.604090	65.757660	712.190000	35.700000	
20.009000	-121.926000	52.332240	-2.757880	41.871040	-10.933970	51.393160	-1.626600	65.752280	712.190000	35.700000	
19.995000	-133.545000	52.155540	-7.818770	48.620440	-6.954950	45.212120	-1.728050	65.783140	712.219970	35.700000	
20.000000	-145.147000	51.981170	-11.828070	54.149350	-1.911410	37.671260	-1.868430	65.776520	712.219970	35.700000	
20.008000	-156.764000	51.703740	-14.868880	58.331800	4.139940	29.692310	-2.055800	65.759910	712.130000	35.700000	
20.003000	-168.362000	51.499470	-16.375700	60.535210	11.253900	20.994290	-2.350490	65.766430	712.150020	35.700000	
20.000000	180.000000	51.381630	-16.675440	60.898430	18.219170	13.679880	-2.997040	65.750270	712.109990	35.800000	
