FileType=PCF
NHL=14
Date=08/29/17	11:05:29
Facility=APL
Serial=16328-14
Customer=NASA
NP=6
Mach=0.100000
Calibration=1:1
CalPts=490
TstPts=95
PortNumbering=AP Standard
Units=Torr C m/s kg/m^3 deg mm 
Theta[deg]	Phi[deg]	P1[Torr]	P2[Torr]	P3[Torr]	P4[Torr]	P5[Torr]	P6[Torr]	Pt[Torr]	Ps[Abs,Torr]	Ts[C]	
  0.000	  0.000	  4.98422	  2.63890	  2.64143	  2.58563	  2.67266	  0.03837	  4.98213	706.06299	 24.30	
  1.691	128.401	  4.98191	  2.48722	  2.78147	  2.77040	  2.47831	  0.03744	  4.97840	706.00897	 24.30	
  1.692	 77.194	  4.98368	  2.68781	  2.58074	  2.80973	  2.43789	  0.03705	  4.97987	706.01801	 24.30	
  1.699	 26.182	  4.98680	  2.85068	  2.42316	  2.68499	  2.56350	  0.03518	  4.98144	706.03198	 24.30	
  1.699	-26.182	  4.97870	  2.84031	  2.42144	  2.47010	  2.76634	  0.03468	  4.97725	706.03101	 24.30	
  1.692	-77.194	  5.00471	  2.69065	  2.59551	  2.35884	  2.90504	  0.03533	  4.99931	706.10101	 24.30	
  1.691	-128.401	  4.99415	  2.48497	  2.79263	  2.39776	  2.85548	  0.03522	  4.99109	706.05402	 24.30	
  1.700	180.000	  4.98997	  2.39542	  2.88041	  2.58343	  2.66856	  0.03604	  4.98622	706.13898	 24.30	
  3.400	180.000	  4.98796	  2.13860	  3.10492	  2.55015	  2.63806	  0.02073	  4.99167	706.11102	 24.30	
  3.388	-152.325	  4.98560	  2.18376	  3.04631	  2.32694	  2.85724	  0.01536	  4.99154	706.04901	 24.20	
  3.397	-124.529	  4.98142	  2.32010	  2.88803	  2.16189	  3.03651	  0.01335	  4.98597	705.96698	 24.20	
  3.399	-96.763	  4.98487	  2.53379	  2.66710	  2.08351	  3.12871	  0.01638	  4.99291	706.03400	 24.20	
  3.394	-69.283	  4.97332	  2.76304	  2.43572	  2.10316	  3.09288	  0.01739	  4.98099	706.11298	 24.20	
  3.400	-41.398	  4.98943	  2.97954	  2.25454	  2.23742	  2.96541	  0.01700	  4.99775	706.10199	 24.20	
  3.401	-14.021	  4.99180	  3.09937	  2.15530	  2.43414	  2.76610	  0.01280	  4.99634	706.07898	 24.20	
  3.401	 14.021	  4.98617	  3.10163	  2.15060	  2.67810	  2.51832	  0.00980	  4.98846	706.06299	 24.20	
  3.400	 41.398	  4.99013	  2.99207	  2.25274	  2.88948	  2.32792	  0.01294	  4.99032	706.06000	 24.20	
  3.394	 69.283	  5.00037	  2.80541	  2.43318	  3.02926	  2.21281	  0.01896	  5.00101	706.04901	 24.20	
  3.399	 96.763	  4.98692	  2.55761	  2.66071	  3.05665	  2.17821	  0.02498	  4.98603	706.07898	 24.20	
  3.397	124.529	  5.01350	  2.35874	  2.88909	  2.98438	  2.26173	  0.02798	  5.01192	705.98401	 24.20	
  3.388	152.325	  4.98413	  2.19575	  3.04018	  2.78378	  2.41324	  0.02783	  4.98455	705.91602	 24.20	
  5.099	161.165	  4.96399	  1.89121	  3.29591	  2.76903	  2.34824	  0.00931	  4.98508	706.04797	 24.20	
  5.109	142.013	  4.96054	  2.00493	  3.16440	  2.99641	  2.14337	  0.01470	  4.98131	706.05402	 24.20	
  5.095	123.033	  4.97766	  2.18724	  2.98115	  3.17808	  2.00165	  0.01647	  4.99445	706.04199	 24.20	
  5.105	104.191	  4.97665	  2.40585	  2.74900	  3.28547	  1.91127	  0.00885	  4.99244	705.94501	 24.20	
  5.093	 85.207	  4.96621	  2.64884	  2.49489	  3.29641	  1.89208	  0.00267	  4.98135	706.03198	 24.20	
  5.104	 66.290	  4.96732	  2.89525	  2.26335	  3.23312	  1.94691	 -0.00355	  4.98481	705.95898	 24.20	
  5.094	 47.331	  4.96302	  3.10581	  2.06597	  3.08223	  2.06999	 -0.01175	  4.98108	706.05701	 24.20	
  5.089	 28.397	  4.95183	  3.25488	  1.92539	  2.87437	  2.24835	 -0.01469	  4.97606	705.97498	 24.20	
  5.096	  9.576	  4.96242	  3.34632	  1.85603	  2.63924	  2.47871	 -0.01282	  4.98647	705.99500	 24.20	
  5.096	 -9.576	  4.96520	  3.34218	  1.85938	  2.38566	  2.73246	 -0.01046	  4.99398	705.99298	 24.20	
  5.089	-28.397	  4.94552	  3.23910	  1.92985	  2.15147	  2.95658	 -0.00452	  4.97821	706.07098	 24.20	
  5.094	-47.331	  4.95811	  3.08172	  2.07770	  1.96860	  3.16947	 -0.00043	  4.99420	705.91901	 24.20	
  5.104	-66.290	  4.94507	  2.85518	  2.27224	  1.83778	  3.30608	 -0.00138	  4.98226	705.88501	 24.10	
  5.093	-85.207	  4.94642	  2.60844	  2.50625	  1.78292	  3.36869	 -0.00268	  4.98227	705.91101	 24.10	
  5.105	-104.191	  4.96277	  2.36619	  2.76202	  1.80548	  3.35799	 -0.00462	  4.99716	705.95898	 24.10	
  5.095	-123.033	  4.95515	  2.14561	  2.98864	  1.89727	  3.24101	 -0.00773	  4.98947	705.94202	 24.10	
  5.109	-142.013	  4.95556	  1.97636	  3.17857	  2.05792	  3.05871	 -0.00828	  4.98449	706.05603	 24.10	
  5.099	-161.165	  4.96167	  1.87530	  3.30457	  2.27225	  2.83360	 -0.00323	  4.98752	705.99298	 24.10	
  5.100	180.000	  4.95852	  1.84612	  3.34087	  2.51391	  2.58540	  0.00291	  4.98384	705.95898	 24.10	
  6.800	180.000	  4.93697	  1.55688	  3.58719	  2.47919	  2.54685	 -0.02220	  5.00346	705.96399	 24.10	
  6.796	-166.229	  4.92988	  1.57345	  3.55505	  2.23422	  2.78642	 -0.02781	  5.00058	706.02899	 24.10	
  6.808	-152.311	  4.92101	  1.64135	  3.46194	  2.00396	  3.02105	 -0.03299	  4.99234	706.04498	 24.10	
  6.795	-138.383	  4.91142	  1.76186	  3.30840	  1.80461	  3.23161	 -0.03396	  4.98760	706.15601	 24.10	
  6.792	-124.591	  4.91009	  1.93068	  3.11572	  1.65011	  3.40782	 -0.03553	  4.98987	705.97601	 24.10	
  6.787	-110.754	  4.90455	  2.13601	  2.88840	  1.54405	  3.52774	 -0.03985	  4.98744	706.00098	 24.10	
  6.800	-96.985	  4.90912	  2.37030	  2.65297	  1.48984	  3.59819	 -0.03407	  4.99195	705.98401	 24.10	
  6.800	-83.015	  4.90338	  2.61619	  2.40044	  1.48721	  3.59560	 -0.03081	  4.98922	706.02899	 24.10	
  6.787	-69.246	  4.92194	  2.87313	  2.17673	  1.54526	  3.54920	 -0.03187	  5.00776	705.99500	 24.10	
  6.792	-55.409	  4.92729	  3.10634	  1.96776	  1.64890	  3.43339	 -0.03154	  5.01033	706.11798	 24.10	
  6.795	-41.617	  4.91021	  3.29296	  1.78593	  1.79217	  3.24762	 -0.03044	  4.99151	706.08502	 24.10	
  6.808	-27.689	  4.91412	  3.45387	  1.65240	  1.98922	  3.03498	 -0.03416	  4.99556	706.01099	 24.10	
  6.796	-13.771	  4.91873	  3.55262	  1.57153	  2.21512	  2.79900	 -0.04380	  4.99405	706.01099	 24.10	
  6.800	  0.000	  4.91308	  3.58319	  1.53960	  2.45409	  2.55075	 -0.04706	  4.98045	706.06500	 24.10	
  6.796	 13.771	  4.92108	  3.56197	  1.56626	  2.70702	  2.31331	 -0.04974	  4.98701	706.12097	 24.10	
  6.808	 27.689	  4.92205	  3.47352	  1.64119	  2.94700	  2.08941	 -0.05393	  4.98722	706.16602	 24.10	
  6.795	 41.617	  4.92974	  3.32835	  1.77548	  3.16410	  1.90517	 -0.04983	  4.98901	706.08698	 24.10	
  6.792	 55.409	  4.94108	  3.14343	  1.94715	  3.34700	  1.75747	 -0.03903	  4.99708	705.99298	 24.10	
  6.787	 69.246	  4.93323	  2.91431	  2.15080	  3.46526	  1.65168	 -0.03133	  4.98874	706.03998	 24.10	
  6.800	 83.015	  4.93523	  2.67391	  2.38179	  3.53451	  1.59546	 -0.02870	  4.98851	706.07300	 24.00	
  6.800	 96.985	  4.94246	  2.42689	  2.63445	  3.54227	  1.59897	 -0.01885	  4.99295	706.00897	 24.00	
  6.787	110.754	  4.93951	  2.19322	  2.87593	  3.47628	  1.65280	 -0.01051	  4.99143	705.97601	 24.00	
  6.792	124.591	  4.93649	  1.98266	  3.10053	  3.35172	  1.75386	 -0.00858	  4.99119	706.06299	 24.00	
  6.795	138.383	  4.95184	  1.81337	  3.30695	  3.18841	  1.90738	 -0.00502	  5.00621	705.92200	 24.00	
  6.808	152.311	  4.92619	  1.66657	  3.44483	  2.96352	  2.08126	 -0.00744	  4.98447	705.91400	 24.00	
  6.796	166.229	  4.92750	  1.58577	  3.54313	  2.72423	  2.29956	 -0.01805	  4.98834	705.95898	 24.00	
  8.491	168.704	  4.87248	  1.27508	  3.76856	  2.67409	  2.23069	 -0.05291	  4.99381	705.88800	 24.00	
  8.502	157.493	  4.87120	  1.34211	  3.68592	  2.92200	  1.99850	 -0.03973	  4.98726	706.02301	 24.00	
  8.494	146.194	  4.87652	  1.45984	  3.55589	  3.15790	  1.79565	 -0.03308	  4.99082	706.06299	 24.00	
  8.495	135.039	  4.86770	  1.60313	  3.37823	  3.35860	  1.61355	 -0.03950	  4.97853	706.09601	 24.00	
  8.487	123.723	  4.87991	  1.79361	  3.17524	  3.53707	  1.47464	 -0.04656	  4.98941	705.98297	 24.00	
  8.492	112.575	  4.87222	  2.00245	  2.94160	  3.65981	  1.36825	 -0.04896	  4.98181	706.13300	 24.00	
  8.510	101.220	  4.86783	  2.23892	  2.68926	  3.73540	  1.30269	 -0.05206	  4.97762	706.00299	 24.00	
  8.500	 90.000	  4.86796	  2.48727	  2.43690	  3.75644	  1.28542	 -0.06163	  4.97726	706.16302	 24.00	
  8.510	 78.780	  4.88574	  2.75154	  2.19655	  3.74432	  1.31004	 -0.07315	  4.99637	706.10400	 24.00	
  8.492	 67.425	  4.87765	  2.99722	  1.95832	  3.65573	  1.37526	 -0.07443	  4.99222	706.14398	 24.00	
  8.487	 56.277	  4.86896	  3.21973	  1.74862	  3.52059	  1.47851	 -0.07745	  4.98623	706.13501	 24.00	
  8.495	 44.961	  4.87052	  3.42735	  1.56665	  3.34953	  1.62508	 -0.09066	  4.99232	706.05603	 24.00	
  8.494	 33.806	  4.86350	  3.58874	  1.42483	  3.13579	  1.80283	 -0.09984	  4.98619	706.09601	 24.00	
  8.502	 22.507	  4.86080	  3.71299	  1.31634	  2.90108	  2.01303	 -0.09957	  4.98894	706.09399	 24.00	
  8.491	 11.296	  4.85029	  3.77818	  1.25110	  2.64720	  2.23958	 -0.09402	  4.98141	706.08197	 24.00	
  8.500	  0.000	  4.85998	  3.81078	  1.23469	  2.39325	  2.49698	 -0.09143	  4.99501	706.08502	 24.00	
  8.491	-11.296	  4.84737	  3.76732	  1.25940	  2.13745	  2.74307	 -0.08529	  4.98397	706.12402	 24.00	
  8.502	-22.507	  4.85623	  3.69486	  1.32666	  1.90915	  2.99490	 -0.07352	  4.99821	706.10498	 24.00	
  8.494	-33.806	  4.85113	  3.55725	  1.43900	  1.69123	  3.23039	 -0.06532	  4.99801	706.13599	 24.00	
  8.495	-44.961	  4.83495	  3.37480	  1.58227	  1.50319	  3.42567	 -0.06653	  4.98680	706.11603	 24.00	
  8.487	-56.277	  4.83590	  3.16286	  1.77030	  1.36158	  3.59216	 -0.07039	  4.98707	706.25403	 24.00	
  8.492	-67.425	  4.85115	  2.94047	  1.98626	  1.25970	  3.72821	 -0.07020	  5.00208	706.26801	 24.00	
  8.510	-78.780	  4.84610	  2.68306	  2.21955	  1.19076	  3.80479	 -0.06580	  4.99882	706.21802	 24.00	
  8.500	-90.000	  4.83475	  2.42043	  2.46347	  1.16880	  3.81845	 -0.06580	  4.99081	706.20398	 24.00	
  8.510	-101.220	  4.84160	  2.17556	  2.71813	  1.19175	  3.79476	 -0.07247	  4.99450	706.04199	 24.00	
  8.492	-112.575	  4.84869	  1.94314	  2.97025	  1.26527	  3.71367	 -0.07334	  4.99733	706.28802	 24.00	
  8.487	-123.723	  4.84465	  1.73420	  3.19272	  1.37335	  3.58073	 -0.06687	  4.98979	706.15900	 24.00	
  8.495	-135.039	  4.84531	  1.55435	  3.40144	  1.51722	  3.41213	 -0.06364	  4.98809	706.26202	 24.00	
  8.494	-146.194	  4.85903	  1.41969	  3.57194	  1.70596	  3.21029	 -0.06440	  4.99704	706.05701	 24.00	
  8.502	-157.493	  4.86179	  1.31772	  3.69821	  1.92466	  2.97485	 -0.06177	  4.99446	706.23901	 24.00	
  8.491	-168.704	  4.86971	  1.26334	  3.77640	  2.16385	  2.73130	 -0.05569	  4.99893	706.10498	 24.00	
  8.500	180.000	  4.87334	  1.24744	  3.79993	  2.41563	  2.48045	 -0.05503	  4.99685	706.09399	 24.00	
 10.200	180.000	  4.78081	  0.93227	  3.99570	  2.33818	  2.39849	 -0.09264	  4.98610	706.11798	 24.00	
 10.191	-170.497	  4.77461	  0.94515	  3.97350	  2.08338	  2.64841	 -0.09333	  4.98393	706.11902	 24.00	
 10.210	-161.034	  4.78294	  0.99435	  3.91983	  1.84491	  2.90887	 -0.09606	  4.99779	706.16400	 24.00	
 10.194	-151.526	  4.77772	  1.07966	  3.80674	  1.61347	  3.15348	 -0.09618	  4.99785	706.20599	 24.00	
 10.190	-142.105	  4.77054	  1.19719	  3.65629	  1.40944	  3.37656	 -0.09545	  4.99474	706.09003	 24.00	
 10.215	-132.646	  4.76974	  1.34398	  3.47986	  1.23506	  3.57969	 -0.09593	  4.99881	706.28400	 24.00	
 10.203	-123.092	  4.75883	  1.52638	  3.26014	  1.08798	  3.74449	 -0.10198	  4.99010	706.18903	 24.00	
 10.192	-113.678	  4.74703	  1.73295	  3.02037	  0.97547	  3.86627	 -0.11031	  4.97943	706.20599	 24.00	
 10.208	-104.249	  4.74322	  1.95913	  2.77380	  0.89521	  3.96088	 -0.11550	  4.97965	706.19397	 24.00	
 10.210	-94.801	  4.75696	  2.21359	  2.52490	  0.85937	  4.02130	 -0.11049	  4.99926	706.07898	 24.00	
 10.210	-85.199	  4.73223	  2.46154	  2.25294	  0.85331	  4.00305	 -0.10643	  4.97128	706.21997	 24.00	
 10.208	-75.751	  4.75458	  2.73191	  2.01711	  0.89302	  3.98041	 -0.10593	  4.99775	706.10199	 24.00	
 10.192	-66.322	  4.74540	  2.97758	  1.78422	  0.96672	  3.88117	 -0.10714	  4.98373	706.04602	 24.00	
 10.203	-56.908	  4.75762	  3.22537	  1.57445	  1.07677	  3.76363	 -0.10726	  4.99705	706.18298	 24.00	
 10.215	-47.354	  4.76352	  3.44911	  1.38457	  1.21906	  3.59910	 -0.10356	  5.00107	706.11102	 24.00	
 10.190	-37.895	  4.76370	  3.63379	  1.22603	  1.39155	  3.40093	 -0.09981	  4.99651	706.18298	 24.00	
 10.194	-28.474	  4.76201	  3.78739	  1.09790	  1.59081	  3.17398	 -0.10669	  4.98872	706.01703	 24.00	
 10.210	-18.966	  4.77079	  3.90753	  1.00600	  1.81974	  2.93132	 -0.11916	  4.99525	706.05402	 24.00	
 10.191	 -9.503	  4.78126	  3.98424	  0.95140	  2.06580	  2.68459	 -0.13003	  4.99949	706.24500	 24.00	
 10.200	  0.000	  4.77506	  4.00827	  0.92865	  2.31688	  2.42358	 -0.13839	  4.99177	706.17999	 24.00	
 10.191	  9.503	  4.77270	  3.98711	  0.94134	  2.57719	  2.16636	 -0.14122	  4.98576	706.08502	 24.00	
 10.210	 18.966	  4.77631	  3.92917	  0.99280	  2.83165	  1.93024	 -0.14878	  4.98652	706.13300	 24.00	
 10.194	 28.474	  4.78948	  3.82952	  1.08703	  3.08540	  1.71411	 -0.15161	  4.99664	706.09003	 24.00	
 10.190	 37.895	  4.79564	  3.68639	  1.20873	  3.31831	  1.51543	 -0.14806	  4.99758	706.03198	 24.00	
 10.215	 47.354	  4.78670	  3.50147	  1.35680	  3.51662	  1.33732	 -0.13459	  4.98523	706.16998	 24.00	
 10.203	 56.908	  4.80002	  3.29583	  1.55017	  3.69210	  1.20313	 -0.12464	  4.99299	706.15503	 24.00	
 10.192	 66.322	  4.78871	  3.05402	  1.75622	  3.81316	  1.09688	 -0.11771	  4.97972	705.96198	 24.00	
 10.208	 75.751	  4.79890	  2.81266	  1.98674	  3.91288	  1.02165	 -0.11423	  4.98641	706.05200	 23.90	
 10.210	 85.199	  4.79965	  2.55743	  2.23341	  3.96292	  0.98465	 -0.10724	  4.98453	706.09601	 23.90	
 10.210	 94.801	  4.80591	  2.29833	  2.49739	  3.96845	  0.98675	 -0.09890	  4.99065	706.22900	 23.90	
 10.208	104.249	  4.81628	  2.05351	  2.75850	  3.93401	  1.02222	 -0.08924	  5.00376	706.18103	 23.90	
 10.192	113.678	  4.81330	  1.81935	  3.00548	  3.84226	  1.09565	 -0.08558	  4.99874	706.13202	 23.90	
 10.203	123.092	  4.80483	  1.59892	  3.23824	  3.70984	  1.19106	 -0.08427	  4.99323	706.08002	 23.90	
 10.215	132.646	  4.82166	  1.41149	  3.46753	  3.55525	  1.33341	 -0.08133	  5.01024	705.93103	 23.90	
 10.190	142.105	  4.80985	  1.25292	  3.64559	  3.34485	  1.50262	 -0.06796	  5.00118	705.96100	 23.90	
 10.194	151.526	  4.79361	  1.11685	  3.78581	  3.10719	  1.69289	 -0.06474	  4.98386	706.12500	 23.90	
 10.210	161.034	  4.78717	  1.01577	  3.89760	  2.85900	  1.90742	 -0.07709	  4.98144	706.05603	 23.90	
 10.191	170.497	  4.78955	  0.95809	  3.97465	  2.60524	  2.14469	 -0.08859	  4.98971	706.08801	 23.90	
 11.899	171.783	  4.68640	  0.64974	  4.15617	  2.52377	  2.05490	 -0.12648	  4.98587	705.98999	 23.90	
 11.890	163.610	  4.69244	  0.70125	  4.09744	  2.78130	  1.81586	 -0.11555	  4.98544	705.94501	 23.90	
 11.889	155.445	  4.69739	  0.78403	  3.99995	  3.03616	  1.59427	 -0.10219	  4.98740	706.16400	 23.90	
 11.909	147.299	  4.71052	  0.89842	  3.87665	  3.28582	  1.38792	 -0.10076	  4.99885	706.27600	 23.90	
 11.902	139.148	  4.71119	  1.03973	  3.70621	  3.50459	  1.20405	 -0.10486	  4.99626	706.21997	 23.90	
 11.894	130.867	  4.69814	  1.20793	  3.49520	  3.68692	  1.04565	 -0.11444	  4.97559	706.20001	 23.90	
 11.897	122.732	  4.71808	  1.40295	  3.29116	  3.86894	  0.91476	 -0.12083	  4.99772	706.20398	 23.90	
 11.903	114.597	  4.70450	  1.61225	  3.04342	  3.98940	  0.80700	 -0.12583	  4.98638	706.12500	 23.90	
 11.893	106.346	  4.69952	  1.84550	  2.78585	  4.07841	  0.73329	 -0.12899	  4.97992	706.18597	 23.90	
 11.892	 98.155	  4.71739	  2.09930	  2.53889	  4.15321	  0.69345	 -0.13626	  4.99693	706.12097	 23.90	
 11.900	 90.000	  4.71979	  2.35522	  2.28215	  4.17279	  0.67735	 -0.14788	  5.00121	706.16302	 23.90	
 11.892	 81.845	  4.70894	  2.60917	  2.02287	  4.14134	  0.69345	 -0.15157	  4.99130	706.18103	 23.90	
 11.893	 73.654	  4.71078	  2.86735	  1.78342	  4.08011	  0.74216	 -0.15507	  4.99768	706.20398	 23.90	
 11.903	 65.403	  4.69397	  3.10933	  1.54579	  3.96870	  0.81438	 -0.15974	  4.98112	706.16302	 23.90	
 11.897	 57.268	  4.71279	  3.35865	  1.34495	  3.84796	  0.92810	 -0.16651	  5.00251	706.15503	 23.90	
 11.894	 49.133	  4.71862	  3.57748	  1.16169	  3.68361	  1.06729	 -0.17884	  5.01209	706.13202	 23.90	
 11.902	 40.852	  4.69760	  3.75856	  0.99310	  3.47535	  1.22305	 -0.19019	  4.99844	706.02899	 23.90	
 11.909	 32.701	  4.68585	  3.91112	  0.85832	  3.24767	  1.40601	 -0.19773	  4.98804	706.07397	 23.90	
 11.889	 24.555	  4.68247	  4.03244	  0.75712	  3.00537	  1.61865	 -0.20143	  4.98678	706.08801	 24.00	
 11.890	 16.390	  4.67877	  4.12312	  0.68108	  2.75072	  1.84411	 -0.19548	  4.98535	706.07397	 24.00	
 11.899	  8.217	  4.67839	  4.17886	  0.63546	  2.49659	  2.08430	 -0.19073	  4.99324	706.03802	 24.00	
 11.900	  0.000	  4.67678	  4.19353	  0.62421	  2.23206	  2.34061	 -0.17652	  4.99542	706.12799	 24.00	
 11.899	 -8.217	  4.67031	  4.16464	  0.64040	  1.97336	  2.59673	 -0.16567	  4.99330	706.20300	 24.00	
 11.890	-16.390	  4.66647	  4.10070	  0.69018	  1.73046	  2.84852	 -0.15758	  4.98906	706.15601	 24.00	
 11.889	-24.555	  4.66554	  4.00021	  0.76966	  1.49741	  3.09923	 -0.14714	  4.99329	706.13202	 24.00	
 11.909	-32.701	  4.66370	  3.86451	  0.87701	  1.28326	  3.33851	 -0.13772	  4.99552	706.15900	 24.00	
 11.902	-40.852	  4.65373	  3.68912	  1.01377	  1.09475	  3.54639	 -0.13716	  4.98913	706.15503	 24.00	
 11.894	-49.133	  4.64919	  3.48431	  1.18107	  0.92869	  3.74092	 -0.13649	  4.98887	706.10999	 24.00	
 11.897	-57.268	  4.64325	  3.25903	  1.36610	  0.78927	  3.90253	 -0.13537	  4.98210	706.20599	 24.00	
 11.903	-65.403	  4.64929	  3.02452	  1.57965	  0.68022	  4.04000	 -0.14069	  4.99278	706.14398	 24.00	
 11.893	-73.654	  4.63694	  2.76184	  1.80811	  0.60465	  4.12179	 -0.13860	  4.98192	706.25897	 24.00	
 11.892	-81.845	  4.64122	  2.50680	  2.05284	  0.56047	  4.18185	 -0.13962	  4.98547	706.15802	 24.00	
 11.900	-90.000	  4.65007	  2.25073	  2.30993	  0.54583	  4.20653	 -0.14359	  4.99649	706.04797	 24.00	
 11.892	-98.155	  4.63605	  1.99106	  2.55903	  0.56223	  4.16915	 -0.14947	  4.97872	706.04901	 24.00	
 11.893	-106.346	  4.64578	  1.75305	  2.81794	  0.61186	  4.11719	 -0.14976	  4.98785	706.08801	 24.00	
 11.903	-114.597	  4.64417	  1.51984	  3.06785	  0.68830	  4.01850	 -0.14758	  4.98529	706.07898	 24.00	
 11.897	-122.732	  4.65740	  1.32002	  3.30888	  0.80364	  3.88998	 -0.13394	  4.99185	706.13599	 24.00	
 11.894	-130.867	  4.65096	  1.13636	  3.51771	  0.94238	  3.71670	 -0.12706	  4.98153	706.05200	 24.00	
 11.902	-139.148	  4.66476	  0.97780	  3.72009	  1.11487	  3.52599	 -0.12391	  4.99291	706.07898	 24.00	
 11.909	-147.299	  4.65294	  0.84444	  3.87143	  1.29875	  3.29828	 -0.12735	  4.97543	706.00598	 24.00	
 11.889	-155.445	  4.67114	  0.74866	  4.00966	  1.51763	  3.07197	 -0.13005	  4.98848	706.09399	 24.00	
 11.890	-163.610	  4.68451	  0.68208	  4.11277	  1.75735	  2.82563	 -0.13353	  4.99732	706.16998	 24.00	
 11.899	-171.783	  4.69085	  0.63949	  4.17110	  2.00329	  2.57233	 -0.13184	  4.99906	706.09601	 24.00	
 11.900	180.000	  4.68954	  0.62998	  4.18330	  2.25933	  2.31379	 -0.13165	  4.99297	706.08502	 24.00	
 13.600	180.000	  4.56440	  0.32486	  4.34425	  2.16255	  2.20883	 -0.16858	  4.98540	706.04901	 24.00	
 13.608	-172.853	  4.56509	  0.32930	  4.33451	  1.90946	  2.46324	 -0.17079	  4.99032	706.08801	 24.00	
 13.611	-165.583	  4.55994	  0.36193	  4.28808	  1.65840	  2.72177	 -0.17237	  4.99266	706.01398	 24.00	
 13.601	-158.353	  4.55383	  0.42293	  4.20061	  1.41582	  2.97724	 -0.16677	  4.99396	706.07898	 24.00	
 13.609	-151.210	  4.53821	  0.50557	  4.07381	  1.19454	  3.21095	 -0.16244	  4.98010	706.11603	 24.00	
 13.611	-143.999	  4.55202	  0.62063	  3.94563	  0.99782	  3.45476	 -0.15887	  4.99914	706.09003	 24.00	
 13.601	-136.825	  4.54885	  0.76038	  3.77028	  0.81627	  3.66891	 -0.15552	  5.00066	706.04797	 24.00	
 13.596	-129.640	  4.54626	  0.92303	  3.56964	  0.65703	  3.86192	 -0.15702	  5.00292	706.08197	 24.00	
 13.611	-122.431	  4.53718	  1.10152	  3.34693	  0.51849	  4.02074	 -0.16512	  4.99808	705.99500	 24.00	
 13.604	-115.211	  4.52902	  1.30777	  3.10669	  0.41254	  4.15066	 -0.17635	  4.99047	706.09399	 24.00	
 13.595	-108.042	  4.52909	  1.53064	  2.85990	  0.33330	  4.25302	 -0.18195	  4.99228	706.07300	 24.00	
 13.607	-100.793	  4.52108	  1.76635	  2.59790	  0.27354	  4.32080	 -0.18212	  4.98667	706.10999	 24.10	
 13.601	-93.617	  4.51413	  2.01221	  2.33792	  0.24498	  4.35313	 -0.17562	  4.98154	706.07397	 24.10	
 13.601	-86.383	  4.52789	  2.27875	  2.08772	  0.24527	  4.36970	 -0.17075	  5.00138	706.07300	 24.00	
 13.607	-79.207	  4.51131	  2.52831	  1.83087	  0.26679	  4.32257	 -0.15914	  4.98021	706.08002	 24.10	
 13.595	-71.958	  4.51953	  2.79197	  1.59486	  0.32319	  4.26183	 -0.15780	  4.98613	706.08197	 24.10	
 13.604	-64.789	  4.52312	  3.04663	  1.36956	  0.39968	  4.16763	 -0.15945	  4.99210	706.07898	 24.10	
 13.611	-57.569	  4.53007	  3.29592	  1.15982	  0.50506	  4.04159	 -0.16421	  4.99788	706.16998	 24.10	
 13.596	-50.360	  4.53414	  3.52203	  0.97249	  0.63676	  3.88173	 -0.16117	  4.99733	706.23901	 24.10	
 13.601	-43.175	  4.53010	  3.72199	  0.80489	  0.79301	  3.68984	 -0.16291	  4.99034	706.05200	 24.10	
 13.611	-36.001	  4.53666	  3.90932	  0.65713	  0.97142	  3.48028	 -0.16469	  4.99230	706.06299	 24.10	
 13.609	-28.790	  4.54026	  4.06450	  0.53603	  1.17061	  3.25416	 -0.17196	  4.99314	706.04199	 24.10	
 13.601	-21.647	  4.53656	  4.18010	  0.44385	  1.38434	  3.00951	 -0.18137	  4.98536	706.04901	 24.10	
 13.611	-14.417	  4.54790	  4.27966	  0.37414	  1.62688	  2.75730	 -0.19095	  4.99192	706.10400	 24.10	
 13.608	 -7.147	  4.55514	  4.34182	  0.33370	  1.87806	  2.50110	 -0.20260	  4.99921	706.07397	 24.10	
 13.600	  0.000	  4.54325	  4.34705	  0.32080	  2.12391	  2.24021	 -0.21420	  4.97742	706.04498	 24.10	
 13.608	  7.147	  4.54975	  4.34250	  0.32795	  2.38615	  1.98870	 -0.22441	  4.98265	706.07703	 24.10	
 13.611	 14.417	  4.56321	  4.30729	  0.36663	  2.65483	  1.74918	 -0.23358	  4.99485	705.96100	 24.10	
 13.601	 21.647	  4.57538	  4.23340	  0.43181	  2.91808	  1.51896	 -0.24097	  4.99889	705.95599	 24.10	
 13.609	 28.790	  4.55742	  4.10493	  0.51814	  3.15294	  1.29819	 -0.24075	  4.98228	705.97998	 24.10	
 13.611	 36.001	  4.58283	  3.98164	  0.63629	  3.40099	  1.10852	 -0.23746	  5.00179	705.98602	 24.10	
 13.601	 43.175	  4.58716	  3.80954	  0.77967	  3.61582	  0.93305	 -0.22980	  5.00060	705.98602	 24.10	
 13.596	 50.360	  4.58389	  3.60867	  0.94092	  3.80510	  0.77726	 -0.21828	  4.99384	705.86200	 24.10	
 13.611	 57.569	  4.57622	  3.38384	  1.12136	  3.96740	  0.64039	 -0.20774	  4.98177	705.97998	 24.10	
 13.604	 64.789	  4.57842	  3.14865	  1.32991	  4.10385	  0.53597	 -0.19946	  4.98240	705.89099	 24.10	
 13.595	 71.958	  4.59259	  2.90709	  1.55902	  4.21726	  0.46286	 -0.19481	  4.99315	706.10400	 24.10	
 13.607	 79.207	  4.59128	  2.64745	  1.79636	  4.28613	  0.40720	 -0.19003	  4.99076	705.98401	 24.10	
 13.601	 86.383	  4.58851	  2.38801	  2.04409	  4.32029	  0.38029	 -0.18522	  4.98210	705.99500	 24.10	
 13.601	 93.617	  4.59249	  2.13129	  2.30257	  4.32616	  0.38024	 -0.18257	  4.98564	706.08801	 24.10	
 13.607	100.793	  4.59458	  1.88069	  2.56248	  4.29693	  0.40173	 -0.17221	  4.98947	706.02399	 24.10	
 13.595	108.042	  4.58918	  1.63512	  2.81657	  4.22486	  0.45571	 -0.16809	  4.98230	706.06299	 24.10	
 13.604	115.211	  4.58875	  1.40592	  3.06885	  4.12533	  0.52711	 -0.16321	  4.98279	706.08197	 24.10	
 13.611	122.431	  4.60169	  1.19627	  3.31858	  4.00587	  0.63121	 -0.15847	  4.99739	706.16699	 24.10	
 13.596	129.640	  4.60365	  1.00768	  3.54189	  3.84122	  0.76256	 -0.15206	  4.99534	706.02301	 24.10	
 13.601	136.825	  4.58214	  0.83244	  3.73246	  3.63387	  0.91080	 -0.14186	  4.97731	706.05402	 24.10	
 13.611	143.999	  4.59011	  0.68605	  3.91828	  3.43232	  1.08145	 -0.13279	  4.98821	706.17798	 24.10	
 13.609	151.210	  4.58042	  0.55975	  4.06382	  3.19537	  1.27402	 -0.13210	  4.98243	706.09601	 24.10	
 13.601	158.353	  4.59750	  0.46584	  4.20060	  2.95950	  1.49292	 -0.13946	  5.00524	706.10400	 24.10	
 13.611	165.583	  4.58704	  0.39029	  4.28430	  2.69714	  1.72130	 -0.15151	  4.99715	706.11603	 24.10	
 13.608	172.853	  4.58412	  0.34382	  4.33904	  2.43386	  1.96188	 -0.16289	  4.99960	706.02100	 24.10	
 15.298	173.587	  4.43566	  0.04342	  4.47402	  2.31948	  1.84603	 -0.18916	  4.98268	705.93597	 24.10	
 15.291	167.167	  4.45973	  0.08244	  4.44598	  2.59137	  1.61359	 -0.18360	  5.00227	706.05701	 24.10	
 15.307	160.676	  4.46518	  0.14646	  4.37033	  2.85579	  1.38077	 -0.17674	  5.00729	705.96198	 24.10	
 15.300	154.261	  4.44593	  0.23617	  4.23952	  3.09532	  1.15746	 -0.16698	  4.98151	706.03699	 24.10	
 15.288	147.854	  4.45348	  0.34387	  4.10763	  3.33603	  0.96234	 -0.16506	  4.98347	705.99200	 24.10	
 15.293	141.428	  4.47518	  0.47662	  3.96248	  3.57600	  0.78427	 -0.16850	  5.00268	705.96198	 24.10	
 15.299	134.985	  4.45593	  0.62230	  3.75656	  3.76985	  0.61411	 -0.17772	  4.98381	705.97198	 24.10	
 15.305	128.583	  4.45408	  0.79411	  3.54603	  3.95247	  0.47111	 -0.18425	  4.97877	705.97803	 24.10	
 15.309	122.142	  4.46586	  0.98708	  3.32949	  4.12247	  0.34951	 -0.19054	  4.99296	706.10101	 24.10	
 15.304	115.711	  4.46731	  1.19613	  3.08868	  4.25126	  0.25450	 -0.19668	  4.98746	706.03699	 24.10	
 15.297	109.291	  4.47109	  1.42188	  2.84038	  4.35605	  0.18112	 -0.19792	  4.99243	705.99298	 24.10	
 15.293	102.897	  4.46595	  1.65704	  2.57861	  4.42491	  0.12483	 -0.20141	  4.98563	706.04602	 24.10	
 15.293	 96.458	  4.46827	  1.90611	  2.32274	  4.47205	  0.09218	 -0.20713	  4.99081	706.03400	 24.10	
 15.300	 90.000	  4.46710	  2.15975	  2.06527	  4.48573	  0.08192	 -0.21385	  4.99203	706.04602	 24.10	
 15.293	 83.542	  4.45548	  2.41409	  1.80798	  4.45628	  0.09418	 -0.21721	  4.97978	705.89697	 24.10	
 15.293	 77.103	  4.45534	  2.67270	  1.56408	  4.40649	  0.13176	 -0.22111	  4.98230	706.05603	 24.10	
 15.297	 70.709	  4.45833	  2.92700	  1.33497	  4.33303	  0.18807	 -0.22737	  4.98932	705.95300	 24.10	
 15.304	 64.289	  4.44790	  3.16995	  1.11267	  4.21897	  0.26788	 -0.23539	  4.98236	706.03998	 24.10	
 15.309	 57.858	  4.45171	  3.41042	  0.91101	  4.09238	  0.36584	 -0.24570	  4.99146	705.91101	 24.10	
 15.305	 51.417	  4.44928	  3.63105	  0.72832	  3.92815	  0.49005	 -0.25125	  4.99284	705.98602	 24.10	
 15.299	 45.015	  4.45447	  3.83952	  0.56390	  3.74457	  0.63865	 -0.26033	  5.00334	705.90002	 24.10	
 15.293	 38.572	  4.44831	  4.01533	  0.42154	  3.52727	  0.81029	 -0.26231	  4.99764	706.08002	 24.10	
 15.288	 32.146	  4.43678	  4.16368	  0.29936	  3.29485	  0.99384	 -0.26626	  4.99045	705.93597	 24.10	
 15.300	 25.739	  4.42528	  4.28270	  0.19833	  3.04978	  1.19007	 -0.26481	  4.98134	705.98602	 24.10	
 15.307	 19.324	  4.43203	  4.39382	  0.12134	  2.80632	  1.41335	 -0.25911	  4.99468	705.92200	 24.10	
 15.291	 12.833	  4.42677	  4.45658	  0.06815	  2.54252	  1.64757	 -0.25302	  4.99119	705.97498	 24.10	
 15.298	  6.413	  4.42464	  4.50116	  0.03330	  2.28332	  1.88862	 -0.24087	  4.99450	706.02301	 24.10	
 15.300	  0.000	  4.42222	  4.50998	  0.02408	  2.02161	  2.14135	 -0.23429	  4.99429	706.01099	 24.10	
 15.298	 -6.413	  4.40179	  4.47287	  0.03668	  1.76358	  2.38479	 -0.21985	  4.97413	705.98999	 24.10	
 15.291	-12.833	  4.41563	  4.43650	  0.07371	  1.52467	  2.64855	 -0.20581	  4.99374	706.10400	 24.10	
 15.307	-19.324	  4.40295	  4.34746	  0.13216	  1.27855	  2.90351	 -0.20035	  4.98825	706.06000	 24.10	
 15.300	-25.739	  4.40635	  4.24247	  0.21292	  1.06028	  3.15140	 -0.19240	  4.99522	706.01501	 24.10	
 15.288	-32.146	  4.40977	  4.10667	  0.32282	  0.86146	  3.39017	 -0.18288	  5.00020	706.05200	 24.20	
 15.293	-38.572	  4.38756	  3.92518	  0.44484	  0.66592	  3.59986	 -0.17681	  4.98219	706.07898	 24.20	
 15.299	-45.015	  4.38528	  3.73466	  0.59321	  0.49474	  3.80581	 -0.17374	  4.98369	706.19800	 24.10	
 15.305	-51.417	  4.38315	  3.52439	  0.76111	  0.35383	  3.98322	 -0.17171	  4.98012	706.12402	 24.20	
 15.309	-57.858	  4.38214	  3.29880	  0.94717	  0.22444	  4.14405	 -0.16571	  4.98593	705.99799	 24.20	
 15.304	-64.289	  4.37442	  3.05432	  1.15082	  0.12423	  4.26987	 -0.16148	  4.97996	705.98297	 24.20	
 15.297	-70.709	  4.38745	  2.80942	  1.37632	  0.04219	  4.38532	 -0.16263	  4.99113	706.16998	 24.20	
 15.293	-77.103	  4.36959	  2.54184	  1.60389	 -0.01595	  4.44474	 -0.16259	  4.97940	706.13599	 24.10	
 15.293	-83.542	  4.37409	  2.28335	  1.84813	 -0.05245	  4.49191	 -0.16872	  4.98398	706.05701	 24.10	
 15.300	-90.000	  4.38145	  2.02707	  2.10568	 -0.06474	  4.51316	 -0.18065	  4.98870	706.07898	 24.10	
 15.293	-96.458	  4.38239	  1.77494	  2.36402	 -0.04912	  4.49684	 -0.19098	  4.99082	706.07300	 24.10	
 15.293	-102.897	  4.37082	  1.52894	  2.61480	 -0.01011	  4.43482	 -0.19724	  4.97820	706.04602	 24.10	
 15.297	-109.291	  4.37093	  1.29771	  2.86593	  0.04927	  4.35481	 -0.20032	  4.97438	706.17297	 24.10	
 15.304	-115.711	  4.39505	  1.08538	  3.12757	  0.13255	  4.26921	 -0.19725	  5.00006	706.09302	 24.10	
 15.309	-122.142	  4.38285	  0.88227	  3.35384	  0.24027	  4.11799	 -0.18894	  4.97904	706.02899	 24.10	
 15.305	-128.583	  4.38862	  0.70239	  3.57479	  0.36749	  3.95913	 -0.17856	  4.98176	706.11902	 24.10	
 15.299	-134.985	  4.39907	  0.54029	  3.78420	  0.51527	  3.78322	 -0.17925	  4.98991	706.09399	 24.10	
 15.293	-141.428	  4.39519	  0.39947	  3.95845	  0.68707	  3.56660	 -0.18228	  4.97976	706.03802	 24.10	
 15.288	-147.854	  4.40402	  0.28370	  4.12187	  0.88105	  3.34361	 -0.18553	  4.98514	706.02600	 24.10	
 15.300	-154.261	  4.41447	  0.18344	  4.25952	  1.08832	  3.11246	 -0.19212	  4.99307	706.03101	 24.10	
 15.307	-160.676	  4.42401	  0.11098	  4.36749	  1.31127	  2.87062	 -0.19575	  4.99598	705.97803	 24.10	
 15.291	-167.167	  4.42479	  0.06163	  4.43777	  1.55652	  2.60696	 -0.20051	  4.98557	706.10498	 24.10	
 15.298	-173.587	  4.42992	  0.03440	  4.47939	  1.80537	  2.35181	 -0.20048	  4.98690	706.18298	 24.10	
 15.300	180.000	  4.42610	  0.02984	  4.48588	  2.05622	  2.09566	 -0.19540	  4.97527	706.07397	 24.10	
 17.000	180.000	  4.28273	 -0.26305	  4.62292	  1.94710	  1.97968	 -0.20856	  4.98623	706.11603	 24.10	
 16.990	-174.179	  4.27027	 -0.25702	  4.60421	  1.69201	  2.22798	 -0.21353	  4.97973	706.14398	 24.20	
 17.009	-168.383	  4.27299	 -0.23494	  4.57787	  1.44824	  2.48383	 -0.21352	  4.99021	706.13501	 24.20	
 17.000	-162.596	  4.25766	 -0.19045	  4.49682	  1.20319	  2.73292	 -0.21096	  4.98006	706.08502	 24.20	
 16.990	-156.759	  4.27024	 -0.12594	  4.42014	  0.98215	  2.99442	 -0.20777	  4.99862	706.08801	 24.20	
 16.995	-150.919	  4.26170	 -0.04310	  4.29808	  0.76631	  3.23394	 -0.20404	  4.99543	706.05603	 24.20	
 16.988	-145.161	  4.25160	  0.06304	  4.14678	  0.57183	  3.45991	 -0.19983	  4.99026	706.08698	 24.20	
 17.014	-139.343	  4.25516	  0.18569	  3.98986	  0.39151	  3.68870	 -0.20005	  5.00146	706.18701	 24.20	
 17.007	-133.546	  4.24334	  0.32597	  3.79425	  0.23160	  3.87822	 -0.19820	  4.98966	706.07898	 24.20	
 17.001	-127.699	  4.23646	  0.48859	  3.58256	  0.09099	  4.05809	 -0.19635	  4.98777	706.04199	 24.20	
 17.006	-121.937	  4.23449	  0.66466	  3.36199	 -0.03575	  4.22049	 -0.20173	  4.99103	706.08002	 24.20	
 17.002	-116.134	  4.22085	  0.85904	  3.11839	 -0.13902	  4.34669	 -0.20461	  4.97917	705.97803	 24.20	
 17.001	-110.310	  4.22836	  1.06928	  2.87905	 -0.22281	  4.46719	 -0.20558	  4.99387	705.96899	 24.20	
 16.988	-104.517	  4.22773	  1.29877	  2.62908	 -0.28058	  4.54797	 -0.20015	  4.98936	706.04199	 24.20	
 17.008	-98.662	  4.22276	  1.53497	  2.37138	 -0.32396	  4.60265	 -0.19042	  4.98802	706.14697	 24.20	
 16.996	-92.909	  4.23609	  1.78551	  2.12706	 -0.34608	  4.64441	 -0.17549	  5.00579	706.02100	 24.20	
 16.996	-87.091	  4.21696	  2.03164	  1.86311	 -0.34326	  4.62602	 -0.16412	  4.98224	705.86603	 24.20	
 17.012	-81.253	  4.21480	  2.28970	  1.61590	 -0.32856	  4.60362	 -0.15707	  4.98111	705.96399	 24.20	
 16.988	-75.483	  4.23435	  2.55510	  1.38736	 -0.28808	  4.57141	 -0.15718	  5.00227	705.87701	 24.20	
 17.001	-69.690	  4.22110	  2.80251	  1.15329	 -0.23167	  4.47994	 -0.15745	  4.98673	706.18903	 24.20	
 17.002	-63.866	  4.23581	  3.06179	  0.93768	 -0.15173	  4.38663	 -0.16099	  5.00008	706.10999	 24.20	
 17.006	-58.063	  4.24456	  3.30984	  0.74032	 -0.05048	  4.26133	 -0.16706	  5.00702	706.13501	 24.20	
 17.001	-52.301	  4.23957	  3.53183	  0.55778	  0.07159	  4.09709	 -0.17453	  4.99754	706.28400	 24.20	
 17.007	-46.454	  4.24411	  3.75007	  0.38768	  0.21399	  3.92103	 -0.17363	  4.99839	706.20398	 24.20	
 17.014	-40.657	  4.23969	  3.93776	  0.23813	  0.36716	  3.72096	 -0.18208	  4.99025	706.13599	 24.20	
 16.988	-34.839	  4.26165	  4.12689	  0.10919	  0.54824	  3.51653	 -0.18865	  5.00967	706.13599	 24.20	
 16.995	-29.081	  4.25011	  4.26401	  0.00186	  0.74078	  3.27586	 -0.19982	  4.98814	706.29303	 24.20	
 16.990	-23.241	  4.24766	  4.38617	 -0.09349	  0.94800	  3.02987	 -0.20441	  4.98388	706.22198	 24.20	
 17.000	-17.404	  4.25479	  4.49434	 -0.16768	  1.17139	  2.78610	 -0.20825	  4.99006	706.03400	 24.20	
 17.009	-11.617	  4.25521	  4.56723	 -0.21843	  1.40780	  2.52978	 -0.21298	  4.98862	706.06897	 24.20	
 16.990	 -5.821	  4.26143	  4.61267	 -0.24795	  1.65373	  2.27720	 -0.21888	  4.98559	706.12799	 24.20	
 17.000	  0.000	  4.27196	  4.64130	 -0.26277	  1.90593	  2.03156	 -0.23037	  4.99654	706.12402	 24.20	
 16.990	  5.821	  4.26825	  4.62610	 -0.25359	  2.16348	  1.77380	 -0.24420	  4.98728	706.05701	 24.20	
 17.009	 11.617	  4.27712	  4.60099	 -0.22844	  2.42217	  1.53787	 -0.25329	  4.99658	706.08801	 24.20	
 17.000	 17.404	  4.27718	  4.53410	 -0.17962	  2.67772	  1.30701	 -0.26286	  4.98949	706.19000	 24.20	
 16.990	 23.241	  4.27704	  4.44124	 -0.10954	  2.93296	  1.08469	 -0.26738	  4.98356	706.19800	 24.20	
 16.995	 29.081	  4.27670	  4.32216	 -0.02224	  3.17398	  0.87766	 -0.26923	  4.98090	706.12500	 24.20	
 16.988	 34.839	  4.28740	  4.18736	  0.08440	  3.41152	  0.69342	 -0.27538	  4.98703	706.15900	 24.20	
 17.014	 40.657	  4.28890	  4.02615	  0.20701	  3.63647	  0.51315	 -0.28307	  4.99096	706.14203	 24.20	
 17.007	 46.454	  4.30069	  3.84783	  0.34988	  3.84885	  0.35476	 -0.28218	  4.99850	706.06500	 24.20	
 17.001	 52.301	  4.30099	  3.63778	  0.51680	  4.02746	  0.21831	 -0.27707	  4.99183	706.06299	 24.20	
 17.006	 58.063	  4.30080	  3.41583	  0.69375	  4.18529	  0.09895	 -0.27110	  4.98652	706.04797	 24.20	
 17.002	 63.866	  4.29940	  3.17883	  0.89108	  4.32166	 -0.00339	 -0.26386	  4.98397	706.21997	 24.20	
 17.001	 69.690	  4.30103	  2.93481	  1.10196	  4.43582	 -0.08582	 -0.25697	  4.98358	706.22302	 24.20	
 16.988	 75.483	  4.31681	  2.69114	  1.33029	  4.53259	 -0.14713	 -0.24917	  4.99804	706.18298	 24.20	
 17.012	 81.253	  4.31364	  2.43425	  1.56520	  4.59062	 -0.19276	 -0.23879	  4.99582	706.15503	 24.20	
 16.996	 87.091	  4.30518	  2.17258	  1.80706	  4.60419	 -0.20671	 -0.22855	  4.98038	706.19397	 24.20	
 16.996	 92.909	  4.30649	  1.91763	  2.06293	  4.60551	 -0.20587	 -0.22209	  4.97681	706.17798	 24.20	
 17.008	 98.662	  4.30657	  1.67294	  2.31691	  4.58292	 -0.18899	 -0.21817	  4.98091	706.16302	 24.20	
 16.988	104.517	  4.32786	  1.43898	  2.58754	  4.54957	 -0.15134	 -0.21726	  5.00120	706.14697	 24.30	
 17.001	110.310	  4.31608	  1.20205	  2.83546	  4.46155	 -0.09512	 -0.21340	  4.98945	706.00702	 24.20	
 17.002	116.134	  4.31215	  0.98548	  3.08315	  4.34876	 -0.01608	 -0.21334	  4.97973	706.22803	 24.20	
 17.006	121.937	  4.32158	  0.78054	  3.32955	  4.22455	  0.08044	 -0.21327	  4.99334	706.16998	 24.20	
 17.001	127.699	  4.32601	  0.59138	  3.55987	  4.07414	  0.19364	 -0.21036	  4.99901	706.19501	 24.20	
 17.007	133.546	  4.31750	  0.41933	  3.76833	  3.88912	  0.32638	 -0.20462	  4.99364	706.06299	 24.20	
 17.014	139.343	  4.31374	  0.26587	  3.96046	  3.68611	  0.48129	 -0.19769	  4.99040	706.04797	 24.20	
 16.988	145.161	  4.30646	  0.13484	  4.12409	  3.45795	  0.65687	 -0.19349	  4.97861	706.04498	 24.20	
 16.995	150.919	  4.30678	  0.01953	  4.27467	  3.22892	  0.83979	 -0.19184	  4.98437	706.12799	 24.20	
 16.990	156.759	  4.30777	 -0.07524	  4.40290	  2.98841	  1.04474	 -0.20061	  4.98949	706.26501	 24.20	
 17.000	162.596	  4.30612	 -0.15470	  4.50531	  2.73188	  1.26453	 -0.20512	  4.99512	706.10999	 24.20	
 17.009	168.383	  4.28780	 -0.20945	  4.56033	  2.46537	  1.48998	 -0.20711	  4.97781	706.17798	 24.20	
 16.990	174.179	  4.29682	 -0.24375	  4.61360	  2.21420	  1.73290	 -0.20907	  4.99395	706.11298	 24.20	
 18.709	174.675	  4.14105	 -0.52221	  4.74226	  2.09947	  1.61303	 -0.21309	  5.00690	706.23901	 24.20	
 18.703	169.441	  4.13190	 -0.49034	  4.68925	  2.34338	  1.37513	 -0.21305	  4.99236	706.33899	 24.20	
 18.691	164.085	  4.14342	 -0.44039	  4.63097	  2.60852	  1.14759	 -0.21882	  4.99469	706.32397	 24.20	
 18.706	158.818	  4.14618	 -0.37688	  4.54605	  2.86334	  0.92829	 -0.21823	  5.00097	706.29602	 24.20	
 18.695	153.537	  4.15934	 -0.29019	  4.44202	  3.11502	  0.73055	 -0.21693	  5.00765	706.21100	 24.20	
 18.704	148.255	  4.14941	 -0.19131	  4.29427	  3.34322	  0.53481	 -0.21384	  4.99109	706.21997	 24.20	
 18.698	142.952	  4.15263	 -0.06992	  4.13419	  3.57406	  0.35670	 -0.21356	  4.99336	706.31500	 24.20	
 18.699	137.625	  4.16120	  0.06730	  3.96135	  3.79321	  0.19767	 -0.21919	  5.00113	706.34900	 24.20	
 18.705	132.343	  4.16033	  0.21922	  3.76080	  3.98221	  0.05459	 -0.22089	  4.99482	706.19000	 24.20	
 18.713	127.067	  4.16268	  0.38981	  3.55209	  4.16442	 -0.07301	 -0.22044	  5.00048	706.14398	 24.20	
 18.700	121.794	  4.15718	  0.57079	  3.31597	  4.31103	 -0.18372	 -0.21947	  4.98931	706.32898	 24.20	
 18.698	116.504	  4.16070	  0.77085	  3.08003	  4.44653	 -0.27771	 -0.21297	  4.99312	706.20599	 24.20	
 18.707	111.165	  4.15051	  0.98111	  2.82421	  4.54517	 -0.35479	 -0.21151	  4.98199	706.16998	 24.20	
 18.690	105.863	  4.15085	  1.20360	  2.57208	  4.62573	 -0.41010	 -0.21112	  4.98364	706.27600	 24.20	
 18.696	100.583	  4.16489	  1.44329	  2.32698	  4.69861	 -0.45063	 -0.20919	  4.99862	706.39099	 24.20	
 18.700	 95.309	  4.15553	  1.68251	  2.06680	  4.72098	 -0.47441	 -0.21503	  4.98859	706.32501	 24.20	
 18.700	 90.000	  4.14525	  1.92766	  1.81340	  4.71943	 -0.47762	 -0.22323	  4.97908	706.18298	 24.20	
 18.700	 84.691	  4.15769	  2.18620	  1.57011	  4.71940	 -0.46967	 -0.23588	  4.99144	706.37500	 24.20	
 18.696	 79.417	  4.14646	  2.43460	  1.32941	  4.66978	 -0.43970	 -0.24933	  4.98244	706.19800	 24.20	
 18.690	 74.137	  4.13827	  2.68083	  1.09892	  4.59942	 -0.39644	 -0.26274	  4.97564	706.13501	 24.20	
 18.707	 68.835	  4.14012	  2.93386	  0.88206	  4.51983	 -0.33779	 -0.27204	  4.98821	706.41498	 24.20	
 18.698	 63.496	  4.13240	  3.17166	  0.67302	  4.39774	 -0.25578	 -0.27954	  4.97642	706.34900	 24.20	
 18.700	 58.206	  4.13821	  3.41404	  0.48802	  4.27343	 -0.15508	 -0.29090	  4.99622	706.25897	 24.20	
 18.713	 52.933	  4.12602	  3.62677	  0.30583	  4.10471	 -0.04253	 -0.29380	  4.98584	706.30798	 24.20	
 18.705	 47.657	  4.12378	  3.83050	  0.14848	  3.92382	  0.09127	 -0.29143	  4.98667	706.20001	 24.20	
 18.699	 42.375	  4.11610	  4.01523	  0.00720	  3.72421	  0.23495	 -0.28523	  4.98115	706.31598	 24.20	
 18.698	 37.048	  4.11962	  4.19355	 -0.12426	  3.51654	  0.39757	 -0.27544	  4.99123	706.21802	 24.20	
 18.704	 31.745	  4.11799	  4.34864	 -0.23764	  3.28747	  0.57637	 -0.26140	  4.99602	706.20300	 24.20	
 18.695	 26.463	  4.10941	  4.46820	 -0.32335	  3.04532	  0.77314	 -0.25718	  4.98881	706.26599	 24.20	
 18.706	 21.182	  4.10827	  4.57412	 -0.40611	  2.80200	  0.97228	 -0.25325	  4.99264	706.17297	 24.20	
 18.691	 15.915	  4.10224	  4.64810	 -0.45835	  2.54642	  1.19604	 -0.24576	  4.98642	706.18701	 24.20	
 18.703	 10.559	  4.10425	  4.71195	 -0.50578	  2.28938	  1.42652	 -0.23590	  4.99417	706.26501	 24.20	
 18.709	  5.325	  4.09206	  4.73354	 -0.52733	  2.03701	  1.65631	 -0.22383	  4.98726	706.25702	 24.20	
 18.700	  0.000	  4.08965	  4.73616	 -0.53529	  1.77807	  1.90495	 -0.21378	  4.98652	706.24298	 24.20	
 18.709	 -5.325	  4.09087	  4.72463	 -0.52662	  1.52899	  2.15283	 -0.20755	  4.99137	706.27002	 24.20	
 18.703	-10.559	  4.08524	  4.67971	 -0.49608	  1.29406	  2.40265	 -0.21012	  4.99019	706.27002	 24.20	
 18.691	-15.915	  4.08292	  4.61128	 -0.44530	  1.05402	  2.65986	 -0.20690	  4.98941	706.34399	 24.20	
 18.706	-21.182	  4.07697	  4.51874	 -0.38761	  0.83497	  2.90250	 -0.20317	  4.98894	706.19397	 24.20	
 18.695	-26.463	  4.08782	  4.41773	 -0.30553	  0.63178	  3.15220	 -0.19767	  5.00224	706.19397	 24.20	
 18.704	-31.745	  4.06372	  4.26018	 -0.20946	  0.43041	  3.37453	 -0.19077	  4.98112	706.15601	 24.20	
 18.698	-37.048	  4.06045	  4.09719	 -0.09340	  0.25117	  3.59469	 -0.18194	  4.98026	706.36102	 24.20	
 18.699	-42.375	  4.06744	  3.92649	  0.03873	  0.08671	  3.81222	 -0.17691	  4.99271	706.26202	 24.20	
 18.705	-47.657	  4.06076	  3.72595	  0.18400	 -0.06528	  4.00182	 -0.16922	  4.99076	706.36298	 24.20	
 18.713	-52.933	  4.05313	  3.50757	  0.34620	 -0.19841	  4.16874	 -0.15528	  4.98443	706.21399	 24.20	
 18.700	-58.206	  4.05763	  3.28160	  0.52768	 -0.31291	  4.32928	 -0.15335	  4.99118	706.29303	 24.20	
 18.698	-63.496	  4.05601	  3.04438	  0.72584	 -0.40346	  4.45517	 -0.15211	  4.99021	706.29797	 24.20	
 18.707	-68.835	  4.04543	  2.79004	  0.93255	 -0.48000	  4.55145	 -0.14880	  4.98108	706.28198	 24.20	
 18.690	-74.137	  4.04620	  2.53872	  1.15416	 -0.53750	  4.63472	 -0.15167	  4.98514	706.22601	 24.20	
 18.696	-79.417	  4.04570	  2.28236	  1.38316	 -0.58585	  4.69440	 -0.14814	  4.98399	706.24902	 24.20	
 18.700	-84.691	  4.03896	  2.02538	  1.61917	 -0.61213	  4.72192	 -0.15679	  4.97913	706.20001	 24.20	
 18.700	-90.000	  4.03789	  1.77021	  1.86656	 -0.61945	  4.72956	 -0.15723	  4.97888	706.25897	 24.20	
 18.700	-95.309	  4.04232	  1.52482	  2.12011	 -0.60965	  4.72258	 -0.16438	  4.98462	706.25403	 24.20	
 18.696	-100.583	  4.04239	  1.28887	  2.37098	 -0.58078	  4.68356	 -0.17739	  4.98249	706.23102	 24.20	
 18.690	-105.863	  4.04435	  1.05904	  2.62141	 -0.53183	  4.61632	 -0.18390	  4.97886	706.24902	 24.20	
 18.707	-111.165	  4.05041	  0.84705	  2.87225	 -0.47275	  4.53933	 -0.19836	  4.98458	706.33899	 24.20	
 18.698	-116.504	  4.05920	  0.63744	  3.12286	 -0.39362	  4.43474	 -0.20374	  4.99562	706.25098	 24.20	
 18.700	-121.794	  4.05534	  0.44750	  3.34897	 -0.29761	  4.29649	 -0.20434	  4.99079	706.16602	 24.20	
 18.713	-127.067	  4.06021	  0.27139	  3.57428	 -0.18337	  4.14355	 -0.20630	  4.99119	706.18903	 24.20	
 18.705	-132.343	  4.05996	  0.12065	  3.77706	 -0.04328	  3.95880	 -0.21093	  4.98004	706.19000	 24.20	
 18.699	-137.625	  4.06876	 -0.02001	  3.97222	  0.11112	  3.76365	 -0.20880	  4.98499	706.19702	 24.20	
 18.698	-142.952	  4.07296	 -0.14470	  4.14619	  0.27745	  3.55472	 -0.21175	  4.98270	706.28003	 24.20	
 18.704	-148.255	  4.08618	 -0.25590	  4.31017	  0.46053	  3.33776	 -0.21009	  4.99587	706.26801	 24.20	
 18.695	-153.537	  4.08170	 -0.34068	  4.42974	  0.66114	  3.09366	 -0.20621	  4.98294	706.24298	 24.20	
 18.706	-158.818	  4.09285	 -0.41835	  4.54551	  0.87192	  2.85451	 -0.20702	  4.99208	706.14899	 24.20	
 18.691	-164.085	  4.09450	 -0.47204	  4.62636	  1.09525	  2.60521	 -0.20682	  4.98917	706.21100	 24.20	
 18.703	-169.441	  4.11163	 -0.51317	  4.70112	  1.33920	  2.35390	 -0.21048	  5.00272	706.30798	 24.20	
 18.709	-174.675	  4.10666	 -0.53269	  4.72330	  1.57729	  2.10106	 -0.21214	  4.98780	706.04498	 24.20	
 18.700	180.000	  4.10920	 -0.53267	  4.72951	  1.82947	  1.85255	 -0.21290	  4.98154	706.29602	 24.20	
 20.400	180.000	  3.92324	 -0.81455	  4.81987	  1.69426	  1.70833	 -0.19923	  4.98251	706.21399	 24.20	
 20.401	-175.153	  3.92388	 -0.81808	  4.81949	  1.44665	  1.95159	 -0.19845	  4.99451	706.19702	 24.20	
 20.407	-170.264	  3.90195	 -0.79956	  4.76936	  1.19782	  2.19170	 -0.19927	  4.97340	706.13300	 24.20	
 20.410	-165.423	  3.91175	 -0.77072	  4.73270	  0.96606	  2.45078	 -0.19687	  4.99172	706.16400	 24.20	
 20.392	-160.496	  3.90842	 -0.71754	  4.65309	  0.74348	  2.70089	 -0.19289	  4.98984	706.34399	 24.20	
 20.401	-155.705	  3.89452	 -0.65671	  4.55112	  0.52881	  2.93633	 -0.19270	  4.98313	706.15002	 24.20	
 20.405	-150.835	  3.90464	 -0.58102	  4.44829	  0.32663	  3.19042	 -0.20072	  5.00211	706.19702	 24.20	
 20.397	-145.903	  3.89876	 -0.48416	  4.30452	  0.13898	  3.42160	 -0.20654	  5.00216	706.19397	 24.20	
 20.392	-141.062	  3.88897	 -0.37361	  4.13568	 -0.03039	  3.63173	 -0.21055	  4.99203	706.06299	 24.20	
 20.396	-136.227	  3.88046	 -0.25343	  3.95385	 -0.19410	  3.83699	 -0.20963	  4.99101	706.10400	 24.20	
 20.408	-131.372	  3.87763	 -0.11484	  3.76138	 -0.33882	  4.03319	 -0.20723	  4.99588	705.99298	 24.20	
 20.410	-126.511	  3.87017	  0.04127	  3.54788	 -0.46330	  4.20086	 -0.19967	  4.98998	706.15601	 24.20	
 20.400	-121.604	  3.87288	  0.21426	  3.32782	 -0.57429	  4.36089	 -0.19560	  4.99517	706.17499	 24.20	
 20.403	-116.741	  3.86737	  0.40084	  3.09215	 -0.66832	  4.49375	 -0.19130	  4.99426	706.12500	 24.20	
 20.413	-111.900	  3.86151	  0.59539	  2.84863	 -0.75124	  4.60320	 -0.18168	  4.98899	706.30402	 24.20	
 20.398	-107.004	  3.86207	  0.80950	  2.60442	 -0.81445	  4.69668	 -0.16617	  4.99308	706.10199	 24.20	
 20.394	-102.132	  3.85606	  1.02844	  2.35031	 -0.86526	  4.75935	 -0.15722	  4.98759	706.16302	 24.20	
 20.403	-97.332	  3.85511	  1.25930	  2.10353	 -0.89614	  4.80636	 -0.14983	  4.98993	706.12701	 24.20	
 20.392	-92.440	  3.86031	  1.50181	  1.85309	 -0.91167	  4.83530	 -0.14082	  4.99654	706.27301	 24.20	
 20.392	-87.560	  3.86006	  1.75011	  1.60436	 -0.91536	  4.83727	 -0.14134	  4.99468	706.30499	 24.20	
 20.403	-82.668	  3.86003	  2.00307	  1.36191	 -0.90684	  4.82388	 -0.14089	  4.99929	706.19397	 24.30	
 20.394	-77.868	  3.86306	  2.25617	  1.13299	 -0.87425	  4.78439	 -0.13638	  4.99954	706.31598	 24.30	
 20.398	-72.996	  3.85798	  2.50586	  0.90528	 -0.82829	  4.71335	 -0.13689	  4.99164	706.19397	 24.30	
 20.413	-68.100	  3.85861	  2.76132	  0.68665	 -0.76620	  4.62650	 -0.13955	  4.99120	706.34100	 24.30	
 20.403	-63.259	  3.86038	  3.00245	  0.48525	 -0.68860	  4.51737	 -0.14051	  4.98568	706.13898	 24.30	
 20.400	-58.396	  3.86395	  3.24613	  0.29622	 -0.59156	  4.38862	 -0.14508	  4.98878	706.19702	 24.30	
 20.410	-53.489	  3.87017	  3.47772	  0.11662	 -0.48977	  4.24255	 -0.15201	  4.99328	706.29901	 24.30	
 20.408	-48.628	  3.86379	  3.68732	 -0.04686	 -0.36597	  4.06548	 -0.15602	  4.98323	706.10199	 24.30	
 20.396	-43.773	  3.87856	  3.89923	 -0.18939	 -0.22296	  3.88754	 -0.16385	  4.99473	706.08698	 24.30	
 20.392	-38.938	  3.88239	  4.08564	 -0.32114	 -0.06776	  3.68503	 -0.16922	  4.99153	706.38000	 24.30	
 20.397	-34.097	  3.89233	  4.26188	 -0.44242	  0.10002	  3.47812	 -0.17666	  5.00383	706.34399	 24.30	
 20.405	-29.165	  3.88076	  4.40030	 -0.54634	  0.28130	  3.23756	 -0.17943	  4.98806	706.30103	 24.30	
 20.401	-24.295	  3.89465	  4.53626	 -0.63028	  0.48693	  3.00589	 -0.19532	  4.99996	706.26202	 24.30	
 20.392	-19.504	  3.88268	  4.62324	 -0.69968	  0.69040	  2.75231	 -0.19267	  4.97852	706.18298	 24.30	
 20.410	-14.577	  3.89274	  4.71691	 -0.76049	  0.91125	  2.50836	 -0.19680	  4.98795	706.22302	 24.30	
 20.407	 -9.736	  3.89283	  4.77488	 -0.79908	  1.14346	  2.25554	 -0.19742	  4.98395	706.36700	 24.30	
 20.401	 -4.847	  3.89684	  4.81303	 -0.82401	  1.38501	  2.00416	 -0.19838	  4.98836	706.37701	 24.30	
 20.400	  0.000	  3.89542	  4.82255	 -0.83127	  1.62536	  1.75909	 -0.20557	  4.97879	706.32397	 24.30	
 20.401	  4.847	  3.90319	  4.82490	 -0.82921	  1.88129	  1.51599	 -0.21003	  4.98731	706.27002	 24.30	
 20.407	  9.736	  3.90885	  4.80139	 -0.80671	  2.13360	  1.28414	 -0.21680	  4.98791	706.26202	 24.30	
 20.410	 14.577	  3.92797	  4.77259	 -0.77176	  2.39768	  1.06108	 -0.22288	  5.00825	706.25299	 24.30	
 20.392	 19.504	  3.91024	  4.67104	 -0.71210	  2.64289	  0.83402	 -0.22141	  4.97782	706.22900	 24.30	
 20.401	 24.295	  3.91331	  4.58101	 -0.64646	  2.88441	  0.63289	 -0.23094	  4.97869	706.30798	 24.30	
 20.405	 29.165	  3.92996	  4.48071	 -0.56881	  3.13743	  0.44054	 -0.23729	  4.99499	706.17798	 24.30	
 20.397	 34.097	  3.94532	  4.35289	 -0.46798	  3.38754	  0.25277	 -0.25225	  5.01307	706.13202	 24.30	
 20.392	 38.938	  3.93304	  4.17741	 -0.35522	  3.59319	  0.08663	 -0.26494	  4.98543	706.21503	 24.30	
 20.396	 43.773	  3.93485	  4.00021	 -0.22563	  3.79733	 -0.06445	 -0.27645	  4.98678	706.25299	 24.30	
 20.408	 48.628	  3.94644	  3.81916	 -0.08711	  4.00404	 -0.20641	 -0.28872	  4.99717	706.14697	 24.30	
 20.410	 53.489	  3.94026	  3.60364	  0.07047	  4.17341	 -0.33444	 -0.28667	  4.99020	706.17297	 24.30	
 20.400	 58.396	  3.94495	  3.38093	  0.24544	  4.33394	 -0.44283	 -0.29032	  4.98701	706.16400	 24.30	
 20.403	 63.259	  3.95105	  3.15084	  0.43360	  4.47122	 -0.53494	 -0.28073	  4.98955	706.31500	 24.30	
 20.413	 68.100	  3.94816	  2.90693	  0.62782	  4.57822	 -0.61129	 -0.26856	  4.97956	706.17999	 24.30	
 20.398	 72.996	  3.96286	  2.67065	  0.84747	  4.68747	 -0.67640	 -0.25816	  4.99838	706.07703	 24.30	
 20.394	 77.868	  3.95908	  2.41379	  1.06899	  4.74702	 -0.72113	 -0.24842	  4.98657	706.27600	 24.30	
 20.403	 82.668	  3.95715	  2.16528	  1.29725	  4.79262	 -0.75354	 -0.23487	  4.98661	706.17297	 24.30	
 20.392	 87.560	  3.97077	  1.91967	  1.54401	  4.83004	 -0.77502	 -0.21796	  4.99871	706.20300	 24.30	
 20.392	 92.440	  3.95905	  1.66339	  1.78880	  4.81305	 -0.76625	 -0.20163	  4.97917	706.18701	 24.30	
 20.403	 97.332	  3.96557	  1.42359	  2.04293	  4.79982	 -0.75296	 -0.19428	  4.98498	706.15198	 24.30	
 20.394	102.132	  3.96948	  1.19538	  2.29599	  4.76247	 -0.71984	 -0.19079	  4.98846	706.12097	 24.30	
 20.398	107.004	  3.98772	  0.97281	  2.55772	  4.72022	 -0.68027	 -0.19372	  5.01030	706.20300	 24.30	
 20.413	111.900	  3.96786	  0.74819	  2.79859	  4.61417	 -0.62150	 -0.19413	  4.98611	706.20300	 24.30	
 20.403	116.741	  3.98280	  0.54422	  3.05201	  4.52365	 -0.54895	 -0.19721	  5.00713	706.27399	 24.30	
 20.400	121.604	  3.96502	  0.34754	  3.27752	  4.37604	 -0.46036	 -0.20206	  4.98535	706.29797	 24.30	
 20.410	126.511	  3.97176	  0.16849	  3.51197	  4.23129	 -0.35560	 -0.20960	  4.99420	706.26202	 24.30	
 20.408	131.372	  3.97337	  0.00131	  3.73024	  4.05883	 -0.23498	 -0.21498	  4.99441	706.38300	 24.30	
 20.396	136.227	  3.97764	 -0.14881	  3.93721	  3.87087	 -0.09413	 -0.22089	  5.00079	706.29901	 24.30	
 20.392	141.062	  3.97654	 -0.28482	  4.12119	  3.66965	  0.05286	 -0.21936	  5.00408	706.30798	 24.30	
 20.397	145.903	  3.96781	 -0.40428	  4.27976	  3.44513	  0.21699	 -0.21731	  4.99679	706.24500	 24.30	
 20.405	150.835	  3.96624	 -0.51274	  4.43263	  3.20864	  0.39973	 -0.21828	  4.99856	706.36700	 24.30	
 20.401	155.705	  3.95410	 -0.59867	  4.54484	  2.95700	  0.59206	 -0.21796	  4.98545	706.18903	 24.30	
 20.392	160.496	  3.94142	 -0.67125	  4.63531	  2.71126	  0.78963	 -0.21852	  4.97622	706.19397	 24.30	
 20.410	165.423	  3.95630	 -0.73609	  4.73781	  2.46489	  1.01270	 -0.21307	  5.00048	706.24200	 24.30	
 20.407	170.264	  3.93067	 -0.77493	  4.77034	  2.19906	  1.23402	 -0.21121	  4.97642	706.21997	 24.30	
 20.401	175.153	  3.92733	 -0.80146	  4.80313	  1.94597	  1.46520	 -0.20534	  4.97681	706.14697	 24.30	
  0.141	 45.000	  5.00837	  2.66596	  2.64011	  2.61254	  2.67193	  0.03686	  5.00585	706.23700	 24.20	
  4.001	128.691	  4.98077	  2.24980	  2.95206	  3.01136	  2.18910	  0.02492	  4.98376	706.24902	 24.20	
  4.002	 76.995	  4.98214	  2.74219	  2.45921	  3.12673	  2.09438	  0.01095	  4.98786	706.25098	 24.20	
  4.002	 25.892	  4.98910	  3.14982	  2.09418	  2.80357	  2.38855	  0.00321	  4.99727	706.16699	 24.20	
  4.002	-25.892	  4.98169	  3.13412	  2.09580	  2.29123	  2.88707	  0.00777	  4.99837	706.13202	 24.20	
  4.002	-76.995	  4.98188	  2.71684	  2.47019	  1.99291	  3.21125	  0.01108	  5.00119	706.16699	 24.20	
  4.001	-128.691	  4.97454	  2.22392	  2.96517	  2.09494	  3.08063	  0.00573	  4.98715	706.16998	 24.20	
  4.000	180.000	  4.97828	  2.03467	  3.18714	  2.53961	  2.62025	  0.01328	  4.98679	706.30103	 24.20	
  8.000	180.000	  4.88780	  1.33592	  3.73705	  2.43385	  2.50017	 -0.04558	  4.99541	706.14899	 24.20	
  7.991	-152.370	  4.86944	  1.44145	  3.58883	  1.87567	  3.06370	 -0.05391	  4.98825	706.16302	 24.20	
  7.997	-124.550	  4.86625	  1.78332	  3.18713	  1.46358	  3.52838	 -0.05686	  4.99653	706.15802	 24.20	
  8.006	-96.837	  4.84683	  2.29490	  2.62304	  1.26907	  3.74062	 -0.06018	  4.98050	706.15198	 24.20	
  7.988	-69.228	  4.85670	  2.88306	  2.06505	  1.33102	  3.67909	 -0.05898	  4.98965	706.12097	 24.20	
  7.997	-41.563	  4.85525	  3.38920	  1.60765	  1.62339	  3.33511	 -0.05591	  4.98859	706.27301	 24.20	
  8.008	-13.821	  4.87572	  3.70429	  1.35905	  2.12461	  2.80838	 -0.06982	  4.99944	706.05200	 24.20	
  8.008	 13.821	  4.86800	  3.70696	  1.34875	  2.70456	  2.22257	 -0.07957	  4.98282	706.10999	 24.20	
  7.997	 41.563	  4.89278	  3.44383	  1.59543	  3.25546	  1.74823	 -0.08096	  4.99925	706.16400	 24.20	
  7.988	 69.228	  4.90156	  2.95169	  2.04432	  3.61870	  1.44883	 -0.06141	  5.00160	706.23901	 24.20	
  8.006	 96.837	  4.89123	  2.36471	  2.60608	  3.69279	  1.38139	 -0.04472	  4.98221	706.07898	 24.20	
  7.997	124.550	  4.89597	  1.83913	  3.16489	  3.47875	  1.56279	 -0.03453	  4.99377	706.12799	 24.20	
  7.991	152.370	  4.88847	  1.47472	  3.57726	  3.01015	  1.96055	 -0.02548	  4.98825	706.15601	 24.20	
 12.009	161.059	  4.69691	  0.71047	  4.09319	  2.86848	  1.74384	 -0.11014	  5.00262	706.17499	 24.20	
 12.013	142.081	  4.70599	  0.97063	  3.78203	  3.43591	  1.25603	 -0.10541	  5.00390	706.15198	 24.20	
 12.006	123.113	  4.68689	  1.37600	  3.28956	  3.85104	  0.90235	 -0.12207	  4.97904	706.22198	 24.20	
 12.007	104.200	  4.69039	  1.89812	  2.71747	  4.10868	  0.70134	 -0.13521	  4.98453	706.22803	 24.20	
 11.989	 85.301	  4.69080	  2.48972	  2.12109	  4.15421	  0.66573	 -0.15326	  4.98613	706.16602	 24.20	
 12.013	 66.294	  4.69212	  3.08888	  1.56318	  3.99561	  0.79212	 -0.16236	  4.99225	706.20001	 24.20	
 12.012	 47.388	  4.68292	  3.60608	  1.10463	  3.62982	  1.08143	 -0.18489	  4.98839	706.21503	 24.20	
 11.990	 28.440	  4.67133	  3.98269	  0.78486	  3.12166	  1.50312	 -0.20296	  4.98802	706.21802	 24.20	
 11.991	  9.464	  4.67551	  4.18698	  0.62570	  2.53496	  2.04373	 -0.19453	  5.00202	706.19702	 24.20	
 11.991	 -9.464	  4.66666	  4.17402	  0.63073	  1.93201	  2.63705	 -0.17129	  5.00038	706.24500	 24.20	
 11.990	-28.440	  4.65696	  3.94848	  0.80199	  1.38068	  3.22110	 -0.14281	  5.00009	706.13599	 24.20	
 12.012	-47.388	  4.63895	  3.53682	  1.12854	  0.94509	  3.70900	 -0.13652	  4.98852	706.13599	 24.20	
 12.013	-66.294	  4.64149	  2.99939	  1.59605	  0.65597	  4.06311	 -0.14064	  4.99866	706.24200	 24.20	
 11.989	-85.301	  4.62639	  2.38664	  2.15236	  0.53728	  4.19522	 -0.14542	  4.97931	706.16602	 24.20	
 12.007	-104.200	  4.65183	  1.81037	  2.76095	  0.58060	  4.16358	 -0.15113	  5.00583	706.15503	 24.20	
 12.006	-123.113	  4.63226	  1.29179	  3.31547	  0.78987	  3.88108	 -0.13558	  4.98186	706.32098	 24.20	
 12.013	-142.081	  4.65941	  0.91151	  3.79288	  1.16568	  3.45820	 -0.12802	  4.99876	706.18298	 24.20	
 12.009	-161.059	  4.65581	  0.67518	  4.08461	  1.66536	  2.89617	 -0.13701	  4.97833	706.12500	 24.20	
 16.000	180.000	  4.37071	 -0.09315	  4.55430	  2.01563	  2.05212	 -0.20481	  4.99311	706.12799	 24.20	
 15.990	-165.604	  4.35743	 -0.04829	  4.47669	  1.43059	  2.64571	 -0.20708	  4.98928	706.28497	 24.20	
 16.002	-151.165	  4.35186	  0.11415	  4.24716	  0.90363	  3.23030	 -0.19768	  4.99904	706.28497	 24.20	
 16.002	-136.836	  4.32980	  0.39009	  3.86326	  0.46177	  3.74256	 -0.19004	  4.98462	706.11798	 24.20	
 15.995	-122.439	  4.32502	  0.78170	  3.37594	  0.13560	  4.15497	 -0.19313	  4.98876	706.11798	 24.20	
 15.993	-107.966	  4.32916	  1.27413	  2.81512	 -0.08077	  4.44874	 -0.20289	  5.00544	706.11603	 24.20	
 16.005	-93.629	  4.31678	  1.82731	  2.21413	 -0.18104	  4.56836	 -0.18303	  4.99915	706.18903	 24.20	
 15.992	-79.234	  4.32030	  2.43135	  1.62784	 -0.15281	  4.53796	 -0.16488	  5.00041	706.24298	 24.20	
 16.009	-64.774	  4.29774	  3.01436	  1.08544	 -0.00551	  4.32185	 -0.15608	  4.97253	706.23499	 24.20	
 15.997	-50.364	  4.31900	  3.57255	  0.63995	  0.26983	  3.99351	 -0.17213	  4.98799	706.16302	 24.20	
 15.997	-36.045	  4.33196	  4.03235	  0.28913	  0.64208	  3.53766	 -0.18248	  4.99277	706.05200	 24.20	
 16.000	-21.597	  4.34528	  4.36203	  0.04725	  1.11923	  2.98945	 -0.20295	  4.99530	706.09003	 24.20	
 16.003	 -7.169	  4.34143	  4.52632	 -0.07908	  1.67606	  2.38713	 -0.22467	  4.98378	706.16699	 24.20	
 16.003	  7.169	  4.35782	  4.54912	 -0.08341	  2.27561	  1.80179	 -0.24934	  4.99271	706.20001	 24.20	
 16.000	 21.597	  4.35909	  4.39799	  0.03081	  2.87877	  1.25518	 -0.26406	  4.98449	706.15198	 24.20	
 15.997	 36.045	  4.37232	  4.10617	  0.26068	  3.44359	  0.78507	 -0.27310	  4.98843	706.16400	 24.20	
 15.997	 50.364	  4.38863	  3.68207	  0.60060	  3.93109	  0.41056	 -0.26857	  4.99825	706.09302	 24.20	
 16.009	 64.774	  4.39742	  3.15751	  1.04470	  4.28856	  0.14395	 -0.24814	  4.99886	706.28003	 24.20	
 15.992	 79.234	  4.40195	  2.56481	  1.57846	  4.49557	 -0.00622	 -0.23197	  4.99881	706.24902	 24.30	
 16.005	 93.629	  4.40390	  1.96198	  2.16346	  4.53993	 -0.03720	 -0.21911	  4.99558	706.20398	 24.30	
 15.993	107.966	  4.40979	  1.39879	  2.77000	  4.43055	  0.04735	 -0.20890	  4.99678	706.17297	 24.30	
 15.995	122.439	  4.41459	  0.89097	  3.35150	  4.16386	  0.24947	 -0.20478	  5.00425	706.21802	 24.30	
 16.002	136.836	  4.40685	  0.47788	  3.85192	  3.74843	  0.56084	 -0.18790	  5.00198	706.33197	 24.30	
 16.002	151.165	  4.39716	  0.16994	  4.23061	  3.22508	  0.97535	 -0.18147	  4.99626	706.25702	 24.30	
 15.990	165.604	  4.38529	 -0.01761	  4.46823	  2.62675	  1.48766	 -0.19299	  4.99006	706.20398	 24.30	
 20.003	168.362	  3.97981	 -0.68975	  4.73227	  2.32071	  1.18985	 -0.21231	  4.97618	706.19501	 24.30	
 20.008	156.764	  4.00073	 -0.55439	  4.55869	  2.92053	  0.68547	 -0.22126	  4.99279	706.19501	 24.30	
 20.000	145.147	  4.01046	 -0.32208	  4.24624	  3.48071	  0.24984	 -0.21744	  4.99400	706.25897	 24.20	
 19.995	133.545	  4.02262	 -0.00415	  3.82512	  3.96985	 -0.10594	 -0.22161	  5.00084	706.21198	 24.20	
 20.009	121.926	  4.01200	  0.39142	  3.30296	  4.35483	 -0.38914	 -0.21032	  4.98817	706.24298	 24.20	
 20.005	110.327	  4.01808	  0.86540	  2.74020	  4.63023	 -0.57391	 -0.19773	  4.99286	706.25897	 24.30	
 19.989	 98.733	  4.00869	  1.39615	  2.14545	  4.76745	 -0.67426	 -0.20028	  4.98171	706.16302	 24.20	
 19.999	 87.075	  4.01735	  1.97429	  1.56226	  4.80454	 -0.69624	 -0.22396	  4.99723	706.26599	 24.30	
 19.992	 75.457	  4.01462	  2.56238	  1.01518	  4.70300	 -0.62323	 -0.25672	  4.99546	706.28400	 24.30	
 20.009	 63.844	  4.00122	  3.13521	  0.51612	  4.47280	 -0.47554	 -0.28308	  4.99157	706.26202	 24.30	
 19.989	 52.269	  3.98294	  3.65060	  0.09738	  4.11352	 -0.23194	 -0.28846	  4.97615	706.27698	 24.20	
 19.999	 40.602	  3.97923	  4.11164	 -0.24352	  3.66511	  0.09427	 -0.27265	  4.98710	706.29303	 24.30	
 20.004	 29.051	  3.96915	  4.45898	 -0.49933	  3.13639	  0.50044	 -0.24246	  4.98706	706.32898	 24.20	
 20.005	 17.433	  3.95655	  4.68827	 -0.66604	  2.55690	  0.97657	 -0.22906	  4.98133	706.36700	 24.30	
 20.006	  5.780	  3.95970	  4.81233	 -0.75263	  1.96722	  1.51481	 -0.21734	  4.99800	706.22900	 24.30	
 20.006	 -5.780	  3.94427	  4.78719	 -0.74641	  1.38094	  2.08362	 -0.20242	  4.98659	706.42603	 24.30	
 20.005	-17.433	  3.94526	  4.66060	 -0.65653	  0.83574	  2.67916	 -0.19550	  4.99523	706.44000	 24.20	
 20.004	-29.051	  3.92852	  4.38728	 -0.47611	  0.34967	  3.23638	 -0.17913	  4.98287	706.46301	 24.20	
 19.999	-40.602	  3.93133	  4.02003	 -0.21093	 -0.05399	  3.75461	 -0.16928	  4.99575	706.47400	 24.20	
 19.989	-52.269	  3.91887	  3.53949	  0.13843	 -0.38666	  4.19301	 -0.15807	  4.99399	706.30103	 24.20	
 20.009	-63.844	  3.90487	  2.98897	  0.56727	 -0.62025	  4.50798	 -0.14333	  4.98166	706.37000	 24.20	
 19.992	-75.457	  3.90185	  2.40167	  1.06554	 -0.77375	  4.71974	 -0.14563	  4.98193	706.29901	 24.20	
 19.999	-87.075	  3.89850	  1.81107	  1.61340	 -0.83455	  4.80162	 -0.14121	  4.97883	706.29102	 24.20	
 19.989	-98.733	  3.91322	  1.24250	  2.20735	 -0.81374	  4.78541	 -0.15478	  5.00162	706.36298	 24.20	
 20.005	-110.327	  3.91307	  0.71894	  2.79003	 -0.70264	  4.62427	 -0.18038	  4.99500	706.25299	 24.20	
 20.009	-121.926	  3.92275	  0.26415	  3.34927	 -0.50318	  4.34536	 -0.19857	  4.99888	706.36700	 24.20	
 19.995	-133.545	  3.92316	 -0.11156	  3.84072	 -0.20811	  3.94061	 -0.21052	  4.98791	706.30103	 24.20	
 20.000	-145.147	  3.93863	 -0.39776	  4.26094	  0.16923	  3.45834	 -0.21039	  4.99399	706.37701	 24.20	
 20.008	-156.764	  3.95316	 -0.60742	  4.57200	  0.62789	  2.90625	 -0.19756	  4.99707	706.35199	 24.20	
 20.003	-168.362	  3.96790	 -0.72159	  4.75654	  1.15581	  2.33043	 -0.20318	  4.99844	706.35498	 24.20	
 20.000	180.000	  3.98588	 -0.75001	  4.81832	  1.73084	  1.75036	 -0.20634	  5.00352	706.38599	 24.20	
