FileType=PCF
NHL=14
Date=10/23/18	15:40:42
Facility=APL
Serial=16328-5
Customer=NASA
NP=6
Mach=0.150000
Calibration=1:1
CalPts=490
TstPts=95
PortNumbering=AP Standard
Units=Torr C m/s kg/m^3 deg mm 
Theta[deg]	Phi[deg]	P1[Torr]	P2[Torr]	P3[Torr]	P4[Torr]	P5[Torr]	P6[Torr]	Pt[Torr]	Ps[Abs,Torr]	Ts[C]	
  0.000	  0.000	 11.30623	  5.97113	  5.68471	  5.67269	  5.92842	  0.07308	 11.28635	707.49701	 26.70	
  1.691	128.401	 11.27185	  5.59593	  6.01370	  6.10878	  5.45180	  0.06992	 11.25508	707.47198	 26.70	
  1.692	 77.194	 11.27302	  6.07370	  5.52874	  6.22183	  5.34396	  0.06803	 11.25738	707.46503	 26.70	
  1.699	 26.182	 11.26619	  6.45219	  5.14202	  5.90971	  5.63208	  0.06197	 11.24875	707.41602	 26.70	
  1.699	-26.182	 11.28264	  6.45577	  5.15068	  5.40629	  6.14220	  0.05632	 11.26407	707.46899	 26.70	
  1.692	-77.194	 11.28438	  6.06682	  5.52889	  5.10664	  6.45174	  0.05831	 11.26617	707.47198	 26.70	
  1.691	-128.401	 11.27404	  5.58972	  6.00617	  5.21014	  6.34397	  0.06139	 11.25804	707.42603	 26.60	
  1.700	180.000	 11.27283	  5.38111	  6.23290	  5.66256	  5.89028	  0.06671	 11.25959	707.51202	 26.70	
  3.400	180.000	 11.25442	  4.77848	  6.79452	  5.61913	  5.85278	  0.04953	 11.25695	707.54498	 26.60	
  3.388	-152.325	 11.25785	  4.90484	  6.64753	  5.09420	  6.38946	  0.04298	 11.26094	707.53900	 26.70	
  3.397	-124.529	 11.25477	  5.23656	  6.27087	  4.69643	  6.79864	  0.03060	 11.25892	707.46198	 26.70	
  3.399	-96.763	 11.24211	  5.73636	  5.71640	  4.49277	  7.00417	  0.01798	 11.24780	707.49402	 26.70	
  3.394	-69.283	 11.24566	  6.27336	  5.18778	  4.53516	  6.94007	  0.00908	 11.25085	707.47699	 26.70	
  3.400	-41.398	 11.25617	  6.74839	  4.76097	  4.85337	  6.60785	  0.01903	 11.26023	707.45398	 26.70	
  3.401	-14.021	 11.26465	  7.03191	  4.52360	  5.32620	  6.11776	  0.03003	 11.26799	707.37299	 26.70	
  3.401	 14.021	 11.26591	  7.05115	  4.51586	  5.87924	  5.56587	  0.03760	 11.26593	707.45300	 26.70	
  3.400	 41.398	 11.26015	  6.79351	  4.75111	  6.38367	  5.09014	  0.03924	 11.26055	707.37799	 26.70	
  3.394	 69.283	 11.25924	  6.32897	  5.19493	  6.71323	  4.80254	  0.04520	 11.25519	707.43701	 26.70	
  3.399	 96.763	 11.25307	  5.78148	  5.73565	  6.77713	  4.73972	  0.03831	 11.24841	707.43402	 26.70	
  3.397	124.529	 11.24655	  5.28155	  6.24539	  6.58468	  4.91980	  0.04196	 11.24489	707.39203	 26.70	
  3.388	152.325	 11.25100	  4.92238	  6.64405	  6.16098	  5.32545	  0.04863	 11.24737	707.38898	 26.70	
  5.099	161.165	 11.20107	  4.24980	  7.22640	  6.11428	  5.21190	  0.00211	 11.24992	707.44598	 26.70	
  5.109	142.013	 11.21011	  4.49451	  6.95953	  6.64240	  4.72528	 -0.00050	 11.25899	707.48798	 26.70	
  5.095	123.033	 11.21504	  4.91215	  6.49264	  7.06250	  4.35630	 -0.00142	 11.25985	707.43201	 26.70	
  5.105	104.191	 11.21664	  5.41708	  5.94690	  7.30314	  4.14664	 -0.00552	 11.25744	707.46100	 26.70	
  5.093	 85.207	 11.20987	  5.98177	  5.37090	  7.33455	  4.09832	 -0.00613	 11.25095	707.42902	 26.70	
  5.104	 66.290	 11.23158	  6.55798	  4.83353	  7.19656	  4.23057	 -0.00536	 11.27404	707.44000	 26.70	
  5.094	 47.331	 11.21498	  7.03501	  4.37570	  6.84659	  4.50688	 -0.00501	 11.25951	707.42297	 26.70	
  5.089	 28.397	 11.23267	  7.41218	  4.04797	  6.36295	  4.95528	 -0.00940	 11.27795	707.37299	 26.60	
  5.096	  9.576	 11.20873	  7.58562	  3.86925	  5.79237	  5.46459	 -0.01373	 11.25569	707.46198	 26.60	
  5.096	 -9.576	 11.22461	  7.58510	  3.86955	  5.21908	  6.05323	 -0.02457	 11.27822	707.51300	 26.60	
  5.089	-28.397	 11.19048	  7.36826	  4.01861	  4.67906	  6.58205	 -0.03302	 11.24777	707.46100	 26.60	
  5.094	-47.331	 11.19852	  6.99718	  4.35121	  4.25053	  7.06428	 -0.03929	 11.26255	707.43103	 26.60	
  5.104	-66.290	 11.20021	  6.49656	  4.80740	  3.95927	  7.40452	 -0.04626	 11.26572	707.47803	 26.60	
  5.093	-85.207	 11.20734	  5.92731	  5.36825	  3.84534	  7.56452	 -0.04049	 11.27395	707.47302	 26.60	
  5.105	-104.191	 11.19684	  5.36985	  5.93710	  3.89653	  7.50117	 -0.03090	 11.26274	707.51202	 26.60	
  5.095	-123.033	 11.19396	  4.86025	  6.48049	  4.11307	  7.26122	 -0.01898	 11.25857	707.44000	 26.60	
  5.109	-142.013	 11.20416	  4.47656	  6.93393	  4.47409	  6.87632	 -0.01125	 11.26878	707.46100	 26.60	
  5.099	-161.165	 11.20012	  4.22689	  7.22993	  4.98580	  6.33031	 -0.00486	 11.25832	707.39203	 26.60	
  5.100	180.000	 11.19551	  4.15752	  7.32575	  5.53146	  5.77291	  0.00115	 11.25100	707.44000	 26.60	
  6.800	180.000	 11.09629	  3.49740	  7.85386	  5.44086	  5.65410	 -0.06476	 11.24832	707.47302	 26.60	
  6.796	-166.229	 11.11776	  3.55001	  7.79916	  4.89594	  6.22685	 -0.06970	 11.27378	707.48602	 26.60	
  6.808	-152.311	 11.10548	  3.70628	  7.58135	  4.36255	  6.77364	 -0.07702	 11.26839	707.41602	 26.60	
  6.795	-138.383	 11.10609	  3.99354	  7.23634	  3.91646	  7.25516	 -0.07781	 11.27088	707.50000	 26.60	
  6.792	-124.591	 11.08099	  4.35691	  6.77914	  3.55525	  7.63397	 -0.08546	 11.25138	707.45801	 26.70	
  6.787	-110.754	 11.10307	  4.84643	  6.25294	  3.31430	  7.92972	 -0.10058	 11.27301	707.46899	 26.70	
  6.800	-96.985	 11.10312	  5.36865	  5.69011	  3.17012	  8.08177	 -0.11425	 11.27835	707.49402	 26.70	
  6.800	-83.015	 11.08563	  5.92629	  5.10718	  3.14931	  8.06693	 -0.12374	 11.25726	707.46899	 26.60	
  6.787	-69.246	 11.11352	  6.50355	  4.58024	  3.28387	  7.92064	 -0.13071	 11.28336	707.47803	 26.60	
  6.792	-55.409	 11.10256	  7.01986	  4.08422	  3.50952	  7.63405	 -0.12846	 11.26931	707.40698	 26.60	
  6.795	-41.617	 11.11012	  7.46839	  3.69053	  3.85095	  7.24487	 -0.11479	 11.27446	707.43799	 26.60	
  6.808	-27.689	 11.11523	  7.82929	  3.38953	  4.28850	  6.75914	 -0.10394	 11.27707	707.41602	 26.60	
  6.796	-13.771	 11.13508	  8.05972	  3.21957	  4.83356	  6.20429	 -0.09766	 11.29202	707.36102	 26.60	
  6.800	  0.000	 11.10167	  8.11838	  3.14599	  5.37190	  5.62764	 -0.08807	 11.25421	707.54199	 26.60	
  6.796	 13.771	 11.11073	  8.06385	  3.21319	  5.94786	  5.07343	 -0.07921	 11.25943	707.44598	 26.60	
  6.808	 27.689	 11.11463	  7.86976	  3.39287	  6.50114	  4.56403	 -0.07870	 11.25862	707.61499	 26.60	
  6.795	 41.617	 11.13557	  7.54133	  3.70445	  7.02011	  4.12680	 -0.07121	 11.27353	707.58600	 26.60	
  6.792	 55.409	 11.13092	  7.10689	  4.10015	  7.41247	  3.79425	 -0.06347	 11.26429	707.53900	 26.60	
  6.787	 69.246	 11.13695	  6.59000	  4.59142	  7.70881	  3.56405	 -0.07390	 11.26800	707.46503	 26.60	
  6.800	 83.015	 11.12994	  6.03998	  5.11795	  7.85346	  3.45262	 -0.08056	 11.25663	707.51001	 26.60	
  6.800	 96.985	 11.12502	  5.46894	  5.69310	  7.85543	  3.46028	 -0.07339	 11.25012	707.49402	 26.60	
  6.787	110.754	 11.14712	  4.94427	  6.26528	  7.73636	  3.59684	 -0.07327	 11.27794	707.56598	 26.60	
  6.792	124.591	 11.11163	  4.44324	  6.77975	  7.44558	  3.81064	 -0.07254	 11.24976	707.46100	 26.60	
  6.795	138.383	 11.11255	  4.05738	  7.22307	  7.05103	  4.16034	 -0.06151	 11.25029	707.48901	 26.60	
  6.808	152.311	 11.11990	  3.75798	  7.58183	  6.57046	  4.60150	 -0.06019	 11.26411	707.45801	 26.60	
  6.796	166.229	 11.12613	  3.57191	  7.80655	  6.02426	  5.11654	 -0.06522	 11.27405	707.52899	 26.60	
  8.491	168.704	 10.96901	  2.86431	  8.31083	  5.90120	  4.95241	 -0.15061	 11.26057	707.49298	 26.60	
  8.502	157.493	 10.96933	  3.01735	  8.13444	  6.47449	  4.41555	 -0.14416	 11.25665	707.52802	 26.60	
  8.494	146.194	 10.98200	  3.26898	  7.84592	  7.01750	  3.93741	 -0.13606	 11.26681	707.48901	 26.60	
  8.495	135.039	 10.98644	  3.60312	  7.45940	  7.48513	  3.52954	 -0.14511	 11.26499	707.52600	 26.60	
  8.487	123.723	 10.99618	  4.01945	  6.98973	  7.87406	  3.19713	 -0.16278	 11.26644	707.52600	 26.60	
  8.492	112.575	 11.00103	  4.50649	  6.44768	  8.16660	  2.95455	 -0.17178	 11.26747	707.51300	 26.60	
  8.510	101.220	 11.01285	  5.05655	  5.86368	  8.35426	  2.79571	 -0.16736	 11.27740	707.45398	 26.60	
  8.500	 90.000	 11.01306	  5.61914	  5.28325	  8.40531	  2.73982	 -0.17175	 11.27554	707.48102	 26.60	
  8.510	 78.780	 11.02082	  6.20133	  4.71024	  8.33560	  2.78992	 -0.17031	 11.27877	707.52301	 26.60	
  8.492	 67.425	 11.00980	  6.76312	  4.15657	  8.13587	  2.93250	 -0.16003	 11.27012	707.52002	 26.60	
  8.487	 56.277	 10.99751	  7.27626	  3.67022	  7.82018	  3.16759	 -0.14301	 11.25806	707.51300	 26.50	
  8.495	 44.961	 10.99947	  7.73967	  3.24974	  7.42674	  3.49337	 -0.14671	 11.26595	707.49597	 26.50	
  8.494	 33.806	 11.00181	  8.12815	  2.91040	  6.96118	  3.88821	 -0.16011	 11.27532	707.57001	 26.50	
  8.502	 22.507	 10.99597	  8.41367	  2.65023	  6.40503	  4.38306	 -0.16410	 11.27520	707.46503	 26.50	
  8.491	 11.296	 10.99178	  8.57925	  2.49737	  5.82637	  4.92505	 -0.16138	 11.27566	707.53699	 26.50	
  8.500	  0.000	 10.98253	  8.62901	  2.43767	  5.23862	  5.48918	 -0.17242	 11.27463	707.54199	 26.50	
  8.491	-11.296	 10.98217	  8.56375	  2.49178	  4.63943	  6.08610	 -0.18245	 11.27814	707.38098	 26.50	
  8.502	-22.507	 10.95828	  8.35995	  2.63074	  4.09655	  6.63467	 -0.18810	 11.25796	707.52899	 26.50	
  8.494	-33.806	 10.96121	  8.05929	  2.87844	  3.61489	  7.16726	 -0.19375	 11.26433	707.42297	 26.50	
  8.495	-44.961	 10.95453	  7.66196	  3.21176	  3.19752	  7.63590	 -0.21117	 11.26180	707.49402	 26.50	
  8.487	-56.277	 10.95051	  7.18337	  3.63256	  2.86354	  8.03303	 -0.22453	 11.26254	707.49298	 26.50	
  8.492	-67.425	 10.95009	  6.65978	  4.11572	  2.61132	  8.33488	 -0.23297	 11.26799	707.50500	 26.50	
  8.510	-78.780	 10.92852	  6.07203	  4.65498	  2.45881	  8.50899	 -0.23119	 11.24814	707.46503	 26.50	
  8.500	-90.000	 10.94811	  5.49644	  5.24917	  2.44367	  8.57529	 -0.21711	 11.26731	707.41602	 26.50	
  8.510	-101.220	 10.94229	  4.93192	  5.82798	  2.48902	  8.52934	 -0.20449	 11.26856	707.46503	 26.50	
  8.492	-112.575	 10.93330	  4.39130	  6.40555	  2.65820	  8.33603	 -0.18452	 11.25369	707.45801	 26.50	
  8.487	-123.723	 10.94504	  3.92485	  6.94828	  2.91448	  8.05989	 -0.16097	 11.26788	707.50800	 26.50	
  8.495	-135.039	 10.95465	  3.52705	  7.42917	  3.26164	  7.68125	 -0.15507	 11.27388	707.48798	 26.50	
  8.494	-146.194	 10.95531	  3.20827	  7.82185	  3.68709	  7.20922	 -0.16161	 11.27026	707.53900	 26.50	
  8.502	-157.493	 10.97439	  2.96184	  8.14599	  4.19003	  6.68741	 -0.16119	 11.28935	707.53101	 26.50	
  8.491	-168.704	 10.95098	  2.83090	  8.30244	  4.72806	  6.10069	 -0.15145	 11.25602	707.44501	 26.50	
  8.500	180.000	 10.96325	  2.79366	  8.37737	  5.31787	  5.51305	 -0.14885	 11.26344	707.44800	 26.50	
 10.200	180.000	 10.76969	  2.07895	  8.84978	  5.15576	  5.34455	 -0.24484	 11.26125	707.46198	 26.50	
 10.191	-170.497	 10.79293	  2.12677	  8.80682	  4.57636	  5.95665	 -0.24451	 11.28854	707.45599	 26.50	
 10.210	-161.034	 10.76050	  2.21872	  8.64304	  3.99230	  6.53028	 -0.25670	 11.26822	707.48798	 26.50	
 10.194	-151.526	 10.76635	  2.42651	  8.38425	  3.48514	  7.08434	 -0.25380	 11.27335	707.45001	 26.50	
 10.190	-142.105	 10.75555	  2.69127	  8.03446	  3.01850	  7.58938	 -0.24542	 11.26871	707.48499	 26.50	
 10.215	-132.646	 10.75666	  3.03907	  7.60704	  2.60766	  8.05462	 -0.23605	 11.27582	707.45001	 26.50	
 10.203	-123.092	 10.75140	  3.45743	  7.10124	  2.26699	  8.43686	 -0.24636	 11.26994	707.48102	 26.40	
 10.192	-113.678	 10.74296	  3.92604	  6.55721	  2.01788	  8.71291	 -0.26725	 11.25949	707.41602	 26.40	
 10.208	-104.249	 10.75756	  4.46618	  5.97468	  1.84233	  8.92719	 -0.29065	 11.27107	707.37598	 26.40	
 10.210	-94.801	 10.75192	  5.01650	  5.38248	  1.74172	  9.02379	 -0.31041	 11.26547	707.49701	 26.40	
 10.210	-85.199	 10.75031	  5.59959	  4.78318	  1.72270	  9.02730	 -0.32393	 11.26311	707.42102	 26.40	
 10.208	-75.751	 10.76561	  6.20339	  4.20820	  1.81326	  8.91708	 -0.33131	 11.27268	707.53400	 26.40	
 10.192	-66.322	 10.76995	  6.77106	  3.67536	  1.97929	  8.70921	 -0.33434	 11.27455	707.45801	 26.50	
 10.203	-56.908	 10.76278	  7.30103	  3.18110	  2.20946	  8.40650	 -0.32568	 11.26572	707.48798	 26.40	
 10.215	-47.354	 10.77443	  7.81402	  2.73328	  2.53450	  8.02137	 -0.30865	 11.27379	707.40698	 26.40	
 10.190	-37.895	 10.79242	  8.24399	  2.38782	  2.93097	  7.57617	 -0.28904	 11.28412	707.51501	 26.40	
 10.194	-28.474	 10.78769	  8.58603	  2.11147	  3.39708	  7.04566	 -0.27374	 11.27166	707.52802	 26.40	
 10.210	-18.966	 10.79678	  8.85204	  1.90499	  3.90949	  6.49432	 -0.27191	 11.27821	707.44000	 26.40	
 10.191	 -9.503	 10.80337	  9.01730	  1.78209	  4.46053	  5.92302	 -0.27295	 11.28101	707.49298	 26.40	
 10.200	  0.000	 10.79464	  9.07058	  1.74263	  5.05034	  5.32287	 -0.26388	 11.26218	707.49298	 26.40	
 10.191	  9.503	 10.80858	  9.04138	  1.78409	  5.65619	  4.74404	 -0.25551	 11.27497	707.48102	 26.40	
 10.210	 18.966	 10.79392	  8.89203	  1.89650	  6.23889	  4.18022	 -0.25642	 11.25475	707.46100	 26.40	
 10.194	 28.474	 10.82449	  8.66635	  2.12246	  6.81718	  3.68136	 -0.25513	 11.27827	707.41302	 26.40	
 10.190	 37.895	 10.82877	  8.33817	  2.40792	  7.33315	  3.24059	 -0.24400	 11.27294	707.48602	 26.40	
 10.215	 47.354	 10.82555	  7.92475	  2.76300	  7.81148	  2.83231	 -0.22710	 11.26874	707.42102	 26.40	
 10.203	 56.908	 10.83720	  7.44494	  3.20637	  8.20710	  2.52264	 -0.22632	 11.27105	707.50000	 26.40	
 10.192	 66.322	 10.82742	  6.91059	  3.68829	  8.50818	  2.28549	 -0.24764	 11.25885	707.50201	 26.40	
 10.208	 75.751	 10.84583	  6.35774	  4.23536	  8.74745	  2.11799	 -0.26600	 11.27820	707.46997	 26.40	
 10.210	 85.199	 10.84706	  5.77443	  4.80509	  8.86475	  2.04032	 -0.27262	 11.28169	707.50800	 26.40	
 10.210	 94.801	 10.84014	  5.18005	  5.40027	  8.86917	  2.04994	 -0.27389	 11.27426	707.42297	 26.40	
 10.208	104.249	 10.83158	  4.60640	  5.99582	  8.77375	  2.13125	 -0.27428	 11.27265	707.47803	 26.40	
 10.192	113.678	 10.84169	  4.08737	  6.58289	  8.58483	  2.29858	 -0.27107	 11.28582	707.48102	 26.40	
 10.203	123.092	 10.82830	  3.58773	  7.12916	  8.29250	  2.54091	 -0.25934	 11.28373	707.55103	 26.40	
 10.215	132.646	 10.79828	  3.14766	  7.61318	  7.88059	  2.87036	 -0.23984	 11.25761	707.52002	 26.40	
 10.190	142.105	 10.80025	  2.79275	  8.04461	  7.42892	  3.25919	 -0.22423	 11.26528	707.47699	 26.40	
 10.194	151.526	 10.81399	  2.50394	  8.40225	  6.92279	  3.72223	 -0.22631	 11.28506	707.42902	 26.40	
 10.210	161.034	 10.80370	  2.28273	  8.65457	  6.35694	  4.22882	 -0.23824	 11.27917	707.53497	 26.40	
 10.191	170.497	 10.79333	  2.15690	  8.79653	  5.76495	  4.77583	 -0.24281	 11.26826	707.48102	 26.30	
 11.899	171.783	 10.55317	  1.43418	  9.24553	  5.57654	  4.57322	 -0.33937	 11.26974	707.48602	 26.30	
 11.890	163.610	 10.57303	  1.55807	  9.11751	  6.18460	  4.02268	 -0.32648	 11.28224	707.49597	 26.30	
 11.889	155.445	 10.58134	  1.73630	  8.90762	  6.76118	  3.50419	 -0.31878	 11.28724	707.52002	 26.30	
 11.909	147.299	 10.57465	  1.97626	  8.60194	  7.29965	  3.01527	 -0.31298	 11.27718	707.45801	 26.30	
 11.902	139.148	 10.59547	  2.29861	  8.22729	  7.81124	  2.59249	 -0.32023	 11.29089	707.46899	 26.30	
 11.894	130.867	 10.59850	  2.69272	  7.75555	  8.25981	  2.21526	 -0.33650	 11.28053	707.47803	 26.30	
 11.897	122.732	 10.60937	  3.12391	  7.25298	  8.63951	  1.90524	 -0.35409	 11.28489	707.55298	 26.30	
 11.903	114.597	 10.60912	  3.59868	  6.70832	  8.93563	  1.65142	 -0.36877	 11.27859	707.55298	 26.20	
 11.893	106.346	 10.61838	  4.14007	  6.11463	  9.14236	  1.49054	 -0.37873	 11.27340	707.52600	 26.20	
 11.892	 98.155	 10.64000	  4.71158	  5.52482	  9.26729	  1.40105	 -0.37765	 11.28198	707.47998	 26.20	
 11.900	 90.000	 10.65243	  5.29444	  4.92819	  9.32551	  1.34628	 -0.37743	 11.29650	707.48602	 26.20	
 11.892	 81.845	 10.65319	  5.88363	  4.34081	  9.27177	  1.37406	 -0.37256	 11.29905	707.39398	 26.20	
 11.893	 73.654	 10.63718	  6.46373	  3.76743	  9.09686	  1.48431	 -0.35191	 11.27473	707.46503	 26.20	
 11.903	 65.403	 10.64374	  7.03122	  3.23355	  8.88577	  1.64030	 -0.33353	 11.28816	707.42401	 26.20	
 11.897	 57.268	 10.62478	  7.55500	  2.74405	  8.55135	  1.88378	 -0.31349	 11.26991	707.51202	 26.20	
 11.894	 49.133	 10.63817	  8.05751	  2.30577	  8.17407	  2.19398	 -0.30853	 11.28876	707.43701	 26.10	
 11.902	 40.852	 10.61920	  8.48469	  1.92322	  7.69999	  2.56917	 -0.32154	 11.27520	707.51300	 26.10	
 11.909	 32.701	 10.62155	  8.85917	  1.61183	  7.19711	  2.98826	 -0.34090	 11.28724	707.51001	 26.10	
 11.889	 24.555	 10.61337	  9.13431	  1.37725	  6.64018	  3.47539	 -0.34906	 11.27838	707.50800	 26.10	
 11.890	 16.390	 10.59964	  9.33788	  1.19626	  6.06147	  3.98769	 -0.35109	 11.27530	707.42297	 26.10	
 11.899	  8.217	 10.57942	  9.45283	  1.08079	  5.44482	  4.54430	 -0.35081	 11.26189	707.42902	 26.10	
 11.900	  0.000	 10.58138	  9.49151	  1.04438	  4.84537	  5.12837	 -0.35599	 11.26938	707.45300	 26.20	
 11.899	 -8.217	 10.58311	  9.44066	  1.07792	  4.26153	  5.71749	 -0.36175	 11.28069	707.48102	 26.20	
 11.890	-16.390	 10.56627	  9.29261	  1.17788	  3.69231	  6.29753	 -0.36122	 11.26939	707.39203	 26.20	
 11.889	-24.555	 10.55304	  9.04818	  1.35418	  3.16299	  6.86616	 -0.36242	 11.26043	707.43402	 26.20	
 11.909	-32.701	 10.54368	  8.74524	  1.58349	  2.68138	  7.39534	 -0.36423	 11.25630	707.39203	 26.20	
 11.902	-40.852	 10.54884	  8.37444	  1.87829	  2.24731	  7.90692	 -0.37717	 11.27023	707.51501	 26.20	
 11.894	-49.133	 10.54115	  7.91383	  2.25607	  1.87288	  8.35253	 -0.39372	 11.26506	707.38397	 26.20	
 11.897	-57.268	 10.54554	  7.41194	  2.69850	  1.56580	  8.73641	 -0.41142	 11.27190	707.49402	 26.20	
 11.903	-65.403	 10.53095	  6.86909	  3.17179	  1.32593	  9.03294	 -0.41778	 11.26398	707.35901	 26.20	
 11.893	-73.654	 10.52408	  6.28578	  3.72150	  1.15829	  9.25054	 -0.42146	 11.25749	707.44000	 26.30	
 11.892	-81.845	 10.51966	  5.69290	  4.29184	  1.05602	  9.39108	 -0.41819	 11.25813	707.36700	 26.30	
 11.900	-90.000	 10.50432	  5.10498	  4.86212	  1.01493	  9.44296	 -0.41245	 11.24863	707.49298	 26.30	
 11.892	-98.155	 10.51738	  4.53601	  5.46861	  1.06459	  9.41032	 -0.39662	 11.26441	707.40198	 26.30	
 11.893	-106.346	 10.50208	  3.96745	  6.07190	  1.18583	  9.26180	 -0.37263	 11.25041	707.37201	 26.30	
 11.903	-114.597	 10.51601	  3.46088	  6.65730	  1.36644	  9.06434	 -0.34661	 11.26836	707.44501	 26.30	
 11.897	-122.732	 10.51219	  2.98774	  7.20363	  1.62230	  8.76667	 -0.32716	 11.26248	707.49298	 26.30	
 11.894	-130.867	 10.51273	  2.56878	  7.71371	  1.94850	  8.38873	 -0.32143	 11.26591	707.46399	 26.30	
 11.902	-139.148	 10.51952	  2.19843	  8.18040	  2.32522	  7.95771	 -0.32999	 11.27374	707.53497	 26.30	
 11.909	-147.299	 10.50254	  1.89473	  8.54952	  2.76311	  7.44871	 -0.34450	 11.25225	707.44598	 26.30	
 11.889	-155.445	 10.53759	  1.68099	  8.87158	  3.27899	  6.91790	 -0.35099	 11.27855	707.43201	 26.30	
 11.890	-163.610	 10.53020	  1.50017	  9.10090	  3.80286	  6.34464	 -0.35040	 11.27012	707.42603	 26.30	
 11.899	-171.783	 10.53725	  1.40458	  9.24249	  4.37083	  5.75318	 -0.34476	 11.26804	707.56097	 26.30	
 11.900	180.000	 10.55201	  1.39012	  9.28753	  4.97665	  5.16143	 -0.34252	 11.27091	707.48499	 26.30	
 13.600	180.000	 10.29912	  0.69048	  9.70440	  4.77072	  4.94419	 -0.42964	 11.29559	707.56097	 26.30	
 13.608	-172.853	 10.28046	  0.69893	  9.65567	  4.17087	  5.53506	 -0.43219	 11.28724	707.45801	 26.30	
 13.611	-165.583	 10.24230	  0.77090	  9.51651	  3.57825	  6.10752	 -0.44012	 11.26004	707.46100	 26.30	
 13.601	-158.353	 10.24004	  0.91728	  9.30724	  3.04242	  6.69253	 -0.44011	 11.25917	707.49298	 26.30	
 13.609	-151.210	 10.23630	  1.12078	  9.03147	  2.53453	  7.25448	 -0.43490	 11.26311	707.48602	 26.30	
 13.611	-143.999	 10.20131	  1.36216	  8.67045	  2.05624	  7.75459	 -0.42216	 11.23281	707.40802	 26.30	
 13.601	-136.825	 10.24460	  1.68609	  8.29086	  1.65071	  8.27278	 -0.40761	 11.28088	707.39398	 26.30	
 13.596	-129.640	 10.22238	  2.05973	  7.80306	  1.28612	  8.67800	 -0.39505	 11.25183	707.34497	 26.30	
 13.611	-122.431	 10.22158	  2.48224	  7.27969	  0.97699	  9.05113	 -0.39646	 11.25318	707.41602	 26.30	
 13.604	-115.211	 10.24382	  2.94848	  6.74753	  0.72658	  9.36575	 -0.41818	 11.27307	707.54303	 26.40	
 13.595	-108.042	 10.23580	  3.46080	  6.15290	  0.53047	  9.58590	 -0.43559	 11.25927	707.59399	 26.40	
 13.607	-100.793	 10.24053	  4.00195	  5.54975	  0.39184	  9.75442	 -0.45829	 11.26805	707.54199	 26.40	
 13.601	-93.617	 10.24910	  4.57599	  4.95795	  0.33550	  9.81622	 -0.46856	 11.26610	707.52899	 26.40	
 13.601	-86.383	 10.25747	  5.16756	  4.35819	  0.32621	  9.82048	 -0.47280	 11.27116	707.43799	 26.40	
 13.607	-79.207	 10.24083	  5.74101	  3.76897	  0.36599	  9.73191	 -0.46743	 11.25339	707.54700	 26.40	
 13.595	-71.958	 10.26935	  6.35400	  3.21942	  0.49251	  9.57596	 -0.47104	 11.27385	707.49402	 26.40	
 13.604	-64.789	 10.26667	  6.91780	  2.68892	  0.67250	  9.33585	 -0.46896	 11.26744	707.45599	 26.40	
 13.611	-57.569	 10.26483	  7.47240	  2.19765	  0.89836	  9.03245	 -0.46508	 11.26591	707.50800	 26.40	
 13.596	-50.360	 10.27324	  7.97686	  1.78138	  1.21863	  8.63954	 -0.45751	 11.25933	707.52100	 26.40	
 13.601	-43.175	 10.28844	  8.44103	  1.41368	  1.56497	  8.22401	 -0.44524	 11.26804	707.54199	 26.40	
 13.611	-36.001	 10.28964	  8.84966	  1.09235	  1.97281	  7.73829	 -0.43640	 11.26575	707.48102	 26.40	
 13.609	-28.790	 10.29193	  9.19184	  0.82504	  2.42477	  7.21291	 -0.42733	 11.26052	707.46198	 26.40	
 13.601	-21.647	 10.29706	  9.47082	  0.62044	  2.91724	  6.65947	 -0.43140	 11.26238	707.57703	 26.40	
 13.611	-14.417	 10.30747	  9.68616	  0.46078	  3.45407	  6.08357	 -0.43571	 11.27041	707.52802	 26.40	
 13.608	 -7.147	 10.32170	  9.81498	  0.37879	  4.02774	  5.49461	 -0.44144	 11.27253	707.52600	 26.40	
 13.600	  0.000	 10.29649	  9.83879	  0.34655	  4.59900	  4.89349	 -0.44613	 11.24352	707.53101	 26.40	
 13.608	  7.147	 10.32310	  9.84242	  0.36700	  5.20620	  4.31988	 -0.44749	 11.26975	707.51202	 26.40	
 13.611	 14.417	 10.32605	  9.74401	  0.44551	  5.81890	  3.74779	 -0.44475	 11.27283	707.51001	 26.40	
 13.601	 21.647	 10.32285	  9.54415	  0.60796	  6.40014	  3.21851	 -0.44689	 11.25483	707.58600	 26.40	
 13.609	 28.790	 10.34426	  9.29994	  0.82067	  6.98020	  2.72937	 -0.44484	 11.26801	707.54999	 26.40	
 13.611	 36.001	 10.34309	  8.95876	  1.10124	  7.51326	  2.27912	 -0.42907	 11.25511	707.52600	 26.40	
 13.601	 43.175	 10.35383	  8.58244	  1.41912	  8.01498	  1.87147	 -0.40667	 11.26282	707.51202	 26.40	
 13.596	 50.360	 10.34455	  8.12304	  1.80654	  8.44356	  1.52431	 -0.39180	 11.24567	707.58502	 26.40	
 13.611	 57.569	 10.37497	  7.64550	  2.24687	  8.85586	  1.22555	 -0.39862	 11.27516	707.59698	 26.40	
 13.604	 64.789	 10.37461	  7.10015	  2.73335	  9.17712	  0.99234	 -0.41486	 11.27143	707.50000	 26.40	
 13.595	 71.958	 10.36817	  6.53350	  3.24925	  9.41174	  0.82040	 -0.43634	 11.26187	707.52100	 26.40	
 13.607	 79.207	 10.36783	  5.95466	  3.80446	  9.58377	  0.70295	 -0.45535	 11.26013	707.55798	 26.40	
 13.601	 86.383	 10.37752	  5.37113	  4.38987	  9.68603	  0.64431	 -0.47235	 11.27439	707.55798	 26.40	
 13.601	 93.617	 10.38105	  4.78159	  4.99036	  9.70444	  0.65700	 -0.47574	 11.28195	707.53497	 26.40	
 13.607	100.793	 10.36700	  4.21248	  5.58424	  9.62635	  0.71346	 -0.47428	 11.27279	707.45801	 26.40	
 13.595	108.042	 10.35561	  3.64817	  6.19267	  9.47241	  0.83642	 -0.46880	 11.27052	707.54498	 26.40	
 13.604	115.211	 10.33496	  3.12696	  6.76032	  9.23369	  1.02135	 -0.45730	 11.25757	707.59100	 26.40	
 13.611	122.431	 10.31681	  2.64679	  7.30391	  8.93797	  1.24185	 -0.44440	 11.25263	707.50000	 26.40	
 13.596	129.640	 10.30307	  2.20061	  7.82585	  8.55669	  1.54812	 -0.42610	 11.25114	707.53400	 26.40	
 13.601	136.825	 10.29603	  1.81343	  8.29701	  8.13608	  1.89099	 -0.41113	 11.25777	707.42401	 26.40	
 13.611	143.999	 10.30975	  1.48157	  8.72367	  7.66570	  2.29866	 -0.40027	 11.28179	707.47803	 26.40	
 13.609	151.210	 10.28527	  1.20696	  9.04564	  7.11375	  2.75293	 -0.40312	 11.25585	707.55298	 26.40	
 13.601	158.353	 10.28346	  0.98327	  9.32799	  6.55536	  3.24226	 -0.41300	 11.26299	707.52600	 26.40	
 13.611	165.583	 10.26681	  0.81661	  9.52082	  5.95306	  3.77778	 -0.42087	 11.25432	707.52002	 26.40	
 13.608	172.853	 10.28302	  0.71829	  9.65124	  5.35349	  4.35818	 -0.43045	 11.27392	707.39203	 26.40	
 15.298	173.587	  9.97054	  0.02083	 10.01013	  5.12155	  4.10329	 -0.48868	 11.27857	707.46100	 26.40	
 15.291	167.167	  9.96723	  0.11455	  9.89812	  5.71583	  3.53385	 -0.48369	 11.26437	707.56097	 26.40	
 15.307	160.676	  9.97866	  0.24895	  9.73606	  6.31677	  2.99226	 -0.48021	 11.27516	707.55499	 26.40	
 15.300	154.261	  9.98316	  0.43907	  9.48846	  6.89761	  2.49011	 -0.47767	 11.27456	707.58600	 26.40	
 15.288	147.854	  9.97741	  0.69066	  9.16192	  7.43453	  2.02676	 -0.47150	 11.25716	707.58600	 26.40	
 15.293	141.428	 10.00683	  0.98633	  8.80573	  7.96888	  1.60099	 -0.47497	 11.27887	707.65503	 26.40	
 15.299	134.985	 10.01418	  1.33179	  8.37751	  8.43329	  1.22174	 -0.48687	 11.27409	707.56897	 26.40	
 15.305	128.583	 10.01072	  1.70609	  7.89918	  8.84817	  0.88736	 -0.49694	 11.26620	707.47998	 26.40	
 15.309	122.142	 10.02813	  2.14516	  7.37671	  9.22063	  0.59831	 -0.51041	 11.26954	707.53400	 26.40	
 15.304	115.711	 10.04392	  2.62707	  6.81766	  9.52694	  0.36605	 -0.51881	 11.27219	707.52600	 26.40	
 15.297	109.291	 10.05243	  3.12866	  6.24188	  9.76177	  0.18845	 -0.52568	 11.27051	707.56097	 26.40	
 15.293	102.897	 10.05285	  3.66366	  5.64571	  9.92843	  0.04244	 -0.52768	 11.26623	707.55298	 26.40	
 15.293	 96.458	 10.07712	  4.23598	  5.04481	 10.03538	 -0.02889	 -0.53094	 11.27946	707.59302	 26.40	
 15.300	 90.000	 10.08010	  4.81518	  4.45078	 10.04509	 -0.04563	 -0.53661	 11.26857	707.64801	 26.40	
 15.293	 83.542	 10.08167	  5.40805	  3.85080	 10.00852	 -0.03531	 -0.53410	 11.27322	707.56702	 26.40	
 15.293	 77.103	 10.06802	  5.98805	  3.27377	  9.87339	  0.04695	 -0.52441	 11.25214	707.54700	 26.40	
 15.297	 70.709	 10.07635	  6.56608	  2.74020	  9.69472	  0.16940	 -0.51016	 11.26079	707.51801	 26.40	
 15.304	 64.289	 10.07561	  7.13405	  2.22489	  9.43516	  0.35044	 -0.48598	 11.25738	707.60999	 26.40	
 15.309	 57.858	 10.07212	  7.67197	  1.75329	  9.11045	  0.58413	 -0.46394	 11.25369	707.64203	 26.40	
 15.305	 51.417	 10.07596	  8.17941	  1.32347	  8.73119	  0.87566	 -0.45984	 11.26103	707.62598	 26.40	
 15.299	 45.015	 10.07346	  8.63956	  0.94442	  8.30105	  1.20210	 -0.47006	 11.26458	707.60999	 26.40	
 15.293	 38.572	 10.05134	  9.03853	  0.60400	  7.80300	  1.58098	 -0.49087	 11.24987	707.58502	 26.40	
 15.288	 32.146	 10.04847	  9.39210	  0.31318	  7.28331	  2.00992	 -0.51306	 11.25552	707.65900	 26.40	
 15.300	 25.739	 10.04130	  9.68224	  0.08078	  6.72735	  2.47542	 -0.52065	 11.25336	707.63397	 26.40	
 15.307	 19.324	 10.04220	  9.92142	 -0.10861	  6.15655	  2.97420	 -0.52188	 11.27010	707.60699	 26.40	
 15.291	 12.833	 10.00721	 10.05054	 -0.22876	  5.52939	  3.51275	 -0.50961	 11.22938	707.62402	 26.50	
 15.298	  6.413	 10.02898	 10.16234	 -0.30412	  4.95838	  4.07958	 -0.51066	 11.26080	707.51300	 26.50	
 15.300	  0.000	 10.00570	 10.16693	 -0.32555	  4.36239	  4.63891	 -0.50052	 11.24187	707.54303	 26.50	
 15.298	 -6.413	 10.00775	 10.13410	 -0.30297	  3.77724	  5.23655	 -0.50363	 11.25381	707.58502	 26.50	
 15.291	-12.833	 10.00266	 10.02881	 -0.22951	  3.21092	  5.81897	 -0.49667	 11.25998	707.61298	 26.50	
 15.307	-19.324	  9.99163	  9.83870	 -0.09771	  2.67205	  6.39853	 -0.49427	 11.25458	707.56201	 26.50	
 15.300	-25.739	  9.99555	  9.60104	  0.07527	  2.16273	  6.97814	 -0.48993	 11.26802	707.61298	 26.60	
 15.288	-32.146	  9.97084	  9.26895	  0.31070	  1.69229	  7.50388	 -0.48391	 11.24410	707.63898	 26.60	
 15.293	-38.572	  9.96634	  8.89300	  0.59681	  1.27242	  8.00477	 -0.48035	 11.23903	707.63397	 26.60	
 15.299	-45.015	  9.98135	  8.47744	  0.92940	  0.88671	  8.49822	 -0.48349	 11.26298	707.60901	 26.60	
 15.305	-51.417	  9.96463	  8.00135	  1.29801	  0.54649	  8.91064	 -0.48351	 11.25523	707.54199	 26.60	
 15.309	-57.858	  9.95542	  7.48941	  1.71014	  0.25706	  9.27603	 -0.47871	 11.25522	707.60901	 26.60	
 15.304	-64.289	  9.94889	  6.94252	  2.17709	  0.03114	  9.57521	 -0.46459	 11.25347	707.55298	 26.60	
 15.297	-70.709	  9.93502	  6.36639	  2.67688	 -0.15114	  9.81762	 -0.46255	 11.24740	707.62402	 26.60	
 15.293	-77.103	  9.93250	  5.79237	  3.21695	 -0.28184	  9.99763	 -0.46376	 11.24905	707.66602	 26.60	
 15.293	-83.542	  9.92788	  5.19619	  3.79850	 -0.34152	 10.10219	 -0.47141	 11.24561	707.61298	 26.60	
 15.300	-90.000	  9.93128	  4.60425	  4.39585	 -0.36574	 10.15024	 -0.48033	 11.25461	707.70599	 26.60	
 15.293	-96.458	  9.93075	  4.04027	  4.99278	 -0.32723	 10.11644	 -0.49186	 11.25611	707.60199	 26.60	
 15.293	-102.897	  9.91399	  3.46411	  5.59425	 -0.24816	 10.01154	 -0.49384	 11.24918	707.59900	 26.60	
 15.297	-109.291	  9.91282	  2.94638	  6.18257	 -0.10527	  9.84151	 -0.47970	 11.24739	707.71802	 26.60	
 15.304	-115.711	  9.91135	  2.45474	  6.75105	  0.08083	  9.61699	 -0.46279	 11.25151	707.64001	 26.60	
 15.309	-122.142	  9.90573	  1.98384	  7.31126	  0.32036	  9.31986	 -0.45082	 11.25609	707.67902	 26.70	
 15.305	-128.583	  9.89058	  1.56058	  7.82709	  0.62175	  8.93795	 -0.44479	 11.23760	707.67401	 26.70	
 15.299	-134.985	  9.89933	  1.19435	  8.31305	  0.96378	  8.53070	 -0.45515	 11.24870	707.64697	 26.70	
 15.293	-141.428	  9.90689	  0.86454	  8.75296	  1.37123	  8.05937	 -0.47177	 11.25537	707.67999	 26.70	
 15.288	-147.854	  9.91954	  0.59300	  9.13951	  1.79999	  7.55993	 -0.48446	 11.26573	707.66699	 26.70	
 15.300	-154.261	  9.91753	  0.36873	  9.44802	  2.27150	  7.02075	 -0.48724	 11.26006	707.57703	 26.70	
 15.307	-160.676	  9.92286	  0.19965	  9.69214	  2.78779	  6.45358	 -0.48428	 11.25732	707.63397	 26.70	
 15.291	-167.167	  9.92915	  0.07607	  9.87150	  3.35138	  5.85458	 -0.48140	 11.25366	707.65900	 26.70	
 15.298	-173.587	  9.92819	  0.01308	  9.96888	  3.91856	  5.25987	 -0.47787	 11.24053	707.62097	 26.70	
 15.300	180.000	  9.92791	 -0.01085	 10.00533	  4.50608	  4.66562	 -0.48235	 11.23642	707.65601	 26.70	
 17.000	180.000	  9.59326	 -0.67596	 10.32288	  4.24379	  4.40006	 -0.49655	 11.24672	707.57501	 26.70	
 16.990	-174.179	  9.58304	 -0.66868	 10.28831	  3.65571	  4.98878	 -0.49035	 11.24669	707.60498	 26.70	
 17.009	-168.383	  9.55825	 -0.61559	 10.18130	  3.08142	  5.56454	 -0.48053	 11.23472	707.65002	 26.70	
 17.000	-162.596	  9.58395	 -0.51378	 10.05318	  2.54793	  6.16919	 -0.48463	 11.27359	707.63702	 26.70	
 16.990	-156.759	  9.55235	 -0.36132	  9.80348	  2.01824	  6.72455	 -0.49514	 11.24345	707.61499	 26.70	
 16.995	-150.919	  9.54248	 -0.17817	  9.52669	  1.53476	  7.27284	 -0.49814	 11.24785	707.59302	 26.70	
 16.988	-145.161	  9.54984	  0.07103	  9.18320	  1.08936	  7.80582	 -0.49971	 11.25113	707.60498	 26.70	
 17.014	-139.343	  9.54497	  0.34814	  8.79165	  0.65851	  8.31118	 -0.49648	 11.25603	707.55798	 26.70	
 17.007	-133.546	  9.54877	  0.67929	  8.34748	  0.29231	  8.77154	 -0.49574	 11.26010	707.52100	 26.70	
 17.001	-127.699	  9.53646	  1.05198	  7.84493	 -0.02925	  9.16573	 -0.48353	 11.24213	707.44501	 26.70	
 17.006	-121.937	  9.53788	  1.46256	  7.31812	 -0.31408	  9.52206	 -0.48009	 11.23950	707.59900	 26.70	
 17.002	-116.134	  9.55159	  1.93185	  6.76294	 -0.54854	  9.83046	 -0.48653	 11.24544	707.58301	 26.70	
 17.001	-110.310	  9.57222	  2.40819	  6.21148	 -0.72590	 10.07943	 -0.49439	 11.26258	707.54199	 26.70	
 16.988	-104.517	  9.57601	  2.92824	  5.61902	 -0.87400	 10.26131	 -0.49388	 11.25938	707.56097	 26.70	
 17.008	-98.662	  9.57698	  3.47945	  5.00818	 -0.98953	 10.39101	 -0.48085	 11.26046	707.54303	 26.70	
 16.996	-92.909	  9.58110	  4.03729	  4.41915	 -1.02404	 10.43310	 -0.47870	 11.25161	707.63397	 26.70	
 16.996	-87.091	  9.59699	  4.60858	  3.84495	 -1.02549	 10.43660	 -0.44836	 11.26153	707.65503	 26.60	
 17.012	-81.253	  9.58642	  5.19061	  3.24643	 -1.00256	 10.36406	 -0.43567	 11.25070	707.65198	 26.60	
 16.988	-75.483	  9.60870	  5.77654	  2.70753	 -0.90648	 10.24092	 -0.43334	 11.26065	707.61499	 26.60	
 17.001	-69.690	  9.59376	  6.35235	  2.16790	 -0.78269	 10.04022	 -0.43176	 11.24247	707.69897	 26.60	
 17.002	-63.866	  9.63162	  6.94577	  1.67777	 -0.60206	  9.82449	 -0.43934	 11.28133	707.65802	 26.60	
 17.006	-58.063	  9.62802	  7.48326	  1.22759	 -0.37372	  9.50410	 -0.45277	 11.26730	707.62097	 26.60	
 17.001	-52.301	  9.62844	  7.98821	  0.82143	 -0.10971	  9.14818	 -0.47244	 11.25964	707.61298	 26.60	
 17.007	-46.454	  9.63134	  8.47060	  0.44281	  0.21633	  8.72645	 -0.48528	 11.25284	707.65198	 26.60	
 17.014	-40.657	  9.62549	  8.90483	  0.10304	  0.57134	  8.26526	 -0.49650	 11.24072	707.60699	 26.60	
 16.988	-34.839	  9.63167	  9.29094	 -0.18205	  0.98181	  7.76786	 -0.50356	 11.23635	707.57703	 26.60	
 16.995	-29.081	  9.64545	  9.64085	 -0.43287	  1.41298	  7.25766	 -0.51725	 11.24962	707.65900	 26.60	
 16.990	-23.241	  9.64439	  9.91139	 -0.62137	  1.89815	  6.69283	 -0.52084	 11.23579	707.61700	 26.60	
 17.000	-17.404	  9.67021	 10.16097	 -0.78395	  2.41527	  6.12927	 -0.52958	 11.25953	707.67999	 26.60	
 17.009	-11.617	  9.67640	 10.32796	 -0.90412	  2.93704	  5.56441	 -0.53216	 11.26174	707.62402	 26.60	
 16.990	 -5.821	  9.69697	 10.44331	 -0.96847	  3.51281	  4.97901	 -0.52779	 11.27565	707.62903	 26.60	
 17.000	  0.000	  9.69832	 10.48010	 -0.98893	  4.09400	  4.39164	 -0.53089	 11.26989	707.65900	 26.60	
 16.990	  5.821	  9.69541	 10.45948	 -0.97531	  4.67629	  3.81228	 -0.53469	 11.26412	707.56897	 26.60	
 17.009	 11.617	  9.69263	 10.37398	 -0.91578	  5.26552	  3.25276	 -0.54108	 11.25543	707.61298	 26.60	
 17.000	 17.404	  9.70679	 10.24241	 -0.80703	  5.85456	  2.72259	 -0.55267	 11.26460	707.58600	 26.60	
 16.990	 23.241	  9.71920	 10.04348	 -0.65406	  6.43719	  2.22959	 -0.55975	 11.26648	707.66400	 26.60	
 16.995	 29.081	  9.73549	  9.78397	 -0.44052	  7.02171	  1.74074	 -0.56640	 11.27400	707.66699	 26.60	
 16.988	 34.839	  9.74069	  9.46768	 -0.19276	  7.55901	  1.30388	 -0.56250	 11.27153	707.57703	 26.60	
 17.014	 40.657	  9.74900	  9.10149	  0.09800	  8.07134	  0.89988	 -0.55079	 11.27363	707.67902	 26.60	
 17.007	 46.454	  9.74041	  8.66273	  0.44372	  8.52469	  0.54510	 -0.52953	 11.25431	707.62903	 26.60	
 17.001	 52.301	  9.75989	  8.20059	  0.83187	  8.97258	  0.22539	 -0.52528	 11.27178	707.56702	 26.60	
 17.006	 58.063	  9.76548	  7.70148	  1.25291	  9.35732	 -0.05810	 -0.52891	 11.27842	707.55298	 26.60	
 17.002	 63.866	  9.74005	  7.14517	  1.70890	  9.65304	 -0.28430	 -0.54191	 11.24618	707.70398	 26.60	
 17.001	 69.690	  9.74911	  6.59025	  2.20791	  9.91401	 -0.45243	 -0.55616	 11.24982	707.57001	 26.60	
 16.988	 75.483	  9.76113	  6.02633	  2.73699	 10.13032	 -0.58842	 -0.56047	 11.26911	707.55298	 26.60	
 17.012	 81.253	  9.75311	  5.44371	  3.28721	 10.26407	 -0.67843	 -0.56021	 11.26421	707.56702	 26.60	
 16.996	 87.091	  9.74745	  4.84509	  3.87110	 10.33505	 -0.72009	 -0.55207	 11.25994	707.60699	 26.60	
 16.996	 92.909	  9.73135	  4.26692	  4.44761	 10.34076	 -0.72367	 -0.54215	 11.25193	707.57703	 26.60	
 17.008	 98.662	  9.73959	  3.70533	  5.05475	 10.30734	 -0.67492	 -0.53439	 11.27014	707.62598	 26.60	
 16.988	104.517	  9.73147	  3.15694	  5.66041	 10.18841	 -0.58344	 -0.53626	 11.27330	707.62097	 26.60	
 17.001	110.310	  9.71883	  2.63120	  6.24569	 10.01437	 -0.45508	 -0.54060	 11.27293	707.60101	 26.60	
 17.002	116.134	  9.69517	  2.12668	  6.81124	  9.75961	 -0.26914	 -0.54260	 11.26011	707.54303	 26.60	
 17.006	121.937	  9.66708	  1.65084	  7.36214	  9.44710	 -0.04529	 -0.53927	 11.24643	707.52802	 26.60	
 17.001	127.699	  9.66306	  1.24049	  7.88018	  9.09304	  0.22542	 -0.53474	 11.24843	707.61499	 26.60	
 17.007	133.546	  9.64525	  0.84358	  8.36980	  8.67114	  0.54789	 -0.52727	 11.24142	707.57703	 26.60	
 17.014	139.343	  9.62946	  0.48994	  8.81347	  8.21674	  0.88965	 -0.52145	 11.24395	707.51202	 26.60	
 16.988	145.161	  9.62779	  0.19509	  9.20635	  7.72095	  1.29882	 -0.51697	 11.24840	707.44202	 26.60	
 16.995	150.919	  9.62023	 -0.05858	  9.54164	  7.18825	  1.73884	 -0.51395	 11.24495	707.52301	 26.60	
 16.990	156.759	  9.62709	 -0.27349	  9.83704	  6.62596	  2.23050	 -0.51330	 11.25675	707.49402	 26.60	
 17.000	162.596	  9.61250	 -0.45009	 10.05592	  6.04212	  2.72415	 -0.51601	 11.25396	707.51202	 26.60	
 17.009	168.383	  9.58819	 -0.58077	 10.19217	  5.43990	  3.25751	 -0.50923	 11.23461	707.45599	 26.60	
 16.990	174.179	  9.60230	 -0.63456	 10.28814	  4.84153	  3.83245	 -0.50062	 11.24446	707.55298	 26.60	
 18.709	174.675	  9.21365	 -1.31895	 10.57766	  4.55813	  3.52983	 -0.49172	 11.25856	707.65601	 26.60	
 18.703	169.441	  9.21186	 -1.24880	 10.48785	  5.15324	  2.96577	 -0.50392	 11.24989	707.54498	 26.60	
 18.691	164.085	  9.22592	 -1.13690	 10.35246	  5.74433	  2.44190	 -0.51753	 11.25368	707.51501	 26.60	
 18.706	158.818	  9.24351	 -0.99230	 10.17144	  6.34503	  1.92607	 -0.52740	 11.27453	707.53699	 26.50	
 18.695	153.537	  9.23771	 -0.80247	  9.90200	  6.90140	  1.45062	 -0.53331	 11.25534	707.55499	 26.50	
 18.704	148.255	  9.24436	 -0.58444	  9.59752	  7.44643	  1.01166	 -0.54374	 11.25752	707.54498	 26.50	
 18.698	142.952	  9.25208	 -0.31885	  9.24003	  7.95937	  0.59556	 -0.54314	 11.25555	707.55298	 26.50	
 18.699	137.625	  9.26744	 -0.00977	  8.83211	  8.45532	  0.21809	 -0.55151	 11.26590	707.53400	 26.50	
 18.705	132.343	  9.28735	  0.34820	  8.37704	  8.91433	 -0.12731	 -0.54209	 11.27242	707.65900	 26.50	
 18.713	127.067	  9.29136	  0.72495	  7.88111	  9.31448	 -0.43073	 -0.53570	 11.26632	707.56897	 26.50	
 18.700	121.794	  9.33842	  1.15561	  7.38219	  9.68143	 -0.66799	 -0.53511	 11.29269	707.52802	 26.50	
 18.698	116.504	  9.31120	  1.59713	  6.80681	  9.94276	 -0.88602	 -0.52698	 11.24803	707.58301	 26.50	
 18.707	111.165	  9.31807	  2.08759	  6.21459	 10.19652	 -1.07903	 -0.51542	 11.24899	707.46503	 26.50	
 18.690	105.863	  9.35109	  2.59992	  5.65441	 10.39535	 -1.20641	 -0.50763	 11.26361	707.51001	 26.50	
 18.696	100.583	  9.35853	  3.13308	  5.05539	 10.52000	 -1.29862	 -0.50964	 11.25631	707.65198	 26.50	
 18.700	 95.309	  9.36940	  3.69330	  4.46198	 10.60027	 -1.36839	 -0.51445	 11.26060	707.60498	 26.50	
 18.700	 90.000	  9.37295	  4.25487	  3.86863	 10.61339	 -1.39086	 -0.52203	 11.25503	707.60101	 26.50	
 18.700	 84.691	  9.38057	  4.83488	  3.29215	 10.58351	 -1.37974	 -0.55002	 11.26209	707.56897	 26.50	
 18.696	 79.417	  9.40288	  5.42828	  2.73325	 10.49924	 -1.31611	 -0.56084	 11.27664	707.57703	 26.50	
 18.690	 74.137	  9.38598	  5.98957	  2.19840	 10.32989	 -1.22193	 -0.57753	 11.25238	707.59698	 26.50	
 18.707	 68.835	  9.39913	  6.57292	  1.68718	 10.12619	 -1.08132	 -0.58615	 11.26354	707.61798	 26.50	
 18.698	 63.496	  9.40283	  7.13546	  1.19740	  9.86052	 -0.89283	 -0.58937	 11.26621	707.55902	 26.50	
 18.700	 58.206	  9.39609	  7.66041	  0.76055	  9.53246	 -0.67325	 -0.58399	 11.25570	707.57001	 26.50	
 18.713	 52.933	  9.40302	  8.18004	  0.34130	  9.16619	 -0.41418	 -0.58196	 11.26821	707.52301	 26.50	
 18.705	 47.657	  9.38392	  8.64304	 -0.04082	  8.73582	 -0.11170	 -0.58617	 11.25319	707.55103	 26.50	
 18.699	 42.375	  9.38616	  9.07689	 -0.37591	  8.28538	  0.22704	 -0.58281	 11.26185	707.59003	 26.50	
 18.698	 37.048	  9.38249	  9.46423	 -0.66989	  7.78701	  0.60853	 -0.58518	 11.26147	707.53497	 26.50	
 18.704	 31.745	  9.36392	  9.80274	 -0.93546	  7.24354	  1.02536	 -0.58117	 11.25110	707.62598	 26.50	
 18.695	 26.463	  9.37488	 10.11387	 -1.16025	  6.70747	  1.46876	 -0.57638	 11.27669	707.43402	 26.50	
 18.706	 21.182	  9.35124	 10.33895	 -1.34231	  6.10769	  1.95503	 -0.55781	 11.25900	707.51801	 26.50	
 18.691	 15.915	  9.33412	 10.50408	 -1.47390	  5.54349	  2.43633	 -0.54485	 11.25138	707.51501	 26.50	
 18.703	 10.559	  9.32806	 10.62931	 -1.56550	  4.94502	  2.98108	 -0.54246	 11.25189	707.56897	 26.50	
 18.709	  5.325	  9.30996	 10.68666	 -1.62313	  4.36646	  3.50722	 -0.53189	 11.24165	707.52802	 26.50	
 18.700	  0.000	  9.31096	 10.69679	 -1.62909	  3.79218	  4.08974	 -0.53013	 11.24192	707.54303	 26.50	
 18.709	 -5.325	  9.29751	 10.66908	 -1.62677	  3.20897	  4.65881	 -0.52922	 11.24418	707.63397	 26.50	
 18.703	-10.559	  9.28749	 10.56786	 -1.56038	  2.65960	  5.23208	 -0.53094	 11.23564	707.64203	 26.50	
 18.691	-15.915	  9.30803	 10.44508	 -1.46733	  2.13471	  5.83477	 -0.53225	 11.26819	707.60101	 26.50	
 18.706	-21.182	  9.28786	 10.23601	 -1.33806	  1.62164	  6.39004	 -0.52992	 11.25752	707.56598	 26.50	
 18.695	-26.463	  9.28911	  9.97742	 -1.15195	  1.14220	  6.95974	 -0.52855	 11.25961	707.64502	 26.60	
 18.704	-31.745	  9.27323	  9.66413	 -0.94712	  0.69045	  7.48770	 -0.51195	 11.25292	707.50403	 26.60	
 18.698	-37.048	  9.27202	  9.30274	 -0.68777	  0.27273	  8.00725	 -0.49314	 11.25564	707.58502	 26.60	
 18.699	-42.375	  9.27501	  8.89726	 -0.39291	 -0.10952	  8.49654	 -0.48346	 11.26901	707.47198	 26.50	
 18.705	-47.657	  9.25977	  8.44027	 -0.05427	 -0.45248	  8.93278	 -0.45958	 11.25677	707.59698	 26.50	
 18.713	-52.933	  9.25282	  7.95435	  0.31882	 -0.73811	  9.32569	 -0.43226	 11.25903	707.56598	 26.50	
 18.700	-58.206	  9.24929	  7.44047	  0.72664	 -0.99234	  9.67996	 -0.40405	 11.26152	707.60101	 26.50	
 18.698	-63.496	  9.23974	  6.90614	  1.15679	 -1.21377	  9.98076	 -0.38269	 11.26199	707.51001	 26.50	
 18.707	-68.835	  9.23392	  6.33168	  1.63063	 -1.39488	 10.24191	 -0.36296	 11.26744	707.59100	 26.50	
 18.690	-74.137	  9.22671	  5.75418	  2.14479	 -1.53318	 10.43802	 -0.36371	 11.26255	707.45398	 26.50	
 18.696	-79.417	  9.21711	  5.18279	  2.67161	 -1.63613	 10.58337	 -0.37352	 11.26340	707.62903	 26.50	
 18.700	-84.691	  9.19851	  4.59177	  3.23151	 -1.68276	 10.65878	 -0.38848	 11.24805	707.56201	 26.50	
 18.700	-90.000	  9.20284	  4.02595	  3.81667	 -1.69295	 10.70167	 -0.40684	 11.26063	707.56097	 26.50	
 18.700	-95.309	  9.19972	  3.46686	  4.41563	 -1.65145	 10.66207	 -0.42462	 11.25179	707.61798	 26.50	
 18.696	-100.583	  9.20619	  2.91522	  5.01551	 -1.59620	 10.60540	 -0.45185	 11.27106	707.59302	 26.50	
 18.690	-105.863	  9.19412	  2.39356	  5.60069	 -1.48116	 10.45681	 -0.46670	 11.26177	707.57001	 26.50	
 18.707	-111.165	  9.19036	  1.89746	  6.17424	 -1.35030	 10.28472	 -0.48630	 11.27094	707.62598	 26.50	
 18.698	-116.504	  9.16529	  1.40653	  6.74275	 -1.15951	 10.01397	 -0.49076	 11.24928	707.65002	 26.50	
 18.700	-121.794	  9.17115	  0.97036	  7.30558	 -0.93450	  9.72412	 -0.50521	 11.26154	707.58600	 26.50	
 18.713	-127.067	  9.16727	  0.56435	  7.82504	 -0.66481	  9.37231	 -0.50046	 11.26011	707.58502	 26.40	
 18.705	-132.343	  9.15416	  0.19168	  8.31616	 -0.36761	  8.97335	 -0.49761	 11.25698	707.59003	 26.50	
 18.699	-137.625	  9.16156	 -0.13296	  8.77634	 -0.00876	  8.52652	 -0.49580	 11.25805	707.61700	 26.40	
 18.698	-142.952	  9.17780	 -0.42797	  9.20356	  0.38271	  8.05562	 -0.48966	 11.27390	707.61499	 26.50	
 18.704	-148.255	  9.17943	 -0.68700	  9.57644	  0.81245	  7.53277	 -0.47884	 11.27566	707.63098	 26.40	
 18.695	-153.537	  9.17439	 -0.89003	  9.86859	  1.26058	  6.99962	 -0.46713	 11.26129	707.56201	 26.40	
 18.706	-158.818	  9.18443	 -1.06688	 10.14444	  1.75232	  6.44024	 -0.45575	 11.27346	707.65900	 26.40	
 18.691	-164.085	  9.20609	 -1.18887	 10.35543	  2.28018	  5.86767	 -0.45228	 11.28297	707.67401	 26.40	
 18.703	-169.441	  9.20136	 -1.28812	 10.49630	  2.82391	  5.27233	 -0.45191	 11.27400	707.64001	 26.40	
 18.709	-174.675	  9.20092	 -1.34428	 10.58236	  3.38447	  4.67629	 -0.46068	 11.26631	707.62402	 26.40	
 18.700	180.000	  9.22186	 -1.35179	 10.61997	  3.97738	  4.10114	 -0.47201	 11.27566	707.64502	 26.40	
 20.400	180.000	  8.77590	 -1.98439	 10.81234	  3.65862	  3.78091	 -0.43852	 11.24597	707.69397	 26.40	
 20.401	-175.153	  8.78841	 -1.98469	 10.81644	  3.10289	  4.35212	 -0.42488	 11.27957	707.68701	 26.40	
 20.407	-170.264	  8.77768	 -1.93750	 10.73102	  2.53673	  4.93922	 -0.41744	 11.27394	707.59100	 26.40	
 20.410	-165.423	  8.76744	 -1.85928	 10.60076	  1.99324	  5.51387	 -0.42259	 11.27326	707.68298	 26.40	
 20.392	-160.496	  8.76320	 -1.74240	 10.41739	  1.47024	  6.09718	 -0.40772	 11.27680	707.63397	 26.30	
 20.401	-155.705	  8.74576	 -1.59746	 10.17560	  0.98555	  6.64583	 -0.41132	 11.26521	707.61298	 26.40	
 20.405	-150.835	  8.74535	 -1.41581	  9.89363	  0.52168	  7.20547	 -0.42702	 11.27223	707.65503	 26.40	
 20.397	-145.903	  8.73282	 -1.17896	  9.53202	  0.08547	  7.72465	 -0.44384	 11.25205	707.65601	 26.40	
 20.392	-141.062	  8.75074	 -0.93166	  9.17315	 -0.30713	  8.24878	 -0.46904	 11.28238	707.63202	 26.30	
 20.396	-136.227	  8.75252	 -0.63536	  8.75190	 -0.66674	  8.71283	 -0.48834	 11.28238	707.59302	 26.40	
 20.408	-131.372	  8.75432	 -0.30667	  8.28864	 -1.00086	  9.14857	 -0.50189	 11.28477	707.66400	 26.30	
 20.410	-126.511	  8.75021	  0.04657	  7.79155	 -1.28813	  9.53309	 -0.50539	 11.27965	707.61298	 26.30	
 20.400	-121.604	  8.76701	  0.45285	  7.26330	 -1.54477	  9.89627	 -0.49359	 11.28964	707.67401	 26.30	
 20.403	-116.741	  8.75931	  0.87520	  6.70958	 -1.75695	 10.17795	 -0.47769	 11.27315	707.69598	 26.30	
 20.413	-111.900	  8.77127	  1.33743	  6.14817	 -1.93727	 10.42911	 -0.46213	 11.27723	707.64502	 26.30	
 20.398	-107.004	  8.77394	  1.83556	  5.56198	 -2.07267	 10.61441	 -0.44964	 11.26298	707.65900	 26.30	
 20.394	-102.132	  8.78960	  2.34623	  4.98627	 -2.17698	 10.75909	 -0.43121	 11.26726	707.55103	 26.30	
 20.403	-97.332	  8.78976	  2.86461	  4.39845	 -2.26663	 10.85938	 -0.40050	 11.26740	707.68298	 26.30	
 20.392	-92.440	  8.79744	  3.41119	  3.81739	 -2.29668	 10.89642	 -0.37836	 11.26433	707.63098	 26.30	
 20.392	-87.560	  8.79411	  3.96925	  3.22509	 -2.30283	 10.88686	 -0.36264	 11.25441	707.55902	 26.30	
 20.403	-82.668	  8.79718	  4.55536	  2.63590	 -2.29168	 10.84160	 -0.34726	 11.25769	707.71997	 26.30	
 20.394	-77.868	  8.81598	  5.12735	  2.10035	 -2.23277	 10.75239	 -0.33094	 11.27457	707.63397	 26.30	
 20.398	-72.996	  8.82382	  5.70138	  1.58801	 -2.12101	 10.59011	 -0.32740	 11.26850	707.60498	 26.30	
 20.413	-68.100	  8.81336	  6.26495	  1.09214	 -1.98717	 10.37332	 -0.32633	 11.25496	707.57397	 26.30	
 20.403	-63.259	  8.84514	  6.82912	  0.64846	 -1.83384	 10.15665	 -0.34024	 11.28399	707.67999	 26.30	
 20.400	-58.396	  8.83341	  7.35044	  0.22699	 -1.61588	  9.83150	 -0.36063	 11.25657	707.59003	 26.30	
 20.410	-53.489	  8.84247	  7.88186	 -0.18460	 -1.36944	  9.48095	 -0.37985	 11.25853	707.58502	 26.30	
 20.408	-48.628	  8.84917	  8.37056	 -0.55049	 -1.08814	  9.08466	 -0.41190	 11.25565	707.59399	 26.30	
 20.396	-43.773	  8.86199	  8.82625	 -0.88022	 -0.77152	  8.66817	 -0.44527	 11.26137	707.45398	 26.30	
 20.392	-38.938	  8.88995	  9.26685	 -1.17451	 -0.41592	  8.21672	 -0.46464	 11.28386	707.51801	 26.30	
 20.397	-34.097	  8.87829	  9.62789	 -1.43623	 -0.03093	  7.70616	 -0.48341	 11.26390	707.42902	 26.30	
 20.405	-29.165	  8.88583	  9.97066	 -1.66611	  0.39813	  7.17418	 -0.49268	 11.26450	707.50500	 26.30	
 20.401	-24.295	  8.88493	 10.25058	 -1.85423	  0.84416	  6.63183	 -0.50893	 11.25837	707.55902	 26.30	
 20.392	-19.504	  8.92015	 10.50608	 -1.99958	  1.33131	  6.09170	 -0.51488	 11.28868	707.55798	 26.30	
 20.410	-14.577	  8.90608	 10.66826	 -2.11034	  1.83158	  5.50614	 -0.50059	 11.26115	707.58197	 26.30	
 20.407	 -9.736	  8.92703	 10.82264	 -2.21077	  2.36475	  4.94019	 -0.50436	 11.28515	707.47803	 26.30	
 20.401	 -4.847	  8.93197	 10.90022	 -2.24941	  2.90513	  4.36906	 -0.50278	 11.27995	707.59302	 26.30	
 20.400	  0.000	  8.94297	 10.93780	 -2.26432	  3.47671	  3.79812	 -0.50453	 11.28353	707.56897	 26.30	
 20.401	  4.847	  8.94410	 10.91807	 -2.24646	  4.04806	  3.23440	 -0.50049	 11.27445	707.63098	 26.30	
 20.407	  9.736	  8.93167	 10.85523	 -2.20942	  4.60800	  2.68309	 -0.51132	 11.26208	707.60199	 26.30	
 20.410	 14.577	  8.95872	 10.76580	 -2.13102	  5.20369	  2.16166	 -0.50412	 11.28620	707.62299	 26.30	
 20.392	 19.504	  8.95277	 10.58797	 -2.01208	  5.77815	  1.65366	 -0.51063	 11.26853	707.54498	 26.30	
 20.401	 24.295	  8.96317	 10.38254	 -1.86537	  6.34005	  1.19074	 -0.52273	 11.26781	707.68201	 26.30	
 20.405	 29.165	  8.97542	 10.12513	 -1.67564	  6.90706	  0.73568	 -0.54715	 11.27336	707.58600	 26.30	
 20.397	 34.097	  8.98216	  9.79849	 -1.43350	  7.44855	  0.32282	 -0.56706	 11.26091	707.66302	 26.30	
 20.392	 38.938	  9.00760	  9.45374	 -1.16251	  7.98636	 -0.06322	 -0.58682	 11.28078	707.52802	 26.30	
 20.396	 43.773	  8.99461	  9.04135	 -0.86822	  8.45362	 -0.42653	 -0.60114	 11.26284	707.58197	 26.30	
 20.408	 48.628	  9.00432	  8.61199	 -0.53454	  8.90703	 -0.74548	 -0.61365	 11.26917	707.56201	 26.20	
 20.410	 53.489	  9.02954	  8.14913	 -0.16130	  9.33245	 -1.02906	 -0.61413	 11.28779	707.54199	 26.30	
 20.400	 58.396	  9.01792	  7.62450	  0.25175	  9.68890	 -1.27937	 -0.60719	 11.26801	707.60199	 26.20	
 20.403	 63.259	  9.02733	  7.10629	  0.68262	 10.01092	 -1.49177	 -0.59858	 11.27416	707.65802	 26.20	
 20.413	 68.100	  9.01450	  6.54496	  1.14131	 10.28371	 -1.68136	 -0.58867	 11.27247	707.62402	 26.20	
 20.398	 72.996	  9.01409	  5.97477	  1.64583	 10.49648	 -1.81160	 -0.55989	 11.26751	707.57501	 26.20	
 20.394	 77.868	  8.99823	  5.39354	  2.15965	 10.65226	 -1.91661	 -0.53446	 11.25959	707.56097	 26.20	
 20.403	 82.668	  9.00225	  4.83183	  2.69501	 10.77651	 -1.99190	 -0.51186	 11.27338	707.57397	 26.20	
 20.392	 87.560	  9.00118	  4.25619	  3.26903	 10.83336	 -2.01502	 -0.48202	 11.27120	707.64203	 26.20	
 20.392	 92.440	  9.00310	  3.69541	  3.84870	 10.85725	 -2.01662	 -0.46501	 11.28191	707.65601	 26.30	
 20.403	 97.332	  8.97530	  3.12002	  4.43368	 10.80831	 -1.98431	 -0.46088	 11.27062	707.54199	 26.30	
 20.394	102.132	  8.95906	  2.58864	  5.00648	 10.71799	 -1.92074	 -0.45989	 11.26998	707.56598	 26.20	
 20.398	107.004	  8.95658	  2.07669	  5.59845	 10.58124	 -1.81295	 -0.46115	 11.27720	707.57800	 26.30	
 20.413	111.900	  8.94713	  1.57235	  6.18785	 10.39756	 -1.68228	 -0.47475	 11.28631	707.64502	 26.20	
 20.403	116.741	  8.93218	  1.10760	  6.75428	 10.14432	 -1.50137	 -0.49447	 11.28377	707.53400	 26.20	
 20.400	121.604	  8.89826	  0.65932	  7.29203	  9.82662	 -1.29382	 -0.49561	 11.26176	707.63397	 26.20	
 20.410	126.511	  8.88617	  0.24367	  7.82322	  9.47727	 -1.04007	 -0.52161	 11.26454	707.58197	 26.20	
 20.408	131.372	  8.87414	 -0.14429	  8.32790	  9.08934	 -0.76947	 -0.53359	 11.27314	707.56201	 26.20	
 20.396	136.227	  8.85279	 -0.48583	  8.78147	  8.64617	 -0.45209	 -0.54213	 11.25854	707.61700	 26.20	
 20.392	141.062	  8.85869	 -0.78182	  9.21002	  8.18048	 -0.09039	 -0.54985	 11.26819	707.55499	 26.20	
 20.397	145.903	  8.84996	 -1.06513	  9.59374	  7.69027	  0.27983	 -0.54057	 11.28009	707.62097	 26.20	
 20.405	150.835	  8.84477	 -1.30269	  9.93152	  7.14910	  0.71574	 -0.53302	 11.27839	707.58600	 26.20	
 20.401	155.705	  8.83977	 -1.50136	 10.21800	  6.58936	  1.16819	 -0.51328	 11.27931	707.59003	 26.20	
 20.392	160.496	  8.82847	 -1.66831	 10.44223	  6.02116	  1.64202	 -0.49557	 11.27649	707.62598	 26.20	
 20.410	165.423	  8.82742	 -1.80652	 10.63207	  5.44060	  2.15013	 -0.48270	 11.28621	707.58600	 26.10	
 20.407	170.264	  8.80393	 -1.89580	 10.73587	  4.84237	  2.66921	 -0.46523	 11.26394	707.57001	 26.10	
 20.401	175.153	  8.79148	 -1.96205	 10.80758	  4.24612	  3.21626	 -0.45132	 11.26265	707.59698	 26.10	
  0.141	 45.000	 11.30655	  6.00087	  5.65575	  5.72602	  5.88314	  0.07196	 11.28313	707.60199	 26.10	
  4.001	128.691	 11.27847	  5.08418	  6.45246	  6.70684	  4.80252	  0.02769	 11.28753	707.57800	 26.10	
  4.002	 76.995	 11.27294	  6.21827	  5.28211	  6.95985	  4.54881	  0.02434	 11.27885	707.63397	 26.10	
  4.002	 25.892	 11.25640	  7.14412	  4.39280	  6.17888	  5.23683	  0.02627	 11.26602	707.47198	 26.10	
  4.002	-25.892	 11.25495	  7.12110	  4.39099	  4.99045	  6.41519	  0.00543	 11.27094	707.61499	 26.10	
  4.002	-76.995	 11.26683	  6.16440	  5.27331	  4.28823	  7.19843	 -0.00215	 11.28802	707.62097	 26.10	
  4.001	-128.691	 11.28055	  5.04581	  6.46234	  4.57294	  6.92292	  0.01836	 11.29974	707.49402	 26.00	
  4.000	180.000	 11.27094	  4.57738	  7.01055	  5.61080	  5.84214	  0.03741	 11.28652	707.60699	 26.00	
  8.000	180.000	 11.04346	  3.01488	  8.24920	  5.37137	  5.57766	 -0.12186	 11.29548	707.60999	 26.00	
  7.991	-152.370	 11.04239	  3.25902	  7.91550	  4.08749	  6.90238	 -0.13893	 11.30783	707.66400	 26.00	
  7.997	-124.550	 11.01151	  4.03858	  6.93934	  3.11749	  7.94336	 -0.14012	 11.28407	707.54303	 26.00	
  8.006	-96.837	 11.01710	  5.22007	  5.64595	  2.66413	  8.44666	 -0.18181	 11.29201	707.51801	 25.90	
  7.988	-69.228	 11.01351	  6.55167	  4.32242	  2.79503	  8.24854	 -0.19888	 11.28219	707.58600	 25.90	
  7.997	-41.563	 11.00004	  7.69161	  3.26891	  3.46595	  7.43272	 -0.17675	 11.26205	707.47302	 25.90	
  8.008	-13.821	 11.03627	  8.40244	  2.71373	  4.60609	  6.22224	 -0.16253	 11.28974	707.47803	 25.90	
  8.008	 13.821	 11.05157	  8.42891	  2.72912	  5.96578	  4.88716	 -0.13770	 11.29079	707.63702	 25.90	
  7.997	 41.563	 11.05270	  7.79021	  3.29770	  7.20999	  3.76865	 -0.12747	 11.27788	707.52899	 26.00	
  7.988	 69.228	 11.06936	  6.66729	  4.35021	  8.04879	  3.10149	 -0.13783	 11.28768	707.58197	 26.00	
  8.006	 96.837	 11.07454	  5.34928	  5.65903	  8.25686	  2.97918	 -0.13975	 11.29349	707.61798	 26.00	
  7.997	124.550	 11.04917	  4.14255	  6.95105	  7.74570	  3.40410	 -0.13325	 11.27434	707.56097	 26.00	
  7.991	152.370	 11.04679	  3.32982	  7.89895	  6.69558	  4.32703	 -0.11762	 11.28327	707.54303	 26.00	
 12.009	161.059	 10.56799	  1.56047	  9.09057	  6.36743	  3.83946	 -0.33339	 11.28997	707.55798	 26.00	
 12.013	142.081	 10.56262	  2.13472	  8.38332	  7.64489	  2.68901	 -0.31930	 11.28046	707.55103	 26.00	
 12.006	123.113	 10.59622	  3.07655	  7.28421	  8.64571	  1.87822	 -0.35955	 11.28585	707.52600	 26.00	
 12.007	104.200	 10.61807	  4.26683	  5.96044	  9.22261	  1.41206	 -0.38310	 11.28874	707.51001	 26.00	
 11.989	 85.301	 10.62552	  5.61976	  4.57339	  9.30302	  1.31686	 -0.37937	 11.27670	707.55298	 26.00	
 12.013	 66.294	 10.62480	  6.97269	  3.25860	  8.92613	  1.58778	 -0.34147	 11.28134	707.49298	 26.00	
 12.012	 47.388	 10.61722	  8.16659	  2.18528	  8.09410	  2.22231	 -0.31519	 11.28463	707.60901	 26.00	
 11.990	 28.440	 10.61713	  9.03725	  1.44690	  6.92332	  3.21922	 -0.35589	 11.29638	707.60901	 26.00	
 11.991	  9.464	 10.60095	  9.48828	  1.05913	  5.54989	  4.45352	 -0.35249	 11.29775	707.60901	 26.00	
 11.991	 -9.464	 10.57785	  9.45164	  1.05380	  4.15713	  5.81218	 -0.36045	 11.28833	707.57800	 25.90	
 11.990	-28.440	 10.56549	  8.95304	  1.42646	  2.91933	  7.14213	 -0.36334	 11.28931	707.63702	 25.90	
 12.012	-47.388	 10.54115	  8.04050	  2.13322	  1.90270	  8.29707	 -0.39906	 11.28388	707.66602	 25.90	
 12.013	-66.294	 10.54782	  6.82369	  3.21731	  1.25062	  9.12115	 -0.42202	 11.30107	707.65503	 25.90	
 11.989	-85.301	 10.52550	  5.44888	  4.52364	  0.99876	  9.46489	 -0.41944	 11.27988	707.56897	 25.90	
 12.007	-104.200	 10.52350	  4.10622	  5.92333	  1.09380	  9.37415	 -0.38387	 11.29297	707.60498	 25.90	
 12.006	-123.113	 10.52003	  2.94213	  7.25328	  1.59940	  8.78730	 -0.33029	 11.29064	707.57397	 25.90	
 12.013	-142.081	 10.52808	  2.04680	  8.35995	  2.45439	  7.81125	 -0.34486	 11.29896	707.57397	 25.90	
 12.009	-161.059	 10.54608	  1.51285	  9.08311	  3.61149	  6.55054	 -0.36024	 11.30293	707.51300	 25.90	
 16.000	180.000	  9.84786	 -0.29555	 10.20162	  4.42837	  4.58289	 -0.49413	 11.30655	707.48102	 25.90	
 15.990	-165.604	  9.81147	 -0.18297	  9.99129	  3.06243	  5.95933	 -0.48992	 11.28841	707.49701	 25.90	
 16.002	-151.165	  9.80364	  0.18869	  9.44818	  1.83391	  7.31016	 -0.49534	 11.30293	707.51801	 25.90	
 16.002	-136.836	  9.80686	  0.83868	  8.56662	  0.83709	  8.48945	 -0.47785	 11.31005	707.47998	 25.80	
 15.995	-122.439	  9.79889	  1.74513	  7.38775	  0.08104	  9.41927	 -0.46404	 11.29279	707.60699	 25.80	
 15.993	-107.966	  9.81747	  2.87795	  6.05701	 -0.40609	 10.04122	 -0.48848	 11.29851	707.51202	 25.80	
 16.005	-93.629	  9.82364	  4.16199	  4.65715	 -0.64499	 10.30772	 -0.48069	 11.29520	707.57501	 25.80	
 15.992	-79.234	  9.83009	  5.52674	  3.28173	 -0.58345	 10.19612	 -0.44765	 11.28703	707.53497	 25.80	
 16.009	-64.774	  9.83899	  6.88735	  2.03084	 -0.26933	  9.74460	 -0.45081	 11.28822	707.48798	 25.80	
 15.997	-50.364	  9.86090	  8.13808	  1.01461	  0.34741	  8.94575	 -0.47885	 11.28952	707.55298	 25.80	
 15.997	-36.045	  9.87414	  9.15939	  0.22184	  1.21240	  7.87890	 -0.49358	 11.29018	707.46997	 25.80	
 16.000	-21.597	  9.90356	  9.90464	 -0.30737	  2.30652	  6.62156	 -0.51008	 11.30625	707.46503	 25.80	
 16.003	 -7.169	  9.89973	 10.25917	 -0.56114	  3.58443	  5.23510	 -0.51579	 11.27575	707.52802	 25.80	
 16.003	  7.169	  9.91069	 10.29865	 -0.57608	  4.94852	  3.88214	 -0.51946	 11.27885	707.55798	 25.80	
 16.000	 21.597	  9.94107	  9.99345	 -0.32830	  6.33496	  2.63477	 -0.53877	 11.29671	707.57397	 25.80	
 15.997	 36.045	  9.95424	  9.30476	  0.21974	  7.65255	  1.53302	 -0.52828	 11.29246	707.46503	 25.80	
 15.997	 50.364	  9.97255	  8.33301	  1.02371	  8.75608	  0.67942	 -0.48645	 11.29181	707.47699	 25.80	
 16.009	 64.774	  9.96559	  7.10566	  2.06223	  9.59008	  0.05778	 -0.50833	 11.28521	707.42902	 25.80	
 15.992	 79.234	  9.98871	  5.77250	  3.32163	 10.07971	 -0.24710	 -0.54563	 11.29962	707.46100	 25.80	
 16.005	 93.629	  9.97535	  4.39419	  4.69149	 10.20870	 -0.32691	 -0.54328	 11.30365	707.46100	 25.80	
 15.993	107.966	  9.95123	  3.09284	  6.08545	  9.95484	 -0.11885	 -0.53677	 11.30405	707.54303	 25.80	
 15.995	122.439	  9.91817	  1.93320	  7.42336	  9.33064	  0.34942	 -0.52519	 11.29618	707.58197	 25.80	
 16.002	136.836	  9.89105	  0.99548	  8.57557	  8.38214	  1.08937	 -0.49965	 11.28883	707.55798	 25.80	
 16.002	151.165	  9.85808	  0.29622	  9.45422	  7.17965	  2.06385	 -0.48734	 11.28319	707.49298	 25.80	
 15.990	165.604	  9.86007	 -0.13195	 10.01661	  5.83855	  3.24788	 -0.49950	 11.30267	707.56201	 25.80	
 20.003	168.362	  8.93379	 -1.72173	 10.67390	  5.13437	  2.57157	 -0.48057	 11.29433	707.52301	 25.80	
 20.008	156.764	  8.93366	 -1.41173	 10.23845	  6.49618	  1.36563	 -0.51669	 11.28652	707.56598	 25.80	
 20.000	145.147	  8.98560	 -0.88459	  9.54614	  7.79133	  0.35760	 -0.54649	 11.31516	707.55103	 25.70	
 19.995	133.545	  9.00117	 -0.17009	  8.55820	  8.91159	 -0.49014	 -0.54895	 11.30964	707.57001	 25.70	
 20.009	121.926	  9.03627	  0.75008	  7.37330	  9.81241	 -1.13880	 -0.50990	 11.31214	707.68799	 25.70	
 20.005	110.327	  9.05381	  1.83259	  6.04976	 10.42114	 -1.57981	 -0.47861	 11.28798	707.58600	 25.70	
 19.989	 98.733	  9.09816	  3.05674	  4.68107	 10.76742	 -1.82205	 -0.46950	 11.30121	707.60498	 25.70	
 19.999	 87.075	  9.10500	  4.37351	  3.30274	 10.80022	 -1.87631	 -0.49779	 11.28589	707.50403	 25.70	
 19.992	 75.457	  9.12472	  5.73249	  2.01404	 10.56444	 -1.72912	 -0.55601	 11.29008	707.48798	 25.70	
 20.009	 63.844	  9.13552	  7.06803	  0.85774	 10.03741	 -1.38556	 -0.60293	 11.30046	707.51801	 25.80	
 19.989	 52.269	  9.13066	  8.26652	 -0.11065	  9.21896	 -0.81895	 -0.61200	 11.28929	707.46899	 25.70	
 19.999	 40.602	  9.13345	  9.32575	 -0.92192	  8.18082	 -0.06915	 -0.59820	 11.31330	707.45001	 25.70	
 20.004	 29.051	  9.10468	 10.12846	 -1.53594	  6.94316	  0.86755	 -0.55474	 11.30947	707.42603	 25.70	
 20.005	 17.433	  9.08486	 10.65729	 -1.91790	  5.60428	  1.97538	 -0.51984	 11.30895	707.51300	 25.70	
 20.006	  5.780	  9.07195	 10.90716	 -2.10384	  4.24499	  3.21802	 -0.50666	 11.31484	707.49402	 25.70	
 20.006	 -5.780	  9.03634	 10.85691	 -2.09967	  2.90336	  4.53257	 -0.50208	 11.28822	707.57397	 25.70	
 20.005	-17.433	  9.02637	 10.58050	 -1.92998	  1.64495	  5.89073	 -0.51318	 11.31124	707.52600	 25.70	
 20.004	-29.051	  9.02339	  9.99242	 -1.53037	  0.53762	  7.20352	 -0.49801	 11.31488	707.58502	 25.70	
 19.999	-40.602	  9.01429	  9.14436	 -0.94821	 -0.41563	  8.40006	 -0.46795	 11.32082	707.53400	 25.70	
 19.989	-52.269	  8.99058	  8.04256	 -0.13877	 -1.15467	  9.39886	 -0.40552	 11.30536	707.52600	 25.70	
 20.009	-63.844	  8.95598	  6.80524	  0.81570	 -1.70866	 10.16044	 -0.34404	 11.29898	707.48602	 25.60	
 19.992	-75.457	  8.95096	  5.48972	  1.93990	 -2.05120	 10.67750	 -0.34787	 11.31466	707.47699	 25.60	
 19.999	-87.075	  8.95463	  4.14254	  3.25662	 -2.18086	 10.91193	 -0.37870	 11.32980	707.53699	 25.60	
 19.989	-98.733	  8.93798	  2.82937	  4.64091	 -2.10480	 10.84526	 -0.41387	 11.32538	707.51501	 25.60	
 20.005	-110.327	  8.90009	  1.61830	  5.99743	 -1.84545	 10.48661	 -0.46195	 11.30339	707.56598	 25.60	
 20.009	-121.926	  8.87581	  0.55766	  7.30445	 -1.38901	  9.84880	 -0.49568	 11.29210	707.47803	 25.60	
 19.995	-133.545	  8.86261	 -0.32515	  8.49905	 -0.71520	  8.94562	 -0.49291	 11.28974	707.50201	 25.60	
 20.000	-145.147	  8.87525	 -1.01109	  9.48722	  0.14815	  7.85164	 -0.46201	 11.30285	707.48901	 25.60	
 20.008	-156.764	  8.86915	 -1.49456	 10.21388	  1.20155	  6.56997	 -0.42400	 11.29146	707.49701	 25.60	
 20.003	-168.362	  8.89730	 -1.76023	 10.65647	  2.41713	  5.23904	 -0.42296	 11.29519	707.49701	 25.60	
 20.000	180.000	  8.92035	 -1.84544	 10.81598	  3.75393	  3.87049	 -0.44679	 11.30059	707.56702	 25.60	
