FileType=PCF
NHL=14
Date=10/23/18	16:17:19
Facility=APL
Serial=16328-5
Customer=NASA
NP=6
Mach=0.100000
Calibration=1:1
CalPts=490
TstPts=95
PortNumbering=AP Standard
Units=Torr C m/s kg/m^3 deg mm 
Theta[deg]	Phi[deg]	P1[Torr]	P2[Torr]	P3[Torr]	P4[Torr]	P5[Torr]	P6[Torr]	Pt[Torr]	Ps[Abs,Torr]	Ts[C]	
  0.000	  0.000	  4.97017	  2.65296	  2.53916	  2.53545	  2.63837	  0.03038	  4.96587	707.46899	 24.90	
  1.691	128.401	  4.96708	  2.50670	  2.67827	  2.71697	  2.44975	  0.02799	  4.96381	707.50403	 24.90	
  1.692	 77.194	  4.96221	  2.69495	  2.47812	  2.75506	  2.39880	  0.02681	  4.95890	707.50201	 24.90	
  1.699	 26.182	  4.96658	  2.85125	  2.32089	  2.63015	  2.51852	  0.02459	  4.96283	707.46399	 24.90	
  1.699	-26.182	  4.96239	  2.84697	  2.31209	  2.41841	  2.71952	  0.02195	  4.95844	707.34802	 24.90	
  1.692	-77.194	  4.95944	  2.67768	  2.46696	  2.29372	  2.84692	  0.02093	  4.95585	707.44202	 24.80	
  1.691	-128.401	  4.95259	  2.48377	  2.65985	  2.34917	  2.78495	  0.02251	  4.95055	707.40503	 24.90	
  1.700	180.000	  4.96570	  2.41378	  2.76728	  2.53208	  2.62929	  0.02922	  4.96185	707.41803	 24.80	
  3.400	180.000	  4.95143	  2.14872	  2.99792	  2.48849	  2.59777	  0.01482	  4.95506	707.43402	 24.90	
  3.388	-152.325	  4.96283	  2.19809	  2.93974	  2.27864	  2.82674	  0.01298	  4.96813	707.43701	 24.90	
  3.397	-124.529	  4.95403	  2.32822	  2.76908	  2.09743	  3.01287	  0.00767	  4.95968	707.44501	 24.90	
  3.399	-96.763	  4.95144	  2.54064	  2.54037	  2.01437	  3.09826	  0.00282	  4.95655	707.45001	 24.90	
  3.394	-69.283	  4.95027	  2.76983	  2.31413	  2.03072	  3.06844	  0.00161	  4.95645	707.47699	 24.90	
  3.400	-41.398	  4.94000	  2.97234	  2.11904	  2.15027	  2.91916	  0.00243	  4.94590	707.40002	 24.90	
  3.401	-14.021	  4.95521	  3.10058	  2.02597	  2.36029	  2.71090	  0.00564	  4.95889	707.41302	 24.90	
  3.401	 14.021	  4.95245	  3.10302	  2.02874	  2.60290	  2.46807	  0.00765	  4.95609	707.41498	 24.90	
  3.400	 41.398	  4.95509	  2.99669	  2.13107	  2.81539	  2.27176	  0.01084	  4.95715	707.34497	 24.90	
  3.394	 69.283	  4.94747	  2.79085	  2.31753	  2.95791	  2.15017	  0.01267	  4.94972	707.38898	 24.90	
  3.399	 96.763	  4.95453	  2.56172	  2.54739	  2.99401	  2.13488	  0.01336	  4.95552	707.32098	 24.90	
  3.397	124.529	  4.95026	  2.34772	  2.76626	  2.90940	  2.20864	  0.01493	  4.95176	707.41498	 24.90	
  3.388	152.325	  4.95711	  2.21179	  2.93189	  2.72963	  2.37732	  0.01500	  4.95933	707.34497	 24.90	
  5.099	161.165	  4.92719	  1.90112	  3.19599	  2.70622	  2.31600	 -0.00320	  4.95269	707.42401	 24.90	
  5.109	142.013	  4.91204	  2.00016	  3.06057	  2.92878	  2.09747	 -0.00409	  4.93552	707.31000	 24.90	
  5.095	123.033	  4.93010	  2.18547	  2.87277	  3.11287	  1.95337	 -0.00295	  4.95198	707.43402	 25.00	
  5.105	104.191	  4.93535	  2.40592	  2.63937	  3.22277	  1.86366	 -0.00516	  4.95640	707.36102	 25.00	
  5.093	 85.207	  4.93236	  2.65031	  2.38854	  3.23512	  1.84577	 -0.00747	  4.95255	707.43402	 25.00	
  5.104	 66.290	  4.92645	  2.88892	  2.14988	  3.16910	  1.88964	 -0.00587	  4.94819	707.42102	 25.00	
  5.094	 47.331	  4.93160	  3.10740	  1.95530	  3.02416	  2.01546	 -0.00516	  4.95368	707.38599	 25.00	
  5.089	 28.397	  4.93191	  3.26417	  1.81185	  2.81113	  2.20246	 -0.00800	  4.95547	707.33197	 24.90	
  5.096	  9.576	  4.92814	  3.34568	  1.73682	  2.56628	  2.42731	 -0.00831	  4.95262	707.35101	 24.90	
  5.096	 -9.576	  4.91994	  3.33442	  1.73186	  2.31045	  2.67402	 -0.01294	  4.94489	707.36700	 24.90	
  5.089	-28.397	  4.93394	  3.25892	  1.80338	  2.08525	  2.92461	 -0.01658	  4.96283	707.31897	 24.90	
  5.094	-47.331	  4.92681	  3.09214	  1.94125	  1.89339	  3.12852	 -0.01887	  4.95684	707.39899	 24.90	
  5.104	-66.290	  4.92468	  2.86742	  2.14290	  1.77347	  3.27181	 -0.02109	  4.95651	707.33698	 24.90	
  5.093	-85.207	  4.92221	  2.62193	  2.37838	  1.72202	  3.33403	 -0.02092	  4.95370	707.33698	 24.90	
  5.105	-104.191	  4.92913	  2.37878	  2.63654	  1.74236	  3.32283	 -0.01703	  4.96181	707.31799	 24.90	
  5.095	-123.033	  4.92980	  2.16362	  2.87213	  1.84441	  3.21242	 -0.01086	  4.96231	707.39203	 24.90	
  5.109	-142.013	  4.91655	  1.98907	  3.05991	  1.99632	  3.03133	 -0.00909	  4.94838	707.38599	 24.90	
  5.099	-161.165	  4.93411	  1.89430	  3.19890	  2.21857	  2.81218	 -0.00784	  4.96445	707.38098	 24.90	
  5.100	180.000	  4.93448	  1.85918	  3.24783	  2.46076	  2.56163	 -0.00469	  4.96227	707.37799	 24.90	
  6.800	180.000	  4.89305	  1.57103	  3.47798	  2.41991	  2.51572	 -0.03036	  4.96434	707.41602	 24.90	
  6.796	-166.229	  4.88611	  1.58717	  3.44379	  2.17130	  2.75926	 -0.03333	  4.95982	707.28699	 24.90	
  6.808	-152.311	  4.87582	  1.65339	  3.34436	  1.94028	  2.99315	 -0.03766	  4.95105	707.39099	 24.80	
  6.795	-138.383	  4.88360	  1.77928	  3.19642	  1.74754	  3.21258	 -0.03644	  4.96062	707.34497	 24.80	
  6.792	-124.591	  4.88389	  1.94560	  3.00120	  1.58785	  3.38820	 -0.03802	  4.96186	707.39398	 24.80	
  6.787	-110.754	  4.88069	  2.14969	  2.76923	  1.48263	  3.50556	 -0.04669	  4.95911	707.42102	 24.80	
  6.800	-96.985	  4.88435	  2.37915	  2.52575	  1.42467	  3.57102	 -0.05192	  4.96452	707.35602	 24.80	
  6.800	-83.015	  4.88513	  2.62729	  2.27396	  1.41810	  3.57280	 -0.05432	  4.96379	707.34900	 24.80	
  6.787	-69.246	  4.88023	  2.86919	  2.03442	  1.46880	  3.50101	 -0.05777	  4.95842	707.39697	 24.80	
  6.792	-55.409	  4.88959	  3.10436	  1.82594	  1.57252	  3.38177	 -0.05530	  4.96576	707.38397	 24.70	
  6.795	-41.617	  4.88206	  3.29522	  1.65138	  1.71951	  3.20159	 -0.05087	  4.95725	707.38599	 24.70	
  6.808	-27.689	  4.89571	  3.45855	  1.52579	  1.91169	  2.99818	 -0.04755	  4.96835	707.39398	 24.70	
  6.796	-13.771	  4.89550	  3.55621	  1.44575	  2.13881	  2.75853	 -0.04529	  4.96646	707.48798	 24.70	
  6.800	  0.000	  4.89189	  3.59072	  1.41888	  2.38440	  2.50430	 -0.04085	  4.96072	707.34003	 24.70	
  6.796	 13.771	  4.90300	  3.57195	  1.44839	  2.64119	  2.26721	 -0.03684	  4.97036	707.39899	 24.70	
  6.808	 27.689	  4.89887	  3.48125	  1.52815	  2.88191	  2.03996	 -0.03683	  4.96411	707.35602	 24.70	
  6.795	 41.617	  4.89853	  3.33055	  1.66014	  3.10196	  1.84932	 -0.03196	  4.96158	707.40802	 24.70	
  6.792	 55.409	  4.90135	  3.14196	  1.83669	  3.27768	  1.70422	 -0.02931	  4.96166	707.33197	 24.70	
  6.787	 69.246	  4.90503	  2.91735	  2.05062	  3.40809	  1.60724	 -0.03373	  4.96419	707.30200	 24.70	
  6.800	 83.015	  4.91443	  2.68379	  2.28744	  3.48568	  1.55602	 -0.03472	  4.97328	707.32599	 24.70	
  6.800	 96.985	  4.90850	  2.42867	  2.53801	  3.48096	  1.56360	 -0.03456	  4.96698	707.39697	 24.70	
  6.787	110.754	  4.90661	  2.20142	  2.77915	  3.41933	  1.61657	 -0.03447	  4.96514	707.42902	 24.70	
  6.792	124.591	  4.90829	  1.99363	  3.01119	  3.30190	  1.71729	 -0.03169	  4.96938	707.38397	 24.70	
  6.795	138.383	  4.89569	  1.81751	  3.19966	  3.12406	  1.86197	 -0.02729	  4.95919	707.42401	 24.70	
  6.808	152.311	  4.90352	  1.68775	  3.35936	  2.91395	  2.05679	 -0.02631	  4.96914	707.45001	 24.70	
  6.796	166.229	  4.89812	  1.60411	  3.44970	  2.67041	  2.27788	 -0.02879	  4.96534	707.45801	 24.70	
  8.491	168.704	  4.82778	  1.29193	  3.67326	  2.61437	  2.20553	 -0.06644	  4.95962	707.47998	 24.70	
  8.502	157.493	  4.84756	  1.35705	  3.61407	  2.87511	  1.97738	 -0.06551	  4.97727	707.49298	 24.70	
  8.494	146.194	  4.83246	  1.46723	  3.46813	  3.10096	  1.76179	 -0.06170	  4.95874	707.48499	 24.70	
  8.495	135.039	  4.83724	  1.61521	  3.29864	  3.31213	  1.58066	 -0.06463	  4.96293	707.47302	 24.70	
  8.487	123.723	  4.83529	  1.79372	  3.08752	  3.48053	  1.43602	 -0.07369	  4.95674	707.45599	 24.70	
  8.492	112.575	  4.84684	  2.00811	  2.85966	  3.61140	  1.33352	 -0.07596	  4.96494	707.46399	 24.70	
  8.510	101.220	  4.84769	  2.24798	  2.60131	  3.69120	  1.26328	 -0.07308	  4.96450	707.48901	 24.70	
  8.500	 90.000	  4.83967	  2.48714	  2.34399	  3.70777	  1.23836	 -0.07398	  4.95484	707.44000	 24.70	
  8.510	 78.780	  4.84610	  2.74502	  2.09780	  3.68115	  1.25955	 -0.07319	  4.96149	707.52100	 24.70	
  8.492	 67.425	  4.85286	  2.99774	  1.85965	  3.59826	  1.32801	 -0.06677	  4.96795	707.49597	 24.70	
  8.487	 56.277	  4.84779	  3.22271	  1.64858	  3.46340	  1.42832	 -0.05954	  4.96479	707.46399	 24.70	
  8.495	 44.961	  4.84842	  3.42863	  1.46434	  3.28728	  1.57361	 -0.06331	  4.96636	707.36700	 24.70	
  8.494	 33.806	  4.84052	  3.58962	  1.31387	  3.07333	  1.74925	 -0.07196	  4.96079	707.47198	 24.70	
  8.502	 22.507	  4.83980	  3.71636	  1.20175	  2.83507	  1.95955	 -0.07319	  4.96401	707.46503	 24.60	
  8.491	 11.296	  4.83458	  3.78418	  1.13654	  2.57900	  2.19507	 -0.07136	  4.96017	707.41602	 24.60	
  8.500	  0.000	  4.83612	  3.81218	  1.10857	  2.32164	  2.44534	 -0.07646	  4.96611	707.36499	 24.60	
  8.491	-11.296	  4.83405	  3.77800	  1.13076	  2.06470	  2.70474	 -0.08113	  4.96698	707.37598	 24.60	
  8.502	-22.507	  4.82795	  3.69243	  1.19151	  1.83433	  2.94427	 -0.08244	  4.96279	707.42297	 24.60	
  8.494	-33.806	  4.82586	  3.55844	  1.30304	  1.61510	  3.18145	 -0.08295	  4.96204	707.48102	 24.60	
  8.495	-44.961	  4.82322	  3.38481	  1.44640	  1.43619	  3.38616	 -0.08961	  4.96227	707.32703	 24.60	
  8.487	-56.277	  4.82852	  3.18100	  1.63353	  1.29694	  3.55758	 -0.09620	  4.96813	707.36902	 24.60	
  8.492	-67.425	  4.82431	  2.95008	  1.83951	  1.19264	  3.68332	 -0.09933	  4.96580	707.43103	 24.60	
  8.510	-78.780	  4.81630	  2.69255	  2.07634	  1.12316	  3.76524	 -0.09569	  4.96058	707.43201	 24.60	
  8.500	-90.000	  4.81661	  2.43843	  2.32893	  1.10587	  3.79445	 -0.09427	  4.96223	707.52802	 24.60	
  8.510	-101.220	  4.82631	  2.19731	  2.59257	  1.13191	  3.77532	 -0.09048	  4.97264	707.47198	 24.60	
  8.492	-112.575	  4.82095	  1.95832	  2.84510	  1.20445	  3.69195	 -0.08192	  4.96758	707.51501	 24.60	
  8.487	-123.723	  4.81684	  1.75365	  3.07570	  1.31556	  3.56025	 -0.07367	  4.96385	707.41803	 24.60	
  8.495	-135.039	  4.82340	  1.58078	  3.28695	  1.46734	  3.39761	 -0.06989	  4.96886	707.37500	 24.60	
  8.494	-146.194	  4.82759	  1.44138	  3.46428	  1.65024	  3.19669	 -0.07250	  4.97320	707.38599	 24.60	
  8.502	-157.493	  4.81446	  1.32914	  3.58868	  1.86212	  2.95393	 -0.07228	  4.95671	707.40002	 24.60	
  8.491	-168.704	  4.82518	  1.27833	  3.67328	  2.10559	  2.70804	 -0.06500	  4.96234	707.42102	 24.60	
  8.500	180.000	  4.83266	  1.26094	  3.70794	  2.36163	  2.45588	 -0.06475	  4.96756	707.46997	 24.60	
 10.200	180.000	  4.74618	  0.95306	  3.91015	  2.29102	  2.38076	 -0.10489	  4.96456	707.37299	 24.60	
 10.191	-170.497	  4.74680	  0.96227	  3.89052	  2.03656	  2.64071	 -0.10579	  4.96910	707.33502	 24.60	
 10.210	-161.034	  4.73405	  1.00925	  3.81503	  1.78183	  2.88868	 -0.11335	  4.96048	707.43103	 24.60	
 10.194	-151.526	  4.74231	  1.09473	  3.71025	  1.55774	  3.14112	 -0.11454	  4.97141	707.35901	 24.60	
 10.190	-142.105	  4.73535	  1.21628	  3.54838	  1.35505	  3.36327	 -0.10946	  4.96445	707.44598	 24.60	
 10.215	-132.646	  4.73935	  1.36650	  3.36713	  1.17861	  3.56660	 -0.10471	  4.97120	707.41803	 24.60	
 10.203	-123.092	  4.73329	  1.55036	  3.14293	  1.03120	  3.72891	 -0.10837	  4.96404	707.39398	 24.60	
 10.192	-113.678	  4.73604	  1.75695	  2.90653	  0.92807	  3.85192	 -0.11746	  4.96481	707.42902	 24.60	
 10.208	-104.249	  4.73310	  1.98575	  2.64880	  0.84329	  3.94634	 -0.12897	  4.96372	707.29498	 24.60	
 10.210	-94.801	  4.73950	  2.23101	  2.39493	  0.80607	  3.99145	 -0.13673	  4.96775	707.32599	 24.60	
 10.210	-85.199	  4.74173	  2.48776	  2.13628	  0.79797	  3.99419	 -0.14130	  4.97069	707.47998	 24.60	
 10.208	-75.751	  4.73804	  2.74338	  1.88193	  0.83409	  3.94248	 -0.14273	  4.96495	707.47198	 24.60	
 10.192	-66.322	  4.73505	  2.99137	  1.64650	  0.90609	  3.84483	 -0.13955	  4.95855	707.50500	 24.60	
 10.203	-56.908	  4.74054	  3.22884	  1.43460	  1.00477	  3.72317	 -0.13778	  4.96582	707.44000	 24.50	
 10.215	-47.354	  4.74670	  3.44768	  1.25064	  1.15153	  3.55319	 -0.13090	  4.96815	707.40802	 24.50	
 10.190	-37.895	  4.74412	  3.63469	  1.09033	  1.32260	  3.34742	 -0.12462	  4.96243	707.41602	 24.50	
 10.194	-28.474	  4.75011	  3.79223	  0.96480	  1.51937	  3.12961	 -0.12116	  4.96913	707.42102	 24.50	
 10.210	-18.966	  4.75037	  3.90477	  0.87464	  1.74494	  2.88296	 -0.11939	  4.96328	707.43402	 24.50	
 10.191	 -9.503	  4.75933	  3.98150	  0.82362	  1.98982	  2.63258	 -0.11900	  4.96977	707.46198	 24.50	
 10.200	  0.000	  4.74935	  4.00043	  0.80441	  2.24075	  2.36814	 -0.11489	  4.95751	707.51001	 24.50	
 10.191	  9.503	  4.75353	  3.98561	  0.82151	  2.49917	  2.12087	 -0.11375	  4.95805	707.40503	 24.50	
 10.210	 18.966	  4.76157	  3.93079	  0.87542	  2.76942	  1.87295	 -0.11281	  4.96520	707.47699	 24.50	
 10.194	 28.474	  4.75985	  3.82363	  0.96875	  3.01428	  1.65069	 -0.11174	  4.96050	707.41498	 24.50	
 10.190	 37.895	  4.77141	  3.68316	  1.09678	  3.25436	  1.45539	 -0.10782	  4.96861	707.44800	 24.50	
 10.215	 47.354	  4.76620	  3.50158	  1.25251	  3.45452	  1.28322	 -0.09921	  4.96178	707.49597	 24.50	
 10.203	 56.908	  4.76465	  3.28487	  1.44381	  3.62627	  1.14197	 -0.09812	  4.95748	707.41803	 24.50	
 10.192	 66.322	  4.76976	  3.05843	  1.65622	  3.76210	  1.04295	 -0.10554	  4.96036	707.49701	 24.50	
 10.208	 75.751	  4.76976	  2.81321	  1.88831	  3.85812	  0.97087	 -0.11168	  4.96007	707.44598	 24.50	
 10.210	 85.199	  4.77231	  2.55630	  2.14375	  3.90856	  0.93894	 -0.11669	  4.96174	707.42401	 24.50	
 10.210	 94.801	  4.78090	  2.30514	  2.40818	  3.92150	  0.94270	 -0.11708	  4.97236	707.46997	 24.50	
 10.208	104.249	  4.75935	  2.04835	  2.65672	  3.86751	  0.97268	 -0.11607	  4.95287	707.46100	 24.50	
 10.192	113.678	  4.76159	  1.81980	  2.90951	  3.78415	  1.04860	 -0.11712	  4.95915	707.40503	 24.50	
 10.203	123.092	  4.76814	  1.61104	  3.15558	  3.65850	  1.16127	 -0.11346	  4.96661	707.40503	 24.50	
 10.215	132.646	  4.75817	  1.41981	  3.36867	  3.49048	  1.29562	 -0.10493	  4.96229	707.50500	 24.50	
 10.190	142.105	  4.76121	  1.26014	  3.56326	  3.29107	  1.46733	 -0.09807	  4.96768	707.41498	 24.50	
 10.194	151.526	  4.75125	  1.13231	  3.70721	  3.06102	  1.66097	 -0.09888	  4.96102	707.48499	 24.50	
 10.210	161.034	  4.75077	  1.03640	  3.82275	  2.81125	  1.88576	 -0.10608	  4.96238	707.46899	 24.50	
 10.191	170.497	  4.75218	  0.98255	  3.88836	  2.55390	  2.12874	 -0.10736	  4.96565	707.38599	 24.50	
 11.899	171.783	  4.65224	  0.66872	  4.08453	  2.47446	  2.04406	 -0.14524	  4.96800	707.33698	 24.50	
 11.890	163.610	  4.64342	  0.71843	  4.01777	  2.72817	  1.79537	 -0.14468	  4.95535	707.52301	 24.50	
 11.889	155.445	  4.65578	  0.79746	  3.93197	  2.99022	  1.57314	 -0.14015	  4.96653	707.35303	 24.50	
 11.909	147.299	  4.65697	  0.90364	  3.80120	  3.22902	  1.36079	 -0.13703	  4.96697	707.39899	 24.50	
 11.902	139.148	  4.65489	  1.04125	  3.62910	  3.44906	  1.16751	 -0.13910	  4.96124	707.37500	 24.50	
 11.894	130.867	  4.66222	  1.21385	  3.42892	  3.64357	  1.01058	 -0.14705	  4.96101	707.37598	 24.50	
 11.897	122.732	  4.66824	  1.40546	  3.20850	  3.80944	  0.87783	 -0.15261	  4.96410	707.45398	 24.50	
 11.903	114.597	  4.67431	  1.61720	  2.97084	  3.94530	  0.76803	 -0.15810	  4.96684	707.45300	 24.50	
 11.893	106.346	  4.67776	  1.84716	  2.71302	  4.03895	  0.69410	 -0.16037	  4.96596	707.53400	 24.50	
 11.892	 98.155	  4.68776	  2.09962	  2.45313	  4.10115	  0.64802	 -0.16079	  4.97288	707.44000	 24.50	
 11.900	 90.000	  4.67812	  2.34571	  2.19044	  4.10318	  0.63222	 -0.15934	  4.96077	707.46997	 24.50	
 11.892	 81.845	  4.68690	  2.60439	  1.93722	  4.08665	  0.64670	 -0.15534	  4.96823	707.52802	 24.50	
 11.893	 73.654	  4.68100	  2.85957	  1.68681	  4.01644	  0.69167	 -0.14886	  4.96165	707.51801	 24.40	
 11.903	 65.403	  4.67989	  3.10671	  1.45604	  3.91407	  0.76439	 -0.14168	  4.96146	707.35101	 24.50	
 11.897	 57.268	  4.68214	  3.34041	  1.24855	  3.77724	  0.87406	 -0.13375	  4.96406	707.47302	 24.40	
 11.894	 49.133	  4.68473	  3.56078	  1.05546	  3.60883	  1.00574	 -0.13394	  4.96992	707.50201	 24.40	
 11.902	 40.852	  4.67780	  3.75083	  0.88663	  3.40443	  1.16620	 -0.14002	  4.96628	707.36499	 24.40	
 11.909	 32.701	  4.67248	  3.90563	  0.74904	  3.18002	  1.35107	 -0.14747	  4.96396	707.43701	 24.40	
 11.889	 24.555	  4.67451	  4.03153	  0.64552	  2.94377	  1.56229	 -0.15054	  4.96787	707.40198	 24.50	
 11.890	 16.390	  4.67712	  4.12943	  0.56493	  2.68617	  1.79406	 -0.15080	  4.97347	707.34100	 24.50	
 11.899	  8.217	  4.67511	  4.18618	  0.51249	  2.42509	  2.03763	 -0.15211	  4.97718	707.40503	 24.40	
 11.900	  0.000	  4.66749	  4.19434	  0.49748	  2.16120	  2.28801	 -0.15520	  4.97183	707.40198	 24.40	
 11.899	 -8.217	  4.65990	  4.16606	  0.51046	  1.90228	  2.54381	 -0.15510	  4.96758	707.49402	 24.40	
 11.890	-16.390	  4.66671	  4.10928	  0.55836	  1.65842	  2.80772	 -0.15493	  4.97726	707.41803	 24.40	
 11.889	-24.555	  4.65850	  4.00242	  0.63702	  1.42532	  3.05324	 -0.15539	  4.97213	707.36102	 24.40	
 11.909	-32.701	  4.65611	  3.87048	  0.74021	  1.21007	  3.29119	 -0.15503	  4.97263	707.39099	 24.40	
 11.902	-40.852	  4.66001	  3.70449	  0.87644	  1.02307	  3.51466	 -0.16141	  4.97942	707.39899	 24.40	
 11.894	-49.133	  4.64739	  3.49948	  1.03816	  0.86073	  3.70147	 -0.16898	  4.96841	707.46997	 24.40	
 11.897	-57.268	  4.65430	  3.28296	  1.23137	  0.73423	  3.86905	 -0.17327	  4.97661	707.46100	 24.40	
 11.903	-65.403	  4.64727	  3.03975	  1.44134	  0.62082	  4.00516	 -0.17755	  4.97345	707.45599	 24.30	
 11.893	-73.654	  4.63884	  2.78488	  1.67056	  0.55146	  4.09148	 -0.17893	  4.96595	707.42297	 24.30	
 11.892	-81.845	  4.64469	  2.52964	  1.92256	  0.50703	  4.15948	 -0.17759	  4.97380	707.37500	 24.30	
 11.900	-90.000	  4.64218	  2.27408	  2.17398	  0.49238	  4.18025	 -0.17893	  4.97427	707.38898	 24.30	
 11.892	-98.155	  4.64403	  2.02524	  2.43446	  0.51341	  4.16383	 -0.17229	  4.97576	707.34302	 24.30	
 11.893	-106.346	  4.63739	  1.77758	  2.69920	  0.56015	  4.10309	 -0.16254	  4.97115	707.38898	 24.30	
 11.903	-114.597	  4.63320	  1.54731	  2.95273	  0.64084	  4.00607	 -0.15214	  4.96807	707.33502	 24.30	
 11.897	-122.732	  4.63918	  1.34709	  3.19328	  0.75402	  3.87915	 -0.14153	  4.97337	707.34003	 24.30	
 11.894	-130.867	  4.63959	  1.16457	  3.41615	  0.89093	  3.71838	 -0.13825	  4.97520	707.39697	 24.30	
 11.902	-139.148	  4.62691	  0.99649	  3.61224	  1.05589	  3.51226	 -0.14347	  4.96168	707.39697	 24.30	
 11.909	-147.299	  4.62743	  0.86566	  3.78065	  1.24580	  3.29674	 -0.14841	  4.96170	707.37299	 24.30	
 11.889	-155.445	  4.64496	  0.77100	  3.92321	  1.47161	  3.06616	 -0.15476	  4.97427	707.44598	 24.30	
 11.890	-163.610	  4.65060	  0.70391	  4.02062	  1.70823	  2.81602	 -0.15242	  4.97466	707.32898	 24.20	
 11.899	-171.783	  4.66059	  0.65831	  4.09518	  1.95744	  2.56374	 -0.14852	  4.98570	707.38599	 24.20	
 11.900	180.000	  4.64447	  0.64613	  4.09832	  2.21221	  2.29362	 -0.14796	  4.96279	707.40802	 24.20	
 13.600	180.000	  4.53654	  0.34131	  4.28377	  2.11938	  2.20353	 -0.18215	  4.97757	707.38098	 24.20	
 13.608	-172.853	  4.52782	  0.34198	  4.26433	  1.85844	  2.45904	 -0.18382	  4.97402	707.37201	 24.20	
 13.611	-165.583	  4.53613	  0.37732	  4.21945	  1.61163	  2.72797	 -0.19076	  4.98721	707.33398	 24.20	
 13.601	-158.353	  4.52241	  0.44067	  4.11950	  1.37093	  2.97254	 -0.19068	  4.97317	707.35101	 24.20	
 13.609	-151.210	  4.52281	  0.52543	  4.00384	  1.14528	  3.22297	 -0.18771	  4.98096	707.40698	 24.20	
 13.611	-143.999	  4.51746	  0.63933	  3.84682	  0.93977	  3.45165	 -0.18169	  4.97594	707.28900	 24.20	
 13.601	-136.825	  4.52032	  0.78144	  3.66763	  0.76093	  3.66497	 -0.17665	  4.97911	707.45599	 24.20	
 13.596	-129.640	  4.51953	  0.94032	  3.46475	  0.59971	  3.85214	 -0.16959	  4.97968	707.36401	 24.10	
 13.611	-122.431	  4.50959	  1.12504	  3.22615	  0.46808	  4.00383	 -0.17443	  4.96628	707.40698	 24.10	
 13.604	-115.211	  4.51682	  1.33210	  2.98797	  0.36086	  4.14233	 -0.18091	  4.97329	707.33698	 24.10	
 13.595	-108.042	  4.51449	  1.54882	  2.73647	  0.27233	  4.24154	 -0.19051	  4.97146	707.22699	 24.10	
 13.607	-100.793	  4.52350	  1.79332	  2.47349	  0.21667	  4.31693	 -0.19881	  4.97932	707.30798	 24.10	
 13.601	-93.617	  4.51915	  2.03858	  2.20888	  0.18655	  4.34318	 -0.20383	  4.97216	707.28101	 24.10	
 13.601	-86.383	  4.52298	  2.29519	  1.95016	  0.18917	  4.34173	 -0.20571	  4.97349	707.27899	 24.10	
 13.607	-79.207	  4.52514	  2.55829	  1.69487	  0.20636	  4.30919	 -0.20396	  4.97495	707.26202	 24.10	
 13.595	-71.958	  4.52211	  2.81006	  1.45278	  0.26352	  4.23147	 -0.20123	  4.96643	707.27301	 24.10	
 13.604	-64.789	  4.52421	  3.06030	  1.22645	  0.33646	  4.13147	 -0.20028	  4.96868	707.28699	 24.10	
 13.611	-57.569	  4.53121	  3.30393	  1.01911	  0.44320	  3.99711	 -0.20046	  4.97063	707.18701	 24.10	
 13.596	-50.360	  4.52601	  3.52377	  0.83056	  0.57309	  3.82628	 -0.19810	  4.96359	707.21100	 24.20	
 13.601	-43.175	  4.53536	  3.72755	  0.66828	  0.72934	  3.64299	 -0.19405	  4.96954	707.23700	 24.20	
 13.611	-36.001	  4.53388	  3.90903	  0.51886	  0.90074	  3.43158	 -0.19232	  4.96778	707.27002	 24.20	
 13.609	-28.790	  4.54349	  4.06570	  0.40347	  1.10308	  3.20324	 -0.18752	  4.97245	707.24799	 24.20	
 13.601	-21.647	  4.54076	  4.18396	  0.30998	  1.31420	  2.96083	 -0.18958	  4.96823	707.24402	 24.20	
 13.611	-14.417	  4.53931	  4.26817	  0.24775	  1.54966	  2.70567	 -0.18946	  4.96244	707.26202	 24.20	
 13.608	 -7.147	  4.54750	  4.33435	  0.20083	  1.80208	  2.44523	 -0.19271	  4.97056	707.31897	 24.20	
 13.600	  0.000	  4.54711	  4.35216	  0.19266	  2.05343	  2.18970	 -0.19268	  4.96393	707.18103	 24.20	
 13.608	  7.147	  4.54960	  4.34229	  0.20400	  2.31609	  1.93671	 -0.19148	  4.96544	707.22998	 24.20	
 13.611	 14.417	  4.54960	  4.29652	  0.24206	  2.58104	  1.68803	 -0.19152	  4.96324	707.27899	 24.20	
 13.601	 21.647	  4.55508	  4.21657	  0.31384	  2.83852	  1.45757	 -0.19267	  4.96445	707.20801	 24.20	
 13.609	 28.790	  4.56277	  4.11211	  0.40795	  3.08409	  1.24787	 -0.18732	  4.96597	707.18201	 24.20	
 13.611	 36.001	  4.55979	  3.96164	  0.52584	  3.32685	  1.04268	 -0.18250	  4.96157	707.28900	 24.20	
 13.601	 43.175	  4.57880	  3.80292	  0.67444	  3.55101	  0.87730	 -0.17508	  4.97582	707.23499	 24.20	
 13.596	 50.360	  4.56887	  3.59683	  0.83854	  3.74008	  0.71701	 -0.16911	  4.96297	707.27197	 24.20	
 13.611	 57.569	  4.57099	  3.38171	  1.02531	  3.91200	  0.58500	 -0.17036	  4.96510	707.19702	 24.20	
 13.604	 64.789	  4.57405	  3.14551	  1.23962	  4.05255	  0.48263	 -0.17649	  4.96533	707.29999	 24.20	
 13.595	 71.958	  4.58460	  2.90746	  1.46892	  4.16705	  0.40933	 -0.18653	  4.97650	707.20599	 24.20	
 13.607	 79.207	  4.57020	  2.64244	  1.70707	  4.23278	  0.35221	 -0.19440	  4.96226	707.12500	 24.20	
 13.601	 86.383	  4.57317	  2.38471	  1.96467	  4.27346	  0.32882	 -0.19762	  4.96491	707.27600	 24.20	
 13.601	 93.617	  4.57303	  2.13007	  2.22011	  4.28364	  0.32616	 -0.19941	  4.96939	707.12799	 24.20	
 13.607	100.793	  4.56691	  1.87775	  2.48302	  4.24945	  0.35521	 -0.20108	  4.96432	707.17902	 24.20	
 13.595	108.042	  4.56712	  1.63723	  2.74926	  4.18454	  0.41116	 -0.20000	  4.96755	707.20502	 24.20	
 13.604	115.211	  4.56201	  1.41186	  3.00022	  4.08851	  0.48676	 -0.19705	  4.96817	707.22400	 24.20	
 13.611	122.431	  4.56058	  1.20365	  3.24290	  3.95598	  0.59372	 -0.19122	  4.97151	707.26398	 24.20	
 13.596	129.640	  4.54940	  1.00768	  3.46934	  3.78464	  0.72448	 -0.18288	  4.96372	707.27899	 24.20	
 13.601	136.825	  4.55222	  0.84163	  3.67715	  3.60096	  0.88059	 -0.17712	  4.97053	707.24902	 24.20	
 13.611	143.999	  4.54744	  0.69287	  3.85807	  3.38873	  1.05313	 -0.17129	  4.97096	707.27600	 24.30	
 13.609	151.210	  4.54290	  0.57395	  4.00541	  3.15206	  1.25285	 -0.17181	  4.96884	707.28699	 24.20	
 13.601	158.353	  4.54052	  0.47482	  4.12516	  2.90903	  1.46740	 -0.17636	  4.97124	707.32397	 24.20	
 13.611	165.583	  4.52882	  0.39808	  4.20594	  2.64466	  1.69369	 -0.17995	  4.96320	707.29999	 24.20	
 13.608	172.853	  4.52857	  0.35649	  4.25904	  2.38093	  1.94424	 -0.18120	  4.96667	707.30298	 24.20	
 15.298	173.587	  4.38420	  0.05370	  4.40495	  2.26768	  1.83564	 -0.20836	  4.95487	707.31000	 24.20	
 15.291	167.167	  4.39511	  0.09420	  4.36733	  2.53433	  1.59372	 -0.20732	  4.96261	707.28400	 24.20	
 15.307	160.676	  4.39862	  0.14638	  4.30216	  2.79987	  1.35360	 -0.20930	  4.96957	707.27899	 24.20	
 15.300	154.261	  4.39167	  0.23506	  4.18397	  3.04275	  1.13352	 -0.20535	  4.95590	707.30798	 24.30	
 15.288	147.854	  4.40655	  0.34567	  4.05342	  3.29696	  0.93098	 -0.20178	  4.96861	707.29199	 24.30	
 15.293	141.428	  4.39929	  0.47862	  3.87599	  3.51404	  0.74580	 -0.20273	  4.95443	707.27301	 24.30	
 15.299	134.985	  4.41142	  0.62407	  3.70037	  3.72517	  0.58014	 -0.20841	  4.96297	707.32898	 24.30	
 15.305	128.583	  4.41732	  0.79383	  3.49494	  3.90962	  0.43749	 -0.21430	  4.96374	707.24902	 24.30	
 15.309	122.142	  4.41947	  0.98217	  3.26390	  4.07260	  0.30627	 -0.22276	  4.96221	707.37500	 24.30	
 15.304	115.711	  4.42799	  1.19188	  3.02239	  4.20827	  0.20569	 -0.22560	  4.96583	707.30298	 24.30	
 15.297	109.291	  4.43999	  1.41490	  2.77456	  4.31765	  0.12623	 -0.22950	  4.97377	707.36401	 24.30	
 15.293	102.897	  4.44551	  1.65057	  2.51542	  4.39174	  0.07022	 -0.22983	  4.97471	707.30798	 24.30	
 15.293	 96.458	  4.44926	  1.89975	  2.25270	  4.43110	  0.03777	 -0.22842	  4.97289	707.31299	 24.30	
 15.300	 90.000	  4.44000	  2.14793	  1.98354	  4.43225	  0.02339	 -0.22734	  4.96012	707.38599	 24.30	
 15.293	 83.542	  4.45431	  2.41375	  1.73207	  4.42038	  0.03679	 -0.22738	  4.97246	707.37299	 24.30	
 15.293	 77.103	  4.44664	  2.66377	  1.48144	  4.36312	  0.06913	 -0.22413	  4.96261	707.27802	 24.30	
 15.297	 70.709	  4.44666	  2.91526	  1.24700	  4.27966	  0.12722	 -0.21805	  4.96211	707.34003	 24.30	
 15.304	 64.289	  4.44668	  3.16176	  1.02377	  4.16851	  0.20559	 -0.21303	  4.96355	707.31897	 24.30	
 15.309	 57.858	  4.45018	  3.40403	  0.81681	  4.03292	  0.30494	 -0.20362	  4.96958	707.24402	 24.30	
 15.305	 51.417	  4.44412	  3.62013	  0.62805	  3.86130	  0.43117	 -0.20267	  4.96329	707.31897	 24.30	
 15.299	 45.015	  4.44214	  3.81526	  0.46653	  3.67040	  0.57797	 -0.20873	  4.96178	707.38898	 24.30	
 15.293	 38.572	  4.43196	  3.99146	  0.31307	  3.45451	  0.74336	 -0.21530	  4.95620	707.31799	 24.30	
 15.288	 32.146	  4.43344	  4.14785	  0.18825	  3.22800	  0.92806	 -0.22113	  4.96205	707.29498	 24.30	
 15.300	 25.739	  4.43185	  4.28094	  0.08348	  2.97894	  1.13495	 -0.22445	  4.96313	707.35101	 24.30	
 15.307	 19.324	  4.42575	  4.37506	  0.00306	  2.72598	  1.35146	 -0.22444	  4.96036	707.30200	 24.30	
 15.291	 12.833	  4.41544	  4.43583	 -0.05353	  2.46490	  1.58524	 -0.22116	  4.95253	707.38397	 24.30	
 15.298	  6.413	  4.42055	  4.48408	 -0.08862	  2.20469	  1.83346	 -0.22113	  4.96201	707.34497	 24.30	
 15.300	  0.000	  4.41706	  4.49517	 -0.10154	  1.95053	  2.07854	 -0.21935	  4.96428	707.44800	 24.30	
 15.298	 -6.413	  4.41054	  4.47078	 -0.09419	  1.68711	  2.33854	 -0.21764	  4.95972	707.24902	 24.30	
 15.291	-12.833	  4.41585	  4.42554	 -0.05411	  1.44819	  2.59734	 -0.21914	  4.96824	707.27197	 24.30	
 15.307	-19.324	  4.40759	  4.34196	  0.00005	  1.20675	  2.85058	 -0.21670	  4.96389	707.31000	 24.30	
 15.300	-25.739	  4.39762	  4.22677	  0.07655	  0.98377	  3.09171	 -0.21393	  4.95646	707.32599	 24.30	
 15.288	-32.146	  4.40369	  4.09700	  0.18090	  0.78749	  3.33134	 -0.21334	  4.96631	707.27197	 24.30	
 15.293	-38.572	  4.39751	  3.92943	  0.30638	  0.60084	  3.55206	 -0.21375	  4.95984	707.28601	 24.30	
 15.299	-45.015	  4.40163	  3.74589	  0.45463	  0.43073	  3.76401	 -0.21592	  4.96871	707.26398	 24.30	
 15.305	-51.417	  4.39953	  3.54091	  0.61761	  0.28456	  3.94792	 -0.21429	  4.97051	707.34003	 24.30	
 15.309	-57.858	  4.38807	  3.30916	  0.80488	  0.16502	  4.09762	 -0.21193	  4.95883	707.40503	 24.30	
 15.304	-64.289	  4.38439	  3.06872	  1.01169	  0.05890	  4.23491	 -0.20788	  4.95982	707.32599	 24.30	
 15.297	-70.709	  4.39141	  2.82719	  1.23319	 -0.01665	  4.34845	 -0.20847	  4.97007	707.32098	 24.40	
 15.293	-77.103	  4.38294	  2.57052	  1.46221	 -0.07305	  4.42095	 -0.20958	  4.96379	707.34100	 24.30	
 15.293	-83.542	  4.38212	  2.31188	  1.71166	 -0.10507	  4.46809	 -0.21176	  4.96455	707.31598	 24.30	
 15.300	-90.000	  4.38751	  2.05824	  1.96869	 -0.11431	  4.49334	 -0.21297	  4.97417	707.37500	 24.30	
 15.293	-96.458	  4.38614	  1.80619	  2.22960	 -0.09694	  4.47704	 -0.21535	  4.97390	707.39398	 24.30	
 15.293	-102.897	  4.38248	  1.56182	  2.49294	 -0.05979	  4.43194	 -0.21336	  4.97243	707.35303	 24.30	
 15.297	-109.291	  4.38538	  1.33167	  2.75373	 -0.00396	  4.36523	 -0.20989	  4.97916	707.36102	 24.30	
 15.304	-115.711	  4.36878	  1.11322	  2.99310	  0.07752	  4.24945	 -0.20434	  4.96308	707.34900	 24.30	
 15.309	-122.142	  4.37147	  0.90907	  3.24195	  0.18397	  4.12021	 -0.19924	  4.96840	707.28601	 24.30	
 15.305	-128.583	  4.36707	  0.72799	  3.46877	  0.31160	  3.95816	 -0.19966	  4.96467	707.34003	 24.30	
 15.299	-134.985	  4.38049	  0.56625	  3.68996	  0.46626	  3.78577	 -0.20118	  4.97879	707.28400	 24.30	
 15.293	-141.428	  4.38000	  0.42564	  3.87440	  0.63823	  3.57967	 -0.20573	  4.97594	707.32098	 24.20	
 15.288	-147.854	  4.37391	  0.30214	  4.03618	  0.83245	  3.34545	 -0.21186	  4.96700	707.31799	 24.20	
 15.300	-154.261	  4.38369	  0.20026	  4.18367	  1.03890	  3.11595	 -0.21326	  4.97732	707.33502	 24.20	
 15.307	-160.676	  4.37952	  0.12324	  4.28802	  1.26218	  2.86088	 -0.21442	  4.96964	707.28601	 24.20	
 15.291	-167.167	  4.39426	  0.07046	  4.37971	  1.50390	  2.61468	 -0.21399	  4.98323	707.23798	 24.20	
 15.298	-173.587	  4.39367	  0.04244	  4.42057	  1.75922	  2.34925	 -0.20973	  4.97580	707.29999	 24.20	
 15.300	180.000	  4.39404	  0.03604	  4.43455	  2.01395	  2.09046	 -0.20783	  4.97246	707.32599	 24.10	
 17.000	180.000	  4.24170	 -0.25529	  4.56795	  1.90422	  1.97244	 -0.21808	  4.97333	707.32098	 24.10	
 16.990	-174.179	  4.24509	 -0.24887	  4.55886	  1.65134	  2.23445	 -0.21792	  4.98029	707.24902	 24.10	
 17.009	-168.383	  4.23750	 -0.23128	  4.51812	  1.39312	  2.49284	 -0.22010	  4.98059	707.31799	 24.10	
 17.000	-162.596	  4.22572	 -0.17842	  4.43569	  1.16075	  2.74007	 -0.22220	  4.96815	707.32599	 24.10	
 16.990	-156.759	  4.23123	 -0.11267	  4.34715	  0.93432	  2.99869	 -0.22170	  4.98042	707.31000	 24.00	
 16.995	-150.919	  4.22794	 -0.02914	  4.22187	  0.71519	  3.24353	 -0.22123	  4.98048	707.25201	 24.10	
 16.988	-145.161	  4.22368	  0.07811	  4.06954	  0.52597	  3.46584	 -0.21873	  4.97418	707.36102	 24.00	
 17.014	-139.343	  4.22616	  0.20364	  3.89982	  0.34049	  3.69468	 -0.22127	  4.98323	707.35699	 24.00	
 17.007	-133.546	  4.22623	  0.35086	  3.70501	  0.18290	  3.89089	 -0.21862	  4.98202	707.29401	 24.00	
 17.001	-127.699	  4.22189	  0.51415	  3.48302	  0.03874	  4.06581	 -0.21570	  4.97439	707.35699	 24.00	
 17.006	-121.937	  4.21978	  0.69581	  3.25200	 -0.08528	  4.22012	 -0.21559	  4.97014	707.35101	 24.00	
 17.002	-116.134	  4.22285	  0.89497	  3.01231	 -0.18523	  4.35049	 -0.21786	  4.97105	707.34497	 24.00	
 17.001	-110.310	  4.23590	  1.11004	  2.76482	 -0.27296	  4.47047	 -0.21805	  4.98480	707.27899	 23.90	
 16.988	-104.517	  4.23872	  1.33282	  2.51164	 -0.32751	  4.54296	 -0.21805	  4.98199	707.32397	 23.90	
 17.008	-98.662	  4.22318	  1.56410	  2.23956	 -0.37473	  4.58259	 -0.20996	  4.96356	707.28400	 23.90	
 16.996	-92.909	  4.23996	  1.81584	  1.99017	 -0.39456	  4.62003	 -0.20459	  4.97882	707.31000	 23.90	
 16.996	-87.091	  4.23805	  2.06498	  1.73510	 -0.40337	  4.61913	 -0.20012	  4.97558	707.32898	 23.90	
 17.012	-81.253	  4.24097	  2.32269	  1.48192	 -0.38607	  4.59185	 -0.19566	  4.97648	707.34497	 23.90	
 16.988	-75.483	  4.24821	  2.57840	  1.24556	 -0.34682	  4.53888	 -0.19392	  4.98085	707.27600	 23.90	
 17.001	-69.690	  4.25010	  2.82757	  1.01748	 -0.28617	  4.45479	 -0.19646	  4.97782	707.33502	 23.90	
 17.002	-63.866	  4.24154	  3.07310	  0.79684	 -0.20884	  4.33602	 -0.20022	  4.96712	707.35101	 23.90	
 17.006	-58.063	  4.25859	  3.32138	  0.60018	 -0.11274	  4.21680	 -0.20660	  4.98340	707.25201	 23.90	
 17.001	-52.301	  4.25627	  3.53855	  0.41643	  0.00741	  4.05373	 -0.21445	  4.97451	707.23199	 23.90	
 17.007	-46.454	  4.26065	  3.75538	  0.24872	  0.14272	  3.87752	 -0.22194	  4.97825	707.24902	 23.90	
 17.014	-40.657	  4.25582	  3.94674	  0.09285	  0.29570	  3.67485	 -0.22339	  4.97206	707.27197	 23.90	
 16.988	-34.839	  4.26114	  4.11517	 -0.02879	  0.48057	  3.45588	 -0.22848	  4.96945	707.23199	 23.90	
 16.995	-29.081	  4.26929	  4.27015	 -0.13964	  0.67017	  3.23253	 -0.22948	  4.97711	707.20801	 23.90	
 16.990	-23.241	  4.25864	  4.38175	 -0.22815	  0.87597	  2.97771	 -0.23130	  4.95931	707.26801	 23.90	
 17.000	-17.404	  4.28411	  4.50453	 -0.30044	  1.10598	  2.74283	 -0.23186	  4.98719	707.20502	 23.90	
 17.009	-11.617	  4.27403	  4.56290	 -0.34874	  1.33258	  2.48662	 -0.23293	  4.97118	707.26801	 23.90	
 16.990	 -5.821	  4.28378	  4.61229	 -0.37511	  1.58178	  2.23403	 -0.23374	  4.97754	707.27802	 24.00	
 17.000	  0.000	  4.28737	  4.63582	 -0.39221	  1.83721	  1.97604	 -0.23335	  4.98013	707.26801	 24.00	
 16.990	  5.821	  4.28620	  4.62250	 -0.37868	  2.09009	  1.72534	 -0.23973	  4.97470	707.19000	 24.00	
 17.009	 11.617	  4.28266	  4.58753	 -0.35477	  2.34711	  1.47852	 -0.24383	  4.97122	707.24103	 24.00	
 17.000	 17.404	  4.29138	  4.52806	 -0.30115	  2.60488	  1.24859	 -0.24246	  4.97247	707.27002	 23.90	
 16.990	 23.241	  4.30462	  4.44679	 -0.22581	  2.87371	  1.02785	 -0.24645	  4.98326	707.30298	 23.90	
 16.995	 29.081	  4.30082	  4.32826	 -0.14005	  3.11757	  0.81601	 -0.24618	  4.97706	707.27600	 23.90	
 16.988	 34.839	  4.29980	  4.18287	 -0.02658	  3.34969	  0.62771	 -0.24380	  4.96935	707.25702	 24.00	
 17.014	 40.657	  4.30612	  4.02774	  0.09779	  3.57491	  0.45093	 -0.24201	  4.97606	707.29700	 24.00	
 17.007	 46.454	  4.31083	  3.83942	  0.25207	  3.78395	  0.29176	 -0.23774	  4.97417	707.21399	 24.00	
 17.001	 52.301	  4.31466	  3.63430	  0.42111	  3.97358	  0.15563	 -0.23667	  4.97473	707.29401	 24.00	
 17.006	 58.063	  4.31457	  3.41667	  0.60281	  4.13561	  0.03566	 -0.23742	  4.97358	707.25598	 24.00	
 17.002	 63.866	  4.31639	  3.18377	  0.80512	  4.27944	 -0.06714	 -0.24221	  4.97631	707.31299	 24.00	
 17.001	 69.690	  4.31957	  2.93836	  1.02290	  4.40152	 -0.14942	 -0.24684	  4.98168	707.24597	 24.00	
 16.988	 75.483	  4.31643	  2.68627	  1.25196	  4.47845	 -0.20198	 -0.24510	  4.97414	707.21600	 24.00	
 17.012	 81.253	  4.31498	  2.42997	  1.49507	  4.54141	 -0.24477	 -0.24601	  4.97484	707.29700	 24.00	
 16.996	 87.091	  4.31464	  2.17348	  1.74574	  4.57528	 -0.26336	 -0.24192	  4.97628	707.34302	 24.00	
 16.996	 92.909	  4.30879	  1.91960	  2.00080	  4.57496	 -0.26215	 -0.23948	  4.97230	707.31897	 24.00	
 17.008	 98.662	  4.31709	  1.67996	  2.26420	  4.56859	 -0.24519	 -0.24108	  4.98958	707.31000	 23.90	
 16.988	104.517	  4.30351	  1.43184	  2.52433	  4.50678	 -0.20411	 -0.23879	  4.97827	707.31299	 23.90	
 17.001	110.310	  4.29489	  1.20346	  2.77647	  4.42448	 -0.14584	 -0.24023	  4.97224	707.26501	 23.90	
 17.002	116.134	  4.28811	  0.98253	  3.03116	  4.31974	 -0.06887	 -0.24049	  4.97380	707.25702	 23.90	
 17.006	121.937	  4.27853	  0.77483	  3.27341	  4.18462	  0.02877	 -0.23822	  4.97132	707.28400	 23.90	
 17.001	127.699	  4.29365	  0.59448	  3.51383	  4.04669	  0.15012	 -0.23830	  4.99276	707.16498	 23.90	
 17.007	133.546	  4.28194	  0.42081	  3.72448	  3.85555	  0.29065	 -0.23322	  4.98314	707.27301	 23.80	
 17.014	139.343	  4.27315	  0.26555	  3.91806	  3.65315	  0.44582	 -0.22930	  4.98044	707.33502	 23.80	
 16.988	145.161	  4.27127	  0.13455	  4.09138	  3.42850	  0.62630	 -0.22702	  4.98126	707.25403	 23.80	
 16.995	150.919	  4.26827	  0.01797	  4.24106	  3.20277	  0.81173	 -0.22518	  4.98617	707.31299	 23.80	
 16.990	156.759	  4.26463	 -0.07262	  4.36247	  2.95132	  1.02431	 -0.22636	  4.98359	707.23499	 23.80	
 17.000	162.596	  4.25556	 -0.14981	  4.45262	  2.69002	  1.24920	 -0.22560	  4.97591	707.23499	 23.80	
 17.009	168.383	  4.25817	 -0.20406	  4.52776	  2.43204	  1.48073	 -0.22638	  4.98288	707.19800	 23.80	
 16.990	174.179	  4.25148	 -0.23768	  4.56102	  2.16987	  1.72351	 -0.22179	  4.97791	707.14899	 23.80	
 18.709	174.675	  4.08244	 -0.52262	  4.68086	  2.05113	  1.60327	 -0.22319	  4.97964	707.17603	 23.80	
 18.703	169.441	  4.08067	 -0.49480	  4.64306	  2.30332	  1.35979	 -0.22948	  4.97481	707.24402	 23.80	
 18.691	164.085	  4.09929	 -0.44507	  4.59875	  2.57460	  1.13488	 -0.23379	  4.99312	707.14697	 23.70	
 18.706	158.818	  4.09149	 -0.37456	  4.49920	  2.82252	  0.91241	 -0.23798	  4.97821	707.21100	 23.70	
 18.695	153.537	  4.10084	 -0.29609	  4.39586	  3.07615	  0.70273	 -0.23608	  4.98760	707.24402	 23.70	
 18.704	148.255	  4.09886	 -0.19523	  4.25769	  3.31069	  0.50724	 -0.23839	  4.98014	707.31299	 23.80	
 18.698	142.952	  4.09974	 -0.07517	  4.09769	  3.53337	  0.32813	 -0.23903	  4.97555	707.24902	 23.80	
 18.699	137.625	  4.10300	  0.05791	  3.91577	  3.74328	  0.16270	 -0.24162	  4.97208	707.29199	 23.80	
 18.705	132.343	  4.10333	  0.21174	  3.70999	  3.94107	  0.00581	 -0.24375	  4.96998	707.27802	 23.80	
 18.713	127.067	  4.11438	  0.38206	  3.50144	  4.12365	 -0.12122	 -0.24659	  4.97694	707.20300	 23.80	
 18.700	121.794	  4.12897	  0.56658	  3.28198	  4.28180	 -0.23121	 -0.24309	  4.98342	707.28101	 23.80	
 18.698	116.504	  4.12636	  0.76524	  3.03398	  4.40538	 -0.32665	 -0.23965	  4.97344	707.23499	 23.80	
 18.707	111.165	  4.13169	  0.98017	  2.77712	  4.51855	 -0.41116	 -0.23751	  4.97577	707.35699	 23.80	
 18.690	105.863	  4.13745	  1.20155	  2.52484	  4.59517	 -0.46559	 -0.23584	  4.97133	707.29199	 23.80	
 18.696	100.583	  4.14101	  1.43526	  2.26382	  4.65299	 -0.51365	 -0.23262	  4.97139	707.37299	 23.80	
 18.700	 95.309	  4.16047	  1.68023	  2.01380	  4.70198	 -0.54197	 -0.23470	  4.98881	707.29700	 23.80	
 18.700	 90.000	  4.17098	  1.93425	  1.76165	  4.71701	 -0.55082	 -0.23765	  4.99725	707.34302	 23.70	
 18.700	 84.691	  4.15926	  2.17789	  1.50429	  4.68178	 -0.53791	 -0.24378	  4.97740	707.28400	 23.70	
 18.696	 79.417	  4.17228	  2.44279	  1.26457	  4.65095	 -0.51194	 -0.25389	  4.99017	707.42902	 23.70	
 18.690	 74.137	  4.17154	  2.69281	  1.02913	  4.57781	 -0.46508	 -0.26133	  4.98486	707.30798	 23.70	
 18.707	 68.835	  4.16450	  2.93404	  0.80300	  4.48581	 -0.40859	 -0.26490	  4.98111	707.40503	 23.70	
 18.698	 63.496	  4.16392	  3.18031	  0.58964	  4.36470	 -0.32798	 -0.26410	  4.97934	707.28400	 23.70	
 18.700	 58.206	  4.16864	  3.41509	  0.39690	  4.22813	 -0.22643	 -0.26390	  4.98352	707.34100	 23.70	
 18.713	 52.933	  4.16967	  3.63757	  0.21745	  4.07151	 -0.11396	 -0.26413	  4.98801	707.31598	 23.70	
 18.705	 47.657	  4.16064	  3.84055	  0.04745	  3.88081	  0.01798	 -0.26675	  4.98025	707.25598	 23.70	
 18.699	 42.375	  4.15498	  4.02623	 -0.10113	  3.67701	  0.16897	 -0.26631	  4.97718	707.30499	 23.70	
 18.698	 37.048	  4.15609	  4.19845	 -0.23276	  3.46163	  0.33284	 -0.26170	  4.98076	707.31000	 23.70	
 18.704	 31.745	  4.15006	  4.34398	 -0.34382	  3.22879	  0.51579	 -0.25624	  4.97744	707.26202	 23.70	
 18.695	 26.463	  4.14664	  4.47276	 -0.44699	  2.98749	  0.70528	 -0.25161	  4.98076	707.31897	 23.70	
 18.706	 21.182	  4.14045	  4.57422	 -0.52978	  2.73522	  0.91426	 -0.24876	  4.97929	707.34302	 23.70	
 18.691	 15.915	  4.13439	  4.65435	 -0.59699	  2.48383	  1.12734	 -0.24561	  4.98060	707.28900	 23.70	
 18.703	 10.559	  4.13477	  4.71058	 -0.64132	  2.22443	  1.36536	 -0.24348	  4.98381	707.27301	 23.70	
 18.709	  5.325	  4.12579	  4.73151	 -0.66243	  1.96438	  1.60343	 -0.23805	  4.97522	707.31897	 23.70	
 18.700	  0.000	  4.12260	  4.73537	 -0.66764	  1.70789	  1.85191	 -0.23574	  4.97280	707.36401	 23.70	
 18.709	 -5.325	  4.12765	  4.73360	 -0.66924	  1.45806	  2.10792	 -0.23617	  4.98757	707.28601	 23.70	
 18.703	-10.559	  4.11461	  4.68227	 -0.64243	  1.21409	  2.35450	 -0.23593	  4.97589	707.32703	 23.70	
 18.691	-15.915	  4.11654	  4.61590	 -0.59287	  0.97992	  2.61159	 -0.23897	  4.97737	707.31097	 23.70	
 18.706	-21.182	  4.11558	  4.53739	 -0.53830	  0.76289	  2.85822	 -0.23809	  4.98471	707.31299	 23.70	
 18.695	-26.463	  4.10940	  4.41545	 -0.45632	  0.54975	  3.10548	 -0.23548	  4.97897	707.26202	 23.70	
 18.704	-31.745	  4.10439	  4.27703	 -0.36034	  0.35142	  3.33788	 -0.23127	  4.97695	707.23999	 23.70	
 18.698	-37.048	  4.10787	  4.12591	 -0.24840	  0.17462	  3.56626	 -0.22433	  4.98583	707.41602	 23.70	
 18.699	-42.375	  4.10351	  3.94648	 -0.12052	  0.00645	  3.77488	 -0.21962	  4.98528	707.34302	 23.70	
 18.705	-47.657	  4.10216	  3.75214	  0.02654	 -0.14028	  3.96952	 -0.21589	  4.98939	707.37500	 23.70	
 18.713	-52.933	  4.09631	  3.53667	  0.19516	 -0.27128	  4.14298	 -0.20322	  4.98572	707.32703	 23.70	
 18.700	-58.206	  4.09431	  3.31034	  0.37488	 -0.38385	  4.29599	 -0.19593	  4.98623	707.36499	 23.60	
 18.698	-63.496	  4.08590	  3.06953	  0.57298	 -0.48137	  4.42604	 -0.18689	  4.97909	707.33398	 23.60	
 18.707	-68.835	  4.07875	  2.81695	  0.78399	 -0.55625	  4.53047	 -0.18380	  4.97340	707.33197	 23.70	
 18.690	-74.137	  4.08480	  2.57029	  1.01360	 -0.61065	  4.61998	 -0.18188	  4.98059	707.32703	 23.70	
 18.696	-79.417	  4.08754	  2.32563	  1.24327	 -0.65578	  4.69145	 -0.18678	  4.98969	707.24902	 23.60	
 18.700	-84.691	  4.07822	  2.06862	  1.48513	 -0.67902	  4.72257	 -0.18668	  4.98222	707.34900	 23.60	
 18.700	-90.000	  4.08136	  1.81853	  1.73689	 -0.68539	  4.74173	 -0.19060	  4.99009	707.33502	 23.60	
 18.700	-95.309	  4.07117	  1.57436	  1.98571	 -0.67505	  4.72617	 -0.19629	  4.98174	707.28400	 23.60	
 18.696	-100.583	  4.07512	  1.33420	  2.25082	 -0.64868	  4.69877	 -0.20711	  4.98974	707.27802	 23.60	
 18.690	-105.863	  4.06780	  1.10422	  2.50319	 -0.59643	  4.63184	 -0.21426	  4.98213	707.32898	 23.60	
 18.707	-111.165	  4.07870	  0.88827	  2.76346	 -0.53856	  4.56644	 -0.22211	  4.99924	707.35303	 23.60	
 18.698	-116.504	  4.06470	  0.67720	  3.01017	 -0.44916	  4.44156	 -0.22446	  4.98384	707.28699	 23.60	
 18.700	-121.794	  4.06472	  0.48568	  3.25378	 -0.35080	  4.31210	 -0.22505	  4.98649	707.29999	 23.60	
 18.713	-127.067	  4.05624	  0.31137	  3.47603	 -0.22541	  4.15229	 -0.22877	  4.97807	707.29199	 23.60	
 18.705	-132.343	  4.06008	  0.14678	  3.69462	 -0.09386	  3.98339	 -0.22627	  4.98429	707.32599	 23.50	
 18.699	-137.625	  4.06189	  0.00017	  3.89724	  0.06038	  3.78950	 -0.23029	  4.98618	707.26801	 23.50	
 18.698	-142.952	  4.05606	 -0.12944	  4.07384	  0.22609	  3.57353	 -0.22402	  4.97961	707.34497	 23.50	
 18.704	-148.255	  4.04983	 -0.23907	  4.22736	  0.41089	  3.34315	 -0.21845	  4.97207	707.21100	 23.50	
 18.695	-153.537	  4.06472	 -0.32886	  4.37181	  0.61538	  3.11574	 -0.21293	  4.98225	707.33197	 23.50	
 18.706	-158.818	  4.06431	 -0.41166	  4.48712	  0.82939	  2.86851	 -0.21282	  4.98346	707.27899	 23.50	
 18.691	-164.085	  4.06687	 -0.46525	  4.57483	  1.05405	  2.61586	 -0.21523	  4.97936	707.34003	 23.50	
 18.703	-169.441	  4.06999	 -0.50771	  4.63792	  1.29285	  2.36027	 -0.21470	  4.97930	707.23999	 23.50	
 18.709	-174.675	  4.07114	 -0.53321	  4.67724	  1.53417	  2.10803	 -0.21669	  4.97918	707.28101	 23.50	
 18.700	180.000	  4.07698	 -0.53836	  4.69458	  1.79090	  1.85322	 -0.22164	  4.98080	707.24103	 23.50	
 20.400	180.000	  3.89223	 -0.82815	  4.79393	  1.66001	  1.71097	 -0.20599	  4.98265	707.28400	 23.50	
 20.401	-175.153	  3.89201	 -0.82331	  4.78328	  1.41053	  1.96616	 -0.20451	  4.98699	707.27197	 23.50	
 20.407	-170.264	  3.88354	 -0.80509	  4.74454	  1.16296	  2.21463	 -0.20086	  4.98106	707.26501	 23.50	
 20.410	-165.423	  3.87562	 -0.77466	  4.68634	  0.92336	  2.46203	 -0.19738	  4.98017	707.23798	 23.50	
 20.392	-160.496	  3.87692	 -0.71732	  4.60609	  0.69445	  2.72449	 -0.19589	  4.98303	707.31000	 23.50	
 20.401	-155.705	  3.87059	 -0.65714	  4.50547	  0.48310	  2.96207	 -0.19896	  4.98326	707.29199	 23.50	
 20.405	-150.835	  3.86991	 -0.57154	  4.37662	  0.28458	  3.20017	 -0.20287	  4.98034	707.23499	 23.50	
 20.397	-145.903	  3.86110	 -0.47240	  4.21969	  0.09103	  3.43165	 -0.21119	  4.97384	707.37500	 23.50	
 20.392	-141.062	  3.86423	 -0.36067	  4.05737	 -0.08712	  3.65240	 -0.22175	  4.97963	707.26001	 23.50	
 20.396	-136.227	  3.87059	 -0.23499	  3.88218	 -0.24550	  3.86195	 -0.22813	  4.98802	707.17499	 23.50	
 20.408	-131.372	  3.86513	 -0.08879	  3.67352	 -0.38697	  4.04560	 -0.22929	  4.98214	707.36902	 23.50	
 20.410	-126.511	  3.86559	  0.07011	  3.45436	 -0.52236	  4.21956	 -0.22548	  4.98293	707.27301	 23.50	
 20.400	-121.604	  3.87609	  0.24733	  3.22824	 -0.63216	  4.37864	 -0.22326	  4.98886	707.32898	 23.50	
 20.403	-116.741	  3.86997	  0.42946	  2.98314	 -0.73285	  4.50236	 -0.21397	  4.98132	707.20801	 23.50	
 20.413	-111.900	  3.88152	  0.63181	  2.73931	 -0.82379	  4.62497	 -0.21322	  4.99417	707.20300	 23.50	
 20.398	-107.004	  3.87727	  0.84242	  2.48443	 -0.88613	  4.70135	 -0.20448	  4.98354	707.31897	 23.50	
 20.394	-102.132	  3.89183	  1.07149	  2.23352	 -0.93473	  4.77544	 -0.18982	  4.99430	707.21100	 23.50	
 20.403	-97.332	  3.88946	  1.29979	  1.97414	 -0.96481	  4.80894	 -0.18431	  4.98650	707.13300	 23.40	
 20.392	-92.440	  3.88797	  1.54071	  1.71777	 -0.98247	  4.82258	 -0.18096	  4.98103	707.21899	 23.40	
 20.392	-87.560	  3.89317	  1.78978	  1.47141	 -0.98500	  4.82318	 -0.17167	  4.98415	707.20801	 23.40	
 20.403	-82.668	  3.89518	  2.03759	  1.22159	 -0.97899	  4.80570	 -0.16943	  4.98685	707.21301	 23.40	
 20.394	-77.868	  3.89885	  2.28673	  0.99031	 -0.94389	  4.75684	 -0.17109	  4.98272	707.20502	 23.40	
 20.398	-72.996	  3.89545	  2.53302	  0.76349	 -0.90140	  4.68583	 -0.16867	  4.97652	707.20300	 23.50	
 20.413	-68.100	  3.89847	  2.78842	  0.53596	 -0.85123	  4.60381	 -0.16737	  4.98225	707.10797	 23.40	
 20.403	-63.259	  3.90480	  3.02899	  0.34005	 -0.76608	  4.49157	 -0.17481	  4.98142	707.07599	 23.50	
 20.400	-58.396	  3.90736	  3.26429	  0.14642	 -0.67306	  4.35717	 -0.18090	  4.97867	707.18402	 23.50	
 20.410	-53.489	  3.91654	  3.50110	 -0.03584	 -0.56394	  4.20942	 -0.19250	  4.98690	707.21301	 23.50	
 20.408	-48.628	  3.91285	  3.71390	 -0.20053	 -0.43738	  4.03012	 -0.19897	  4.97929	707.13501	 23.50	
 20.396	-43.773	  3.91375	  3.90467	 -0.34440	 -0.29908	  3.84332	 -0.20750	  4.97433	707.17499	 23.50	
 20.392	-38.938	  3.90998	  4.08403	 -0.47772	 -0.14210	  3.63288	 -0.21324	  4.96641	707.24597	 23.50	
 20.397	-34.097	  3.92915	  4.26406	 -0.59514	  0.02835	  3.42962	 -0.21922	  4.98442	707.21301	 23.50	
 20.405	-29.165	  3.92471	  4.40907	 -0.69944	  0.20686	  3.19719	 -0.22641	  4.97953	707.10498	 23.50	
 20.401	-24.295	  3.92678	  4.53310	 -0.78444	  0.41148	  2.95199	 -0.22528	  4.97545	707.16803	 23.50	
 20.392	-19.504	  3.93293	  4.63847	 -0.85477	  0.61821	  2.71326	 -0.23169	  4.98097	707.14899	 23.50	
 20.410	-14.577	  3.93308	  4.71764	 -0.90846	  0.84572	  2.45533	 -0.22621	  4.97761	707.10303	 23.50	
 20.407	 -9.736	  3.94533	  4.78596	 -0.94754	  1.07406	  2.21675	 -0.22876	  4.98845	707.12402	 23.50	
 20.401	 -4.847	  3.95208	  4.82279	 -0.96487	  1.31763	  1.96437	 -0.22253	  4.98966	707.09302	 23.50	
 20.400	  0.000	  3.94187	  4.82234	 -0.96711	  1.55924	  1.71096	 -0.22455	  4.97228	707.13501	 23.50	
 20.401	  4.847	  3.95171	  4.83020	 -0.96689	  1.81242	  1.46962	 -0.22783	  4.98503	707.15100	 23.50	
 20.407	  9.736	  3.94640	  4.79524	 -0.94176	  2.06445	  1.22867	 -0.23021	  4.97462	707.15900	 23.60	
 20.410	 14.577	  3.95498	  4.75512	 -0.90557	  2.32122	  0.99867	 -0.23491	  4.98151	707.12799	 23.60	
 20.392	 19.504	  3.95861	  4.68145	 -0.84515	  2.58058	  0.77599	 -0.23506	  4.97923	707.17102	 23.60	
 20.401	 24.295	  3.95747	  4.58302	 -0.77218	  2.82731	  0.57032	 -0.24049	  4.97073	707.21399	 23.60	
 20.405	 29.165	  3.96904	  4.47664	 -0.68806	  3.07325	  0.37705	 -0.25034	  4.97846	707.13300	 23.60	
 20.397	 34.097	  3.97820	  4.33913	 -0.57793	  3.31994	  0.19267	 -0.26210	  4.98098	707.17297	 23.60	
 20.392	 38.938	  3.97799	  4.18030	 -0.46079	  3.54099	  0.02393	 -0.27123	  4.97556	707.17902	 23.60	
 20.396	 43.773	  3.98738	  4.01366	 -0.33011	  3.75979	 -0.13475	 -0.27791	  4.98725	707.22198	 23.60	
 20.408	 48.628	  3.98069	  3.81610	 -0.18604	  3.94697	 -0.27914	 -0.28037	  4.97672	707.20300	 23.60	
 20.410	 53.489	  3.99148	  3.61201	 -0.01846	  4.13413	 -0.40272	 -0.28150	  4.98494	707.26001	 23.60	
 20.400	 58.396	  3.98520	  3.38403	  0.15871	  4.28875	 -0.51260	 -0.27683	  4.97666	707.23199	 23.60	
 20.403	 63.259	  3.99012	  3.15382	  0.35229	  4.43450	 -0.60832	 -0.27176	  4.98039	707.30798	 23.60	
 20.413	 68.100	  3.98871	  2.91559	  0.55687	  4.55232	 -0.68682	 -0.26664	  4.98086	707.34900	 23.60	
 20.398	 72.996	  3.98277	  2.66263	  0.77910	  4.63754	 -0.74513	 -0.26019	  4.97094	707.29401	 23.60	
 20.394	 77.868	  3.98967	  2.42258	  1.00419	  4.72003	 -0.79454	 -0.25356	  4.98235	707.17603	 23.60	
 20.403	 82.668	  3.98527	  2.16799	  1.24027	  4.76766	 -0.82479	 -0.23728	  4.97938	707.23499	 23.60	
 20.392	 87.560	  3.97577	  1.91461	  1.48531	  4.78519	 -0.83603	 -0.22467	  4.97127	707.22900	 23.60	
 20.392	 92.440	  3.97664	  1.67252	  1.73439	  4.79399	 -0.83834	 -0.22110	  4.97618	707.29401	 23.60	
 20.403	 97.332	  3.96799	  1.42463	  1.99002	  4.77495	 -0.82411	 -0.22008	  4.97375	707.20599	 23.60	
 20.394	102.132	  3.96229	  1.19057	  2.24042	  4.73515	 -0.79157	 -0.22045	  4.97292	707.21899	 23.70	
 20.398	107.004	  3.95430	  0.95954	  2.49859	  4.67125	 -0.74893	 -0.21818	  4.97189	707.16498	 23.70	
 20.413	111.900	  3.94490	  0.73935	  2.74976	  4.58147	 -0.68442	 -0.22162	  4.96689	707.19000	 23.70	
 20.403	116.741	  3.94188	  0.53734	  2.99798	  4.47733	 -0.60665	 -0.22764	  4.97020	707.23700	 23.70	
 20.400	121.604	  3.93929	  0.34784	  3.24279	  4.34839	 -0.51154	 -0.23175	  4.97342	707.25201	 23.70	
 20.410	126.511	  3.93348	  0.16525	  3.47247	  4.19564	 -0.40363	 -0.23774	  4.97227	707.21100	 23.70	
 20.408	131.372	  3.92418	 -0.00183	  3.68863	  4.01639	 -0.27212	 -0.24036	  4.96702	707.23999	 23.80	
 20.396	136.227	  3.91839	 -0.15099	  3.88771	  3.82948	 -0.13604	 -0.24409	  4.96779	707.26398	 23.80	
 20.392	141.062	  3.91864	 -0.28844	  4.07586	  3.62526	  0.02183	 -0.24088	  4.97302	707.28900	 23.80	
 20.397	145.903	  3.91812	 -0.40609	  4.24445	  3.40857	  0.19222	 -0.24180	  4.97652	707.25598	 23.80	
 20.405	150.835	  3.90295	 -0.51821	  4.38467	  3.16930	  0.36938	 -0.23883	  4.97007	707.34003	 23.80	
 20.401	155.705	  3.90572	 -0.61080	  4.51620	  2.92847	  0.57036	 -0.23761	  4.97553	707.28400	 23.80	
 20.392	160.496	  3.89902	 -0.67747	  4.60641	  2.67844	  0.77816	 -0.23256	  4.96827	707.30200	 23.80	
 20.410	165.423	  3.88984	 -0.74114	  4.68056	  2.41675	  0.99548	 -0.22737	  4.96361	707.24103	 23.80	
 20.407	170.264	  3.89637	 -0.78522	  4.74685	  2.16869	  1.22893	 -0.22014	  4.97723	707.42297	 23.80	
 20.401	175.153	  3.89335	 -0.81298	  4.77747	  1.91355	  1.46813	 -0.21509	  4.97694	707.23999	 23.80	
  0.141	 45.000	  4.98914	  2.67884	  2.53359	  2.56314	  2.63015	  0.03157	  4.98217	707.31598	 23.80	
  4.001	128.691	  4.96214	  2.26349	  2.85398	  2.96173	  2.15327	  0.01000	  4.96923	707.27197	 23.80	
  4.002	 76.995	  4.95777	  2.74162	  2.35311	  3.07529	  2.04021	  0.00842	  4.96372	707.33502	 23.80	
  4.002	 25.892	  4.97172	  3.16249	  1.97605	  2.74172	  2.33695	  0.00507	  4.97880	707.24597	 23.80	
  4.002	-25.892	  4.95967	  3.14527	  1.96690	  2.21980	  2.84423	 -0.00172	  4.97018	707.28699	 23.80	
  4.002	-76.995	  4.96384	  2.72655	  2.34882	  1.92707	  3.18368	 -0.00429	  4.97607	707.26501	 23.80	
  4.001	-128.691	  4.95990	  2.24398	  2.85240	  2.03960	  3.06265	  0.00391	  4.97473	707.24597	 23.80	
  4.000	180.000	  4.96976	  2.05596	  3.09954	  2.49085	  2.59389	  0.00812	  4.98143	707.22998	 23.80	
  8.000	180.000	  4.86889	  1.35573	  3.65499	  2.38785	  2.48175	 -0.05274	  4.98468	707.27600	 23.80	
  7.991	-152.370	  4.85302	  1.46075	  3.49386	  1.82095	  3.05370	 -0.06043	  4.97445	707.22699	 23.80	
  7.997	-124.550	  4.85497	  1.80139	  3.08072	  1.40780	  3.51641	 -0.06141	  4.97870	707.25598	 23.80	
  8.006	-96.837	  4.85036	  2.32004	  2.50590	  1.20579	  3.73716	 -0.07905	  4.97641	707.26202	 23.80	
  7.988	-69.228	  4.85539	  2.90387	  1.93146	  1.26614	  3.65411	 -0.08446	  4.97702	707.26398	 23.80	
  7.997	-41.563	  4.84899	  3.40279	  1.47669	  1.55635	  3.29571	 -0.07570	  4.96637	707.23199	 23.80	
  8.008	-13.821	  4.85711	  3.70541	  1.23331	  2.05210	  2.76040	 -0.07114	  4.97023	707.15900	 23.80	
  8.008	 13.821	  4.86626	  3.72654	  1.23296	  2.64272	  2.18090	 -0.06082	  4.97506	707.26001	 23.80	
  7.997	 41.563	  4.87053	  3.44770	  1.48311	  3.19267	  1.69323	 -0.05738	  4.97313	707.16302	 23.80	
  7.988	 69.228	  4.88114	  2.95789	  1.94564	  3.56089	  1.40450	 -0.05747	  4.97882	707.26001	 23.80	
  8.006	 96.837	  4.87842	  2.37871	  2.51338	  3.65080	  1.34398	 -0.05998	  4.97743	707.23199	 23.80	
  7.997	124.550	  4.86380	  1.84863	  3.07757	  3.42381	  1.52687	 -0.05924	  4.96579	707.14899	 23.80	
  7.991	152.370	  4.86727	  1.49167	  3.49735	  2.96933	  1.93053	 -0.05232	  4.97555	707.20001	 23.80	
 12.009	161.059	  4.65830	  0.72629	  4.01838	  2.82616	  1.71509	 -0.14347	  4.97894	707.24799	 23.80	
 12.013	142.081	  4.66268	  0.97197	  3.71309	  3.38816	  1.22284	 -0.13905	  4.97984	707.26001	 23.80	
 12.006	123.113	  4.66778	  1.38214	  3.23025	  3.81583	  0.86556	 -0.15518	  4.97129	707.32098	 23.80	
 12.007	104.200	  4.68148	  1.90681	  2.64666	  4.07832	  0.65961	 -0.16453	  4.97769	707.24902	 23.70	
 11.989	 85.301	  4.69199	  2.49981	  2.04199	  4.11790	  0.62218	 -0.16146	  4.97975	707.19202	 23.70	
 12.013	 66.294	  4.69541	  3.09361	  1.47507	  3.95900	  0.73627	 -0.14491	  4.98552	707.27197	 23.70	
 12.012	 47.388	  4.68940	  3.61888	  1.00422	  3.58542	  1.02306	 -0.13910	  4.98283	707.28699	 23.70	
 11.990	 28.440	  4.67516	  3.98898	  0.67686	  3.06205	  1.45074	 -0.15508	  4.97259	707.34302	 23.70	
 11.991	  9.464	  4.66937	  4.18648	  0.50513	  2.46250	  1.99306	 -0.15547	  4.97657	707.27197	 23.70	
 11.991	 -9.464	  4.66150	  4.17279	  0.50311	  1.85779	  2.58682	 -0.16085	  4.97546	707.18201	 23.70	
 11.990	-28.440	  4.65174	  3.95128	  0.66500	  1.31177	  3.16728	 -0.15915	  4.97236	707.23199	 23.70	
 12.012	-47.388	  4.64460	  3.55042	  0.98829	  0.87442	  3.67432	 -0.17088	  4.97296	707.26801	 23.70	
 12.013	-66.294	  4.63495	  3.01192	  1.45152	  0.59775	  4.01632	 -0.17917	  4.96663	707.31897	 23.70	
 11.989	-85.301	  4.63616	  2.41786	  2.01923	  0.47568	  4.18455	 -0.18068	  4.97321	707.23199	 23.70	
 12.007	-104.200	  4.63633	  1.83254	  2.62932	  0.52419	  4.13843	 -0.16943	  4.97761	707.09802	 23.70	
 12.006	-123.113	  4.63948	  1.32402	  3.21557	  0.74107	  3.88971	 -0.14508	  4.98316	707.17902	 23.70	
 12.013	-142.081	  4.63118	  0.93172	  3.69153	  1.10968	  3.45220	 -0.14897	  4.97364	707.18201	 23.70	
 12.009	-161.059	  4.64060	  0.69953	  4.00900	  1.61994	  2.89386	 -0.15705	  4.97607	707.23700	 23.70	
 16.000	180.000	  4.33106	 -0.08542	  4.48873	  1.96928	  2.04053	 -0.21744	  4.97020	707.15100	 23.70	
 15.990	-165.604	  4.32403	 -0.03873	  4.40781	  1.38010	  2.64515	 -0.22007	  4.97265	707.17499	 23.70	
 16.002	-151.165	  4.32485	  0.12611	  4.17279	  0.84951	  3.23549	 -0.21970	  4.98423	707.20801	 23.70	
 16.002	-136.836	  4.31692	  0.41467	  3.77716	  0.41351	  3.74759	 -0.21440	  4.97730	707.21399	 23.70	
 15.995	-122.439	  4.31997	  0.80814	  3.26961	  0.08014	  4.16187	 -0.20762	  4.98006	707.18201	 23.70	
 15.993	-107.966	  4.31809	  1.29533	  2.68686	 -0.13564	  4.42454	 -0.21556	  4.97077	707.20300	 23.70	
 16.005	-93.629	  4.32879	  1.85790	  2.08330	 -0.23185	  4.54863	 -0.21846	  4.97825	707.22998	 23.70	
 15.992	-79.234	  4.33522	  2.45819	  1.48701	 -0.21098	  4.50853	 -0.20931	  4.98120	707.17902	 23.70	
 16.009	-64.774	  4.34063	  3.04989	  0.94881	 -0.06377	  4.30638	 -0.20847	  4.97785	707.19202	 23.70	
 15.997	-50.364	  4.34980	  3.59754	  0.49638	  0.20189	  3.95845	 -0.21980	  4.97844	707.27301	 23.70	
 15.997	-36.045	  4.35513	  4.04421	  0.14600	  0.57481	  3.49316	 -0.22168	  4.97792	707.20801	 23.70	
 16.000	-21.597	  4.36069	  4.36292	 -0.08752	  1.04723	  2.93946	 -0.22462	  4.97589	707.23798	 23.70	
 16.003	 -7.169	  4.37283	  4.53996	 -0.21098	  1.60860	  2.34428	 -0.22827	  4.98359	707.23999	 23.70	
 16.003	  7.169	  4.37777	  4.55101	 -0.21046	  2.20568	  1.75259	 -0.23204	  4.98094	707.24597	 23.70	
 16.000	 21.597	  4.38514	  4.41282	 -0.09244	  2.81300	  1.19899	 -0.23644	  4.98146	707.19000	 23.70	
 15.997	 36.045	  4.39317	  4.11038	  0.14962	  3.39112	  0.72210	 -0.23200	  4.97912	707.22900	 23.70	
 15.997	 50.364	  4.39928	  3.67771	  0.50421	  3.87336	  0.34507	 -0.22048	  4.97517	707.08197	 23.70	
 16.009	 64.774	  4.39649	  3.14588	  0.95363	  4.23696	  0.07470	 -0.22509	  4.97367	707.22699	 23.70	
 15.992	 79.234	  4.40640	  2.56535	  1.49939	  4.45269	 -0.06496	 -0.23673	  4.98084	707.22101	 23.70	
 16.005	 93.629	  4.39909	  1.96340	  2.09316	  4.50652	 -0.09666	 -0.23774	  4.98144	707.23499	 23.70	
 15.993	107.966	  4.38518	  1.39323	  2.70233	  4.39351	 -0.01046	 -0.23691	  4.97976	707.16803	 23.60	
 15.995	122.439	  4.37376	  0.88746	  3.29034	  4.11777	  0.20023	 -0.23298	  4.97703	707.15503	 23.60	
 16.002	136.836	  4.36411	  0.47922	  3.79298	  3.70802	  0.52271	 -0.22017	  4.97947	707.18201	 23.60	
 16.002	151.165	  4.35818	  0.17197	  4.18871	  3.18330	  0.94906	 -0.21686	  4.98401	707.27002	 23.60	
 15.990	165.604	  4.34420	 -0.01599	  4.41803	  2.58434	  1.46695	 -0.21988	  4.97534	707.24799	 23.60	
 20.003	168.362	  3.93963	 -0.70362	  4.70467	  2.28920	  1.17750	 -0.22936	  4.97375	707.27301	 23.60	
 20.008	156.764	  3.94633	 -0.56612	  4.52331	  2.88380	  0.66405	 -0.24012	  4.97541	707.19800	 23.60	
 20.000	145.147	  3.95760	 -0.32914	  4.20652	  3.44048	  0.21814	 -0.24739	  4.97277	707.31799	 23.60	
 19.995	133.545	  3.97505	 -0.01708	  3.78856	  3.93700	 -0.15444	 -0.24945	  4.98301	707.25201	 23.60	
 20.009	121.926	  3.98737	  0.38532	  3.27158	  4.32778	 -0.43781	 -0.23868	  4.97981	707.33398	 23.60	
 20.005	110.327	  3.98938	  0.85681	  2.68884	  4.59175	 -0.63615	 -0.22718	  4.96736	707.24902	 23.60	
 19.989	 98.733	  4.01753	  1.39574	  2.09954	  4.75056	 -0.74408	 -0.22189	  4.97900	707.18903	 23.60	
 19.999	 87.075	  4.02136	  1.96519	  1.50299	  4.76337	 -0.76551	 -0.23160	  4.97262	707.22998	 23.60	
 19.992	 75.457	  4.02662	  2.55653	  0.94068	  4.66014	 -0.70043	 -0.25911	  4.97307	707.22699	 23.60	
 20.009	 63.844	  4.03620	  3.13598	  0.43690	  4.43731	 -0.54993	 -0.27227	  4.98379	707.31799	 23.60	
 19.989	 52.269	  4.02937	  3.66117	  0.00238	  4.07776	 -0.30393	 -0.27893	  4.97715	707.21301	 23.60	
 19.999	 40.602	  4.02178	  4.11350	 -0.35026	  3.61511	  0.02779	 -0.27038	  4.97623	707.21600	 23.60	
 20.004	 29.051	  4.01198	  4.46523	 -0.61973	  3.08347	  0.43410	 -0.25276	  4.97945	707.30200	 23.60	
 20.005	 17.433	  3.98975	  4.68333	 -0.79807	  2.48909	  0.91470	 -0.23922	  4.96529	707.20801	 23.70	
 20.006	  5.780	  3.98546	  4.79037	 -0.88385	  1.89107	  1.45702	 -0.23193	  4.96761	707.27002	 23.70	
 20.006	 -5.780	  3.98383	  4.78444	 -0.88935	  1.31206	  2.03550	 -0.22993	  4.97323	707.18903	 23.70	
 20.005	-17.433	  3.97087	  4.65184	 -0.80786	  0.76236	  2.61761	 -0.23205	  4.96987	707.22101	 23.70	
 20.004	-29.051	  3.96360	  4.39152	 -0.62932	  0.27857	  3.18785	 -0.23068	  4.96931	707.20801	 23.70	
 19.999	-40.602	  3.95057	  4.01607	 -0.37047	 -0.13429	  3.69862	 -0.21844	  4.96321	707.21600	 23.70	
 19.989	-52.269	  3.94663	  3.54774	 -0.01869	 -0.46341	  4.14123	 -0.19590	  4.96729	707.19800	 23.80	
 20.009	-63.844	  3.94117	  3.00893	  0.41395	 -0.70360	  4.47888	 -0.18363	  4.97109	707.18103	 23.80	
 19.992	-75.457	  3.93952	  2.43463	  0.92010	 -0.85006	  4.69788	 -0.17771	  4.97401	707.29401	 23.80	
 19.999	-87.075	  3.93034	  1.84502	  1.47616	 -0.91152	  4.79206	 -0.18275	  4.97262	707.22699	 23.80	
 19.989	-98.733	  3.91922	  1.27381	  2.07008	 -0.88154	  4.76149	 -0.19482	  4.96864	707.63098	 23.80	
 20.005	-110.327	  3.91212	  0.75433	  2.66052	 -0.76666	  4.61496	 -0.21161	  4.96940	707.22900	 23.90	
 20.009	-121.926	  3.90099	  0.29171	  3.23307	 -0.55568	  4.33314	 -0.22563	  4.96351	707.12000	 23.90	
 19.995	-133.545	  3.90057	 -0.08645	  3.74674	 -0.25804	  3.94433	 -0.23333	  4.96422	707.27600	 23.90	
 20.000	-145.147	  3.90256	 -0.38097	  4.17310	  0.12221	  3.46447	 -0.21735	  4.96384	707.26501	 23.90	
 20.008	-156.764	  3.90905	 -0.60051	  4.50071	  0.57675	  2.91992	 -0.20160	  4.97221	707.21100	 23.90	
 20.003	-168.362	  3.91973	 -0.72095	  4.69177	  1.11121	  2.33178	 -0.20256	  4.97040	707.22400	 23.90	
 20.000	180.000	  3.93342	 -0.75167	  4.76111	  1.69075	  1.74573	 -0.21119	  4.97252	707.23499	 23.90	
