FileType=PCF
NHL=14
Date=10/23/18	16:58:01
Facility=APL
Serial=16328-5
Customer=NASA
NP=6
Mach=0.050000
Calibration=1:1
CalPts=490
TstPts=95
PortNumbering=AP Standard
Units=Torr C m/s kg/m^3 deg mm 
Theta[deg]	Phi[deg]	P1[Torr]	P2[Torr]	P3[Torr]	P4[Torr]	P5[Torr]	P6[Torr]	Pt[Torr]	Ps[Abs,Torr]	Ts[C]	
  0.000	  0.000	  1.22936	  0.66347	  0.64319	  0.64599	  0.65521	  0.00549	  1.22128	707.42902	 23.70	
  1.691	128.401	  1.23240	  0.63740	  0.66805	  0.67820	  0.62031	  0.00496	  1.22429	707.67999	 23.70	
  1.692	 77.194	  1.23054	  0.67696	  0.62338	  0.68809	  0.60927	  0.00513	  1.22302	707.43201	 23.70	
  1.699	 26.182	  1.23048	  0.71575	  0.58636	  0.65807	  0.63235	  0.00450	  1.22250	707.00299	 23.70	
  1.699	-26.182	  1.22860	  0.71429	  0.58371	  0.60863	  0.68019	  0.00335	  1.22053	707.06201	 23.70	
  1.692	-77.194	  1.22274	  0.67086	  0.61615	  0.57930	  0.70909	  0.00328	  1.21448	707.13599	 23.70	
  1.691	-128.401	  1.22803	  0.63130	  0.66455	  0.59203	  0.70018	  0.00311	  1.21977	707.15698	 23.70	
  1.700	180.000	  1.22955	  0.61454	  0.68856	  0.63381	  0.65718	  0.00409	  1.22179	707.04999	 23.70	
  3.400	180.000	  1.22824	  0.54743	  0.75102	  0.62783	  0.65276	  0.00116	  1.22251	706.98999	 23.70	
  3.388	-152.325	  1.22527	  0.55633	  0.73423	  0.57249	  0.70732	  0.00105	  1.21968	706.96600	 23.70	
  3.397	-124.529	  1.22153	  0.58803	  0.69225	  0.53015	  0.75094	  0.00042	  1.21533	707.05200	 23.60	
  3.399	-96.763	  1.22402	  0.63990	  0.63922	  0.51304	  0.77365	  0.00018	  1.21838	707.07599	 23.60	
  3.394	-69.283	  1.22279	  0.69477	  0.58309	  0.51789	  0.76510	 -0.00033	  1.21713	707.04303	 23.60	
  3.400	-41.398	  1.22779	  0.74797	  0.54089	  0.54914	  0.73306	 -0.00068	  1.22228	707.17102	 23.60	
  3.401	-14.021	  1.22615	  0.77734	  0.51418	  0.59537	  0.67994	  0.00016	  1.22053	707.60901	 23.60	
  3.401	 14.021	  1.22585	  0.77837	  0.51408	  0.65475	  0.62098	  0.00081	  1.21978	707.03003	 23.60	
  3.400	 41.398	  1.22494	  0.75106	  0.53875	  0.70525	  0.57349	  0.00162	  1.21913	707.16803	 23.60	
  3.394	 69.283	  1.22723	  0.70267	  0.58433	  0.74231	  0.54551	  0.00218	  1.22118	707.31799	 23.60	
  3.399	 96.763	  1.22847	  0.64835	  0.63946	  0.75138	  0.54212	  0.00186	  1.22237	707.42102	 23.60	
  3.397	124.529	  1.22425	  0.59589	  0.69231	  0.72794	  0.55783	  0.00253	  1.21842	707.11700	 23.60	
  3.388	152.325	  1.22359	  0.55999	  0.73296	  0.68269	  0.59698	  0.00212	  1.21758	707.61700	 23.60	
  5.099	161.165	  1.22086	  0.48821	  0.79919	  0.68067	  0.58550	 -0.00287	  1.22033	707.69598	 23.60	
  5.109	142.013	  1.22109	  0.51358	  0.77005	  0.73675	  0.53400	 -0.00282	  1.22017	707.78497	 23.60	
  5.095	123.033	  1.21875	  0.55567	  0.71914	  0.77845	  0.49732	 -0.00298	  1.21701	707.74701	 23.60	
  5.105	104.191	  1.22179	  0.60935	  0.66319	  0.80653	  0.47551	 -0.00318	  1.21964	707.77698	 23.60	
  5.093	 85.207	  1.22370	  0.66989	  0.60275	  0.81205	  0.47231	 -0.00256	  1.22141	707.75800	 23.60	
  5.104	 66.290	  1.22082	  0.72741	  0.54464	  0.79274	  0.48361	 -0.00305	  1.21833	707.75800	 23.60	
  5.094	 47.331	  1.22446	  0.78219	  0.49804	  0.75876	  0.51426	 -0.00310	  1.22282	707.80701	 23.60	
  5.089	 28.397	  1.22138	  0.81844	  0.46279	  0.70574	  0.55843	 -0.00293	  1.22001	707.70599	 23.60	
  5.096	  9.576	  1.22172	  0.83819	  0.44494	  0.64808	  0.61198	 -0.00447	  1.22024	707.74500	 23.60	
  5.096	 -9.576	  1.22242	  0.83763	  0.44542	  0.58601	  0.67492	 -0.00479	  1.22140	707.69800	 23.60	
  5.089	-28.397	  1.22166	  0.81508	  0.46192	  0.53048	  0.73395	 -0.00527	  1.22102	707.69098	 23.60	
  5.094	-47.331	  1.22277	  0.77721	  0.49570	  0.48569	  0.78540	 -0.00570	  1.22291	707.67200	 23.60	
  5.104	-66.290	  1.22140	  0.72235	  0.54357	  0.45594	  0.81919	 -0.00644	  1.22195	707.48798	 23.60	
  5.093	-85.207	  1.22200	  0.66277	  0.60230	  0.44382	  0.83524	 -0.00594	  1.22254	707.53497	 23.60	
  5.105	-104.191	  1.21822	  0.60172	  0.66099	  0.44812	  0.82739	 -0.00559	  1.21917	707.10101	 23.60	
  5.095	-123.033	  1.21689	  0.54944	  0.71717	  0.46977	  0.80107	 -0.00492	  1.21784	707.31299	 23.60	
  5.109	-142.013	  1.21702	  0.50777	  0.76513	  0.50700	  0.75915	 -0.00449	  1.21871	707.63702	 23.60	
  5.099	-161.165	  1.22070	  0.48422	  0.79885	  0.56141	  0.70381	 -0.00378	  1.22153	707.68201	 23.60	
  5.100	180.000	  1.22338	  0.47772	  0.81149	  0.62126	  0.64524	 -0.00379	  1.22374	707.82300	 23.60	
  6.800	180.000	  1.21408	  0.40716	  0.86973	  0.61163	  0.63432	 -0.01003	  1.22505	707.12000	 23.60	
  6.796	-166.229	  1.21005	  0.41121	  0.85940	  0.55189	  0.69213	 -0.00954	  1.22145	707.17297	 23.60	
  6.808	-152.311	  1.21306	  0.42911	  0.83930	  0.49827	  0.75222	 -0.01074	  1.22498	707.62903	 23.60	
  6.795	-138.383	  1.21029	  0.45779	  0.79995	  0.44863	  0.80358	 -0.01042	  1.22224	707.63898	 23.60	
  6.792	-124.591	  1.20635	  0.49586	  0.75018	  0.41106	  0.84207	 -0.01176	  1.21879	707.63898	 23.60	
  6.787	-110.754	  1.20941	  0.54761	  0.69564	  0.38617	  0.87357	 -0.01342	  1.22125	707.62299	 23.60	
  6.800	-96.985	  1.21159	  0.60387	  0.63662	  0.37241	  0.89122	 -0.01355	  1.22329	707.63397	 23.60	
  6.800	-83.015	  1.21150	  0.66371	  0.57608	  0.37221	  0.89042	 -0.01409	  1.22309	707.65900	 23.60	
  6.787	-69.246	  1.21089	  0.72343	  0.51800	  0.38389	  0.87361	 -0.01379	  1.22183	707.61499	 23.60	
  6.792	-55.409	  1.21173	  0.77969	  0.46806	  0.40923	  0.84411	 -0.01282	  1.22334	707.31598	 23.60	
  6.795	-41.617	  1.21174	  0.82671	  0.42670	  0.44445	  0.80254	 -0.01255	  1.22260	707.63898	 23.50	
  6.808	-27.689	  1.21003	  0.86305	  0.39365	  0.49002	  0.74935	 -0.01286	  1.22055	707.64502	 23.50	
  6.796	-13.771	  1.21134	  0.88591	  0.37697	  0.54539	  0.69173	 -0.01308	  1.22096	707.56897	 23.50	
  6.800	  0.000	  1.21014	  0.89430	  0.36968	  0.60180	  0.63091	 -0.01224	  1.21899	707.66699	 23.50	
  6.796	 13.771	  1.21368	  0.88992	  0.37750	  0.66407	  0.57572	 -0.01099	  1.22345	707.66302	 23.50	
  6.808	 27.689	  1.21371	  0.86932	  0.39579	  0.72323	  0.52052	 -0.01032	  1.22159	707.59302	 23.50	
  6.795	 41.617	  1.21039	  0.83135	  0.42693	  0.77461	  0.47262	 -0.00970	  1.21834	707.72302	 23.50	
  6.792	 55.409	  1.21495	  0.78801	  0.46984	  0.82068	  0.43849	 -0.00922	  1.22253	707.68298	 23.50	
  6.787	 69.246	  1.21233	  0.73149	  0.51998	  0.84932	  0.41419	 -0.00957	  1.21948	707.66699	 23.50	
  6.800	 83.015	  1.21636	  0.67618	  0.57770	  0.86835	  0.40353	 -0.00900	  1.22400	707.66302	 23.50	
  6.800	 96.985	  1.21701	  0.61679	  0.63817	  0.87015	  0.40367	 -0.00967	  1.22490	707.33502	 23.50	
  6.787	110.754	  1.21539	  0.56058	  0.69739	  0.85369	  0.41743	 -0.00961	  1.22303	707.68701	 23.50	
  6.792	124.591	  1.21747	  0.51099	  0.75484	  0.82679	  0.44232	 -0.00976	  1.22521	707.74402	 23.40	
  6.795	138.383	  1.21659	  0.46852	  0.80183	  0.78531	  0.47666	 -0.00892	  1.22554	707.59698	 23.40	
  6.808	152.311	  1.21487	  0.43606	  0.83851	  0.73178	  0.52284	 -0.00937	  1.22401	707.63397	 23.40	
  6.796	166.229	  1.21553	  0.41630	  0.86199	  0.67251	  0.57812	 -0.01008	  1.22514	707.66602	 23.40	
  8.491	168.704	  1.19947	  0.34146	  0.91692	  0.66042	  0.56068	 -0.01884	  1.22459	707.65601	 23.40	
  8.502	157.493	  1.19686	  0.35684	  0.89585	  0.71963	  0.50299	 -0.01747	  1.22072	707.59900	 23.40	
  8.494	146.194	  1.20007	  0.38454	  0.86711	  0.77879	  0.45375	 -0.01685	  1.22363	707.59900	 23.40	
  8.495	135.039	  1.20438	  0.42154	  0.82766	  0.83096	  0.41229	 -0.01666	  1.22775	707.63397	 23.40	
  8.487	123.723	  1.20270	  0.46466	  0.77491	  0.87126	  0.37653	 -0.01762	  1.22461	707.68201	 23.30	
  8.492	112.575	  1.20191	  0.51503	  0.71743	  0.90154	  0.34942	 -0.01810	  1.22321	707.61700	 23.30	
  8.510	101.220	  1.20533	  0.57373	  0.65727	  0.92157	  0.33480	 -0.01741	  1.22600	707.62598	 23.30	
  8.500	 90.000	  1.20915	  0.63454	  0.59783	  0.93027	  0.33042	 -0.01649	  1.22994	707.65802	 23.30	
  8.510	 78.780	  1.20298	  0.69294	  0.53350	  0.91760	  0.33377	 -0.01697	  1.22324	707.53101	 23.30	
  8.492	 67.425	  1.20292	  0.75341	  0.47551	  0.89803	  0.34896	 -0.01619	  1.22380	707.59698	 23.30	
  8.487	 56.277	  1.20466	  0.80930	  0.42603	  0.86642	  0.37502	 -0.01519	  1.22473	707.53900	 23.30	
  8.495	 44.961	  1.20106	  0.85709	  0.38090	  0.82007	  0.40959	 -0.01595	  1.22160	707.57501	 23.30	
  8.494	 33.806	  1.20366	  0.89776	  0.34732	  0.77235	  0.45296	 -0.01688	  1.22445	707.67902	 23.30	
  8.502	 22.507	  1.20316	  0.92847	  0.31942	  0.71471	  0.50313	 -0.01715	  1.22522	707.67902	 23.30	
  8.491	 11.296	  1.20004	  0.94405	  0.30371	  0.65135	  0.55918	 -0.01781	  1.22261	707.58197	 23.30	
  8.500	  0.000	  1.19866	  0.94865	  0.29742	  0.58856	  0.61829	 -0.01940	  1.22170	707.57001	 23.30	
  8.491	-11.296	  1.20242	  0.94506	  0.30157	  0.52881	  0.68338	 -0.02120	  1.22698	707.59900	 23.30	
  8.502	-22.507	  1.19924	  0.92271	  0.31696	  0.47055	  0.74202	 -0.02096	  1.22468	707.60498	 23.30	
  8.494	-33.806	  1.19938	  0.89070	  0.34305	  0.42128	  0.79798	 -0.02058	  1.22532	707.65002	 23.20	
  8.495	-44.961	  1.19829	  0.84862	  0.37751	  0.37796	  0.84727	 -0.02086	  1.22442	707.67200	 23.20	
  8.487	-56.277	  1.19958	  0.79822	  0.42246	  0.34225	  0.89030	 -0.02294	  1.22592	707.70599	 23.20	
  8.492	-67.425	  1.19964	  0.74240	  0.47369	  0.31769	  0.92139	 -0.02330	  1.22691	707.64502	 23.20	
  8.510	-78.780	  1.19561	  0.67917	  0.52976	  0.30001	  0.93875	 -0.02244	  1.22325	707.61798	 23.20	
  8.500	-90.000	  1.19682	  0.61959	  0.59035	  0.29656	  0.94649	 -0.02262	  1.22514	707.56702	 23.20	
  8.510	-101.220	  1.19667	  0.55913	  0.65326	  0.30201	  0.94064	 -0.02304	  1.22506	707.60999	 23.20	
  8.492	-112.575	  1.19519	  0.50223	  0.71405	  0.31880	  0.91969	 -0.02094	  1.22384	707.56097	 23.20	
  8.487	-123.723	  1.19114	  0.45066	  0.76890	  0.34432	  0.88553	 -0.01941	  1.21962	707.63202	 23.20	
  8.495	-135.039	  1.19506	  0.40919	  0.82206	  0.38213	  0.84732	 -0.01896	  1.22345	707.60498	 23.20	
  8.494	-146.194	  1.19734	  0.37677	  0.86460	  0.42725	  0.79960	 -0.01894	  1.22563	707.61798	 23.20	
  8.502	-157.493	  1.19952	  0.35265	  0.89867	  0.47932	  0.74441	 -0.01813	  1.22712	707.67401	 23.20	
  8.491	-168.704	  1.19864	  0.33777	  0.91814	  0.53722	  0.68242	 -0.01784	  1.22623	707.66602	 23.20	
  8.500	180.000	  1.20114	  0.33393	  0.92636	  0.59885	  0.62200	 -0.01831	  1.22717	707.67102	 23.20	
 10.200	180.000	  1.17925	  0.25974	  0.97461	  0.58160	  0.60344	 -0.02676	  1.22571	707.64697	 23.20	
 10.191	-170.497	  1.17989	  0.26261	  0.97063	  0.51948	  0.66634	 -0.02671	  1.22699	707.71198	 23.20	
 10.210	-161.034	  1.17805	  0.27311	  0.95327	  0.46031	  0.72718	 -0.02768	  1.22648	707.57501	 23.20	
 10.194	-151.526	  1.17457	  0.29462	  0.92197	  0.40473	  0.78422	 -0.02795	  1.22316	707.62402	 23.20	
 10.190	-142.105	  1.17421	  0.32321	  0.88365	  0.35628	  0.83859	 -0.02703	  1.22290	707.59003	 23.20	
 10.215	-132.646	  1.17562	  0.35905	  0.84113	  0.31255	  0.88910	 -0.02655	  1.22450	707.55103	 23.20	
 10.203	-123.092	  1.17546	  0.40406	  0.78721	  0.27741	  0.93022	 -0.02727	  1.22457	707.51801	 23.20	
 10.192	-113.678	  1.17781	  0.45420	  0.73112	  0.25233	  0.96288	 -0.02969	  1.22739	707.61700	 23.20	
 10.208	-104.249	  1.17641	  0.50975	  0.66817	  0.23419	  0.98248	 -0.03110	  1.22470	707.62903	 23.20	
 10.210	-94.801	  1.17787	  0.56955	  0.60566	  0.22419	  0.99485	 -0.03239	  1.22610	707.58301	 23.20	
 10.210	-85.199	  1.17242	  0.62896	  0.53956	  0.22296	  0.98980	 -0.03290	  1.22080	707.57001	 23.20	
 10.208	-75.751	  1.17484	  0.69157	  0.48083	  0.23033	  0.98049	 -0.03241	  1.22253	707.53400	 23.20	
 10.192	-66.322	  1.17574	  0.75186	  0.42497	  0.24851	  0.95817	 -0.03324	  1.22229	707.59302	 23.20	
 10.203	-56.908	  1.17385	  0.80716	  0.37393	  0.27183	  0.92612	 -0.03191	  1.22085	707.60199	 23.20	
 10.215	-47.354	  1.17836	  0.86316	  0.32816	  0.30595	  0.88838	 -0.03163	  1.22474	707.63397	 23.20	
 10.190	-37.895	  1.17802	  0.90738	  0.29147	  0.34809	  0.83800	 -0.03039	  1.22302	707.52100	 23.20	
 10.194	-28.474	  1.17644	  0.94364	  0.25984	  0.39529	  0.78223	 -0.02996	  1.22078	707.59399	 23.20	
 10.210	-18.966	  1.18158	  0.97544	  0.23883	  0.44983	  0.72755	 -0.02908	  1.22628	707.58301	 23.20	
 10.191	 -9.503	  1.18003	  0.99028	  0.22751	  0.50858	  0.66418	 -0.02867	  1.22342	707.58600	 23.20	
 10.200	  0.000	  1.18162	  0.99808	  0.22325	  0.57095	  0.60173	 -0.02862	  1.22453	707.60699	 23.20	
 10.191	  9.503	  1.18168	  0.99435	  0.22599	  0.63299	  0.54081	 -0.02614	  1.22415	707.58197	 23.20	
 10.210	 18.966	  1.18210	  0.97956	  0.24019	  0.69566	  0.48310	 -0.02627	  1.22413	707.56201	 23.20	
 10.194	 28.474	  1.17980	  0.95162	  0.26237	  0.75480	  0.42779	 -0.02568	  1.22031	707.53400	 23.20	
 10.190	 37.895	  1.18669	  0.92224	  0.29385	  0.81425	  0.38312	 -0.02573	  1.22739	707.61499	 23.20	
 10.215	 47.354	  1.18637	  0.87718	  0.33206	  0.86519	  0.34113	 -0.02365	  1.22585	707.57397	 23.20	
 10.203	 56.908	  1.18534	  0.82513	  0.37671	  0.90749	  0.30616	 -0.02360	  1.22516	707.58197	 23.20	
 10.192	 66.322	  1.18458	  0.76945	  0.42736	  0.93796	  0.28218	 -0.02444	  1.22284	707.58197	 23.20	
 10.208	 75.751	  1.18390	  0.70967	  0.48342	  0.96119	  0.26472	 -0.02495	  1.22293	707.60101	 23.20	
 10.210	 85.199	  1.18369	  0.64806	  0.54379	  0.97286	  0.25652	 -0.02583	  1.22259	707.57800	 23.10	
 10.210	 94.801	  1.18497	  0.58568	  0.60835	  0.97577	  0.25609	 -0.02498	  1.22416	707.64001	 23.20	
 10.208	104.249	  1.18537	  0.52656	  0.67117	  0.96624	  0.26570	 -0.02571	  1.22563	707.67200	 23.10	
 10.192	113.678	  1.18415	  0.47002	  0.73196	  0.94436	  0.28307	 -0.02723	  1.22512	707.65802	 23.10	
 10.203	123.092	  1.18793	  0.42128	  0.79229	  0.91737	  0.30950	 -0.02657	  1.22959	707.67401	 23.10	
 10.215	132.646	  1.17857	  0.37259	  0.83981	  0.86957	  0.34198	 -0.02433	  1.22036	707.63202	 23.10	
 10.190	142.105	  1.17788	  0.33438	  0.88585	  0.82100	  0.38251	 -0.02425	  1.22111	707.61798	 23.10	
 10.194	151.526	  1.18011	  0.30402	  0.92379	  0.76771	  0.43063	 -0.02497	  1.22332	707.57800	 23.10	
 10.210	161.034	  1.17800	  0.28020	  0.95065	  0.70764	  0.48298	 -0.02629	  1.22265	707.64502	 23.10	
 10.191	170.497	  1.17853	  0.26629	  0.96823	  0.64519	  0.54143	 -0.02727	  1.22418	707.65802	 23.10	
 11.899	171.783	  1.15422	  0.19194	  1.01355	  0.62518	  0.52186	 -0.03604	  1.22427	707.64001	 23.10	
 11.890	163.610	  1.15595	  0.20418	  1.00133	  0.68869	  0.46348	 -0.03595	  1.22454	707.63098	 23.10	
 11.889	155.445	  1.15532	  0.22261	  0.97772	  0.74974	  0.40744	 -0.03498	  1.22388	707.61700	 23.10	
 11.909	147.299	  1.15432	  0.24956	  0.94359	  0.80741	  0.35606	 -0.03448	  1.22216	707.61798	 23.10	
 11.902	139.148	  1.15844	  0.28412	  0.90515	  0.86236	  0.31262	 -0.03363	  1.22506	707.49701	 23.10	
 11.894	130.867	  1.15870	  0.32408	  0.85677	  0.90945	  0.27310	 -0.03552	  1.22496	707.61298	 23.10	
 11.897	122.732	  1.16101	  0.37023	  0.80427	  0.95084	  0.24117	 -0.03698	  1.22565	707.52802	 23.10	
 11.903	114.597	  1.16085	  0.41979	  0.74548	  0.98195	  0.21466	 -0.03680	  1.22494	707.61499	 23.10	
 11.893	106.346	  1.16105	  0.47591	  0.68288	  1.00468	  0.19580	 -0.03590	  1.22389	707.65503	 23.10	
 11.892	 98.155	  1.15951	  0.53438	  0.61838	  1.01593	  0.18506	 -0.03530	  1.22095	707.62402	 23.10	
 11.900	 90.000	  1.16352	  0.59719	  0.55746	  1.02263	  0.18247	 -0.03534	  1.22531	707.64697	 23.10	
 11.892	 81.845	  1.16320	  0.65829	  0.49527	  1.01682	  0.18458	 -0.03579	  1.22463	707.64001	 23.10	
 11.893	 73.654	  1.16213	  0.71972	  0.43485	  1.00022	  0.19570	 -0.03487	  1.22365	707.59302	 23.10	
 11.903	 65.403	  1.16023	  0.77834	  0.37859	  0.97445	  0.21326	 -0.03410	  1.22164	707.65601	 23.10	
 11.897	 57.268	  1.16539	  0.83928	  0.32944	  0.94476	  0.24042	 -0.03321	  1.22695	707.59900	 23.10	
 11.894	 49.133	  1.16198	  0.88849	  0.28274	  0.90146	  0.27157	 -0.03383	  1.22440	707.56702	 23.10	
 11.902	 40.852	  1.16072	  0.93482	  0.24222	  0.85107	  0.31129	 -0.03396	  1.22290	707.54303	 23.10	
 11.909	 32.701	  1.15909	  0.97316	  0.20763	  0.79684	  0.35410	 -0.03537	  1.22255	707.62402	 23.10	
 11.889	 24.555	  1.15586	  0.99969	  0.18397	  0.73613	  0.40519	 -0.03557	  1.21873	707.62097	 23.10	
 11.890	 16.390	  1.16038	  1.02670	  0.16490	  0.67726	  0.46149	 -0.03642	  1.22405	707.54303	 23.10	
 11.899	  8.217	  1.15613	  1.03511	  0.15459	  0.61184	  0.51976	 -0.03674	  1.22028	707.56897	 23.10	
 11.900	  0.000	  1.15835	  1.04208	  0.14872	  0.55012	  0.58165	 -0.03703	  1.22383	707.54199	 23.10	
 11.899	 -8.217	  1.15481	  1.03271	  0.15409	  0.48742	  0.64286	 -0.03760	  1.21982	707.65002	 23.10	
 11.890	-16.390	  1.15577	  1.01909	  0.16526	  0.42857	  0.70620	 -0.03769	  1.22183	707.60199	 23.10	
 11.889	-24.555	  1.15350	  0.99307	  0.18297	  0.37299	  0.76478	 -0.03868	  1.21962	707.63898	 23.10	
 11.909	-32.701	  1.15414	  0.96206	  0.20797	  0.32310	  0.82241	 -0.03942	  1.22189	707.63098	 23.10	
 11.902	-40.852	  1.15611	  0.92356	  0.24035	  0.27719	  0.87738	 -0.03997	  1.22502	707.56598	 23.10	
 11.894	-49.133	  1.15233	  0.87288	  0.28066	  0.23939	  0.92165	 -0.04097	  1.22061	707.65601	 23.10	
 11.897	-57.268	  1.15564	  0.82278	  0.32609	  0.20760	  0.96443	 -0.04181	  1.22475	707.66699	 23.10	
 11.903	-65.403	  1.15184	  0.76291	  0.37658	  0.18213	  0.99388	 -0.04141	  1.22142	707.57800	 23.10	
 11.893	-73.654	  1.15321	  0.70481	  0.43251	  0.16526	  1.01799	 -0.04013	  1.22353	707.65802	 23.10	
 11.892	-81.845	  1.15262	  0.64108	  0.49210	  0.15315	  1.03383	 -0.04093	  1.22406	707.58502	 23.10	
 11.900	-90.000	  1.15498	  0.58040	  0.55460	  0.15012	  1.04172	 -0.04071	  1.22748	707.55298	 23.10	
 11.892	-98.155	  1.14869	  0.51739	  0.61414	  0.15372	  1.03178	 -0.04122	  1.22124	707.61298	 23.10	
 11.893	-106.346	  1.15066	  0.45954	  0.67931	  0.16616	  1.01977	 -0.04144	  1.22377	707.55103	 23.10	
 11.903	-114.597	  1.15252	  0.40617	  0.74092	  0.18504	  0.99874	 -0.03751	  1.22797	707.55298	 23.10	
 11.897	-122.732	  1.14953	  0.35490	  0.79584	  0.20946	  0.96483	 -0.03707	  1.22623	707.61798	 23.10	
 11.894	-130.867	  1.15207	  0.31055	  0.85320	  0.24392	  0.92643	 -0.03519	  1.22868	707.52100	 23.10	
 11.902	-139.148	  1.14877	  0.27158	  0.89915	  0.28512	  0.87598	 -0.03455	  1.22399	707.51202	 23.10	
 11.909	-147.299	  1.14867	  0.24006	  0.93958	  0.32993	  0.82410	 -0.03574	  1.22451	707.61700	 23.10	
 11.889	-155.445	  1.15017	  0.21719	  0.97325	  0.38230	  0.76726	 -0.03581	  1.22467	707.58301	 23.10	
 11.890	-163.610	  1.14957	  0.19968	  0.99627	  0.43853	  0.70613	 -0.03548	  1.22228	707.61499	 23.10	
 11.899	-171.783	  1.14757	  0.18887	  1.00928	  0.49753	  0.64302	 -0.03531	  1.22021	707.49298	 23.10	
 11.900	180.000	  1.15080	  0.18730	  1.01652	  0.56134	  0.58204	 -0.03528	  1.22230	707.58301	 23.10	
 13.600	180.000	  1.12102	  0.11267	  1.05808	  0.53806	  0.55750	 -0.04381	  1.22112	707.55103	 23.10	
 13.608	-172.853	  1.11983	  0.11491	  1.05264	  0.47591	  0.62026	 -0.04384	  1.22065	707.55298	 23.10	
 13.611	-165.583	  1.12160	  0.12376	  1.04191	  0.41615	  0.68427	 -0.04452	  1.22334	707.51001	 23.10	
 13.601	-158.353	  1.11695	  0.13838	  1.01719	  0.35820	  0.74331	 -0.04359	  1.21944	707.46399	 23.10	
 13.609	-151.210	  1.12015	  0.15785	  0.99085	  0.30537	  0.80399	 -0.04373	  1.22413	707.62097	 23.10	
 13.611	-143.999	  1.11568	  0.18442	  0.95144	  0.25511	  0.85654	 -0.04380	  1.21955	707.56201	 23.10	
 13.601	-136.825	  1.11821	  0.21815	  0.90985	  0.21239	  0.91014	 -0.04335	  1.22222	707.60498	 23.10	
 13.596	-129.640	  1.12119	  0.25882	  0.86153	  0.17587	  0.95749	 -0.04424	  1.22491	707.54303	 23.10	
 13.611	-122.431	  1.11982	  0.30282	  0.80616	  0.14366	  0.99555	 -0.04431	  1.22367	707.61700	 23.10	
 13.604	-115.211	  1.11802	  0.35154	  0.74581	  0.11646	  1.02509	 -0.04689	  1.22086	707.59900	 23.10	
 13.595	-108.042	  1.12137	  0.40516	  0.68698	  0.09833	  1.05188	 -0.04829	  1.22426	707.56598	 23.10	
 13.607	-100.793	  1.11708	  0.46117	  0.62144	  0.08379	  1.06438	 -0.04917	  1.21908	707.46997	 23.10	
 13.601	-93.617	  1.11987	  0.52103	  0.56048	  0.07544	  1.07548	 -0.04907	  1.22248	707.60199	 23.10	
 13.601	-86.383	  1.12092	  0.58293	  0.49818	  0.07539	  1.07585	 -0.04879	  1.22277	707.52301	 23.10	
 13.607	-79.207	  1.12009	  0.64477	  0.43603	  0.08126	  1.06557	 -0.04666	  1.22140	707.62299	 23.10	
 13.595	-71.958	  1.12101	  0.70741	  0.37841	  0.09475	  1.04856	 -0.04686	  1.22154	707.58502	 23.10	
 13.604	-64.789	  1.12350	  0.76864	  0.32486	  0.11299	  1.02632	 -0.04729	  1.22400	707.56598	 23.10	
 13.611	-57.569	  1.12129	  0.82443	  0.27447	  0.13821	  0.99072	 -0.04779	  1.22011	707.59003	 23.10	
 13.596	-50.360	  1.12251	  0.87939	  0.22899	  0.16912	  0.95239	 -0.04920	  1.22109	707.58197	 23.10	
 13.601	-43.175	  1.12101	  0.92631	  0.18766	  0.20511	  0.90510	 -0.04722	  1.21887	707.60999	 23.10	
 13.611	-36.001	  1.12276	  0.97084	  0.15415	  0.24613	  0.85704	 -0.04700	  1.22063	707.67401	 23.10	
 13.609	-28.790	  1.12532	  1.00927	  0.12589	  0.29534	  0.80124	 -0.04550	  1.22204	707.60699	 23.10	
 13.601	-21.647	  1.12674	  1.03856	  0.10433	  0.34768	  0.74388	 -0.04558	  1.22253	707.58301	 23.10	
 13.611	-14.417	  1.13259	  1.06527	  0.08954	  0.40488	  0.68653	 -0.04730	  1.22833	707.58502	 23.10	
 13.608	 -7.147	  1.12974	  1.07654	  0.07763	  0.46432	  0.62097	 -0.04541	  1.22469	707.53900	 23.10	
 13.600	  0.000	  1.12858	  1.07995	  0.07627	  0.52481	  0.55785	 -0.04563	  1.22276	707.62097	 23.10	
 13.608	  7.147	  1.12985	  1.07787	  0.07926	  0.58637	  0.49927	 -0.04509	  1.22295	707.59399	 23.10	
 13.611	 14.417	  1.13342	  1.07041	  0.08800	  0.65264	  0.43938	 -0.04445	  1.22669	707.58301	 23.10	
 13.601	 21.647	  1.13237	  1.04910	  0.10456	  0.71488	  0.38215	 -0.04375	  1.22386	707.61798	 23.10	
 13.609	 28.790	  1.13160	  1.02062	  0.12782	  0.77355	  0.33114	 -0.04385	  1.22188	707.55798	 23.10	
 13.611	 36.001	  1.13001	  0.98480	  0.15580	  0.82969	  0.28276	 -0.04379	  1.21965	707.55499	 23.10	
 13.601	 43.175	  1.13283	  0.94458	  0.19141	  0.88315	  0.24153	 -0.04282	  1.22110	707.56097	 23.10	
 13.596	 50.360	  1.13484	  0.89879	  0.23098	  0.93156	  0.20470	 -0.04119	  1.22303	707.54999	 23.10	
 13.611	 57.569	  1.13515	  0.84620	  0.27596	  0.97360	  0.17220	 -0.04179	  1.22265	707.65900	 23.10	
 13.604	 64.789	  1.13139	  0.78633	  0.32577	  1.00434	  0.14676	 -0.04222	  1.21881	707.57501	 23.10	
 13.595	 71.958	  1.13377	  0.72920	  0.38090	  1.03143	  0.12850	 -0.04362	  1.22140	707.65198	 23.10	
 13.607	 79.207	  1.12720	  0.66362	  0.43592	  1.04499	  0.11346	 -0.04454	  1.21490	707.58600	 23.10	
 13.601	 86.383	  1.13197	  0.60487	  0.49907	  1.05807	  0.10931	 -0.04521	  1.21987	707.54498	 23.10	
 13.601	 93.617	  1.13111	  0.54204	  0.56218	  1.05923	  0.10853	 -0.04329	  1.21949	707.53400	 23.10	
 13.607	100.793	  1.13339	  0.48389	  0.62698	  1.05430	  0.11563	 -0.04349	  1.22275	707.50201	 23.20	
 13.595	108.042	  1.13497	  0.42642	  0.69232	  1.04056	  0.12964	 -0.04482	  1.22510	707.52100	 23.10	
 13.604	115.211	  1.13036	  0.37109	  0.75029	  1.01390	  0.14742	 -0.04509	  1.22119	707.50201	 23.10	
 13.611	122.431	  1.13251	  0.32069	  0.81184	  0.98416	  0.17340	 -0.04564	  1.22483	707.57397	 23.10	
 13.596	129.640	  1.12926	  0.27383	  0.86451	  0.94276	  0.20384	 -0.04468	  1.22324	707.56702	 23.10	
 13.601	136.825	  1.12860	  0.23403	  0.91381	  0.89846	  0.23977	 -0.04279	  1.22362	707.51300	 23.10	
 13.611	143.999	  1.12851	  0.19870	  0.95901	  0.84617	  0.28356	 -0.04231	  1.22458	707.48901	 23.10	
 13.609	151.210	  1.12770	  0.16907	  0.99532	  0.78975	  0.33125	 -0.04321	  1.22445	707.53497	 23.10	
 13.601	158.353	  1.12292	  0.14509	  1.02023	  0.72751	  0.38047	 -0.04501	  1.22077	707.61499	 23.10	
 13.611	165.583	  1.11999	  0.12645	  1.04001	  0.66350	  0.43587	 -0.04489	  1.21855	707.53900	 23.10	
 13.608	172.853	  1.12009	  0.11603	  1.05319	  0.59941	  0.49599	 -0.04359	  1.21878	707.50201	 23.10	
 15.298	173.587	  1.08832	  0.04550	  1.09101	  0.57665	  0.47149	 -0.05020	  1.22071	707.53101	 23.10	
 15.291	167.167	  1.08778	  0.05332	  1.07884	  0.63869	  0.41167	 -0.05110	  1.21926	707.57001	 23.10	
 15.307	160.676	  1.09246	  0.06891	  1.06493	  0.70362	  0.35720	 -0.05149	  1.22316	707.43103	 23.10	
 15.300	154.261	  1.09197	  0.09017	  1.03739	  0.76442	  0.30351	 -0.04958	  1.22178	707.48901	 23.10	
 15.288	147.854	  1.09240	  0.11634	  1.00355	  0.82106	  0.25537	 -0.04807	  1.22105	707.54999	 23.10	
 15.293	141.428	  1.09360	  0.14656	  0.96502	  0.87696	  0.20965	 -0.04903	  1.22095	707.50500	 23.10	
 15.299	134.985	  1.09610	  0.18349	  0.92059	  0.92791	  0.17079	 -0.05207	  1.22244	707.50500	 23.10	
 15.305	128.583	  1.09970	  0.22439	  0.87282	  0.97471	  0.13669	 -0.05338	  1.22527	707.46899	 23.10	
 15.309	122.142	  1.09988	  0.26967	  0.81769	  1.01294	  0.10621	 -0.05437	  1.22410	707.58197	 23.10	
 15.304	115.711	  1.09966	  0.32005	  0.75645	  1.04327	  0.08149	 -0.05344	  1.22214	707.52002	 23.10	
 15.297	109.291	  1.10070	  0.37281	  0.69595	  1.06865	  0.06190	 -0.05182	  1.22246	707.57397	 23.10	
 15.293	102.897	  1.10436	  0.43072	  0.63498	  1.08833	  0.04901	 -0.05155	  1.22505	707.60199	 23.10	
 15.293	 96.458	  1.10328	  0.49000	  0.57070	  1.09662	  0.04121	 -0.05176	  1.22259	707.61700	 23.10	
 15.300	 90.000	  1.10342	  0.54992	  0.50835	  1.09982	  0.03768	 -0.05224	  1.22244	707.57800	 23.10	
 15.293	 83.542	  1.10621	  0.61369	  0.44712	  1.09666	  0.04139	 -0.05341	  1.22473	707.54700	 23.10	
 15.293	 77.103	  1.10464	  0.67520	  0.38707	  1.08164	  0.05042	 -0.05239	  1.22233	707.53699	 23.10	
 15.297	 70.709	  1.10411	  0.73475	  0.33095	  1.06237	  0.06375	 -0.05209	  1.22179	707.54199	 23.10	
 15.304	 64.289	  1.10534	  0.79525	  0.27853	  1.03610	  0.08418	 -0.05096	  1.22250	707.60699	 23.10	
 15.309	 57.858	  1.10360	  0.84971	  0.22908	  0.99974	  0.10881	 -0.05065	  1.22017	707.58600	 23.10	
 15.305	 51.417	  1.10144	  0.90177	  0.18232	  0.95813	  0.13764	 -0.05129	  1.21919	707.45801	 23.10	
 15.299	 45.015	  1.10284	  0.95071	  0.14392	  0.91497	  0.17349	 -0.05233	  1.22103	707.54700	 23.10	
 15.293	 38.572	  1.10348	  0.99491	  0.11042	  0.86460	  0.21521	 -0.05172	  1.22254	707.42603	 23.10	
 15.288	 32.146	  1.10161	  1.03165	  0.07807	  0.80720	  0.25955	 -0.05191	  1.22189	707.41498	 23.10	
 15.300	 25.739	  1.10207	  1.06220	  0.05612	  0.75057	  0.30921	 -0.05127	  1.22243	707.49298	 23.10	
 15.307	 19.324	  1.10081	  1.08538	  0.03527	  0.68992	  0.36016	 -0.05120	  1.22223	707.50500	 23.10	
 15.291	 12.833	  1.09817	  1.09953	  0.02413	  0.62567	  0.41706	 -0.05283	  1.21969	707.39398	 23.10	
 15.298	  6.413	  1.09679	  1.10860	  0.01591	  0.56418	  0.47559	 -0.05298	  1.21913	707.50201	 23.10	
 15.300	  0.000	  1.09449	  1.10991	  0.01115	  0.50061	  0.53401	 -0.05136	  1.21745	707.47699	 23.10	
 15.298	 -6.413	  1.09525	  1.10578	  0.01527	  0.44089	  0.59617	 -0.05172	  1.21860	707.51801	 23.10	
 15.291	-12.833	  1.09377	  1.09187	  0.02468	  0.38264	  0.65716	 -0.05178	  1.21740	707.54199	 23.10	
 15.307	-19.324	  1.09186	  1.07361	  0.03705	  0.32531	  0.71765	 -0.05114	  1.21756	707.45398	 23.10	
 15.300	-25.739	  1.09176	  1.04779	  0.05544	  0.27314	  0.77621	 -0.05057	  1.21821	707.51001	 23.10	
 15.288	-32.146	  1.09457	  1.01733	  0.08188	  0.22769	  0.83484	 -0.05181	  1.22085	707.52899	 23.10	
 15.293	-38.572	  1.09442	  0.97944	  0.10974	  0.18256	  0.88798	 -0.05307	  1.22243	707.54999	 23.10	
 15.299	-45.015	  1.09742	  0.93777	  0.14559	  0.14263	  0.94087	 -0.05410	  1.22764	707.54498	 23.10	
 15.305	-51.417	  1.09107	  0.88383	  0.18391	  0.10767	  0.98039	 -0.05375	  1.22138	707.54700	 23.10	
 15.309	-57.858	  1.08751	  0.82768	  0.22918	  0.07887	  1.01592	 -0.05252	  1.21772	707.54700	 23.10	
 15.304	-64.289	  1.08784	  0.77031	  0.27531	  0.05024	  1.04968	 -0.05070	  1.21905	707.51501	 23.10	
 15.297	-70.709	  1.09136	  0.71388	  0.33130	  0.03553	  1.07732	 -0.04939	  1.22296	707.54199	 23.10	
 15.293	-77.103	  1.08941	  0.65103	  0.38589	  0.01944	  1.09471	 -0.05148	  1.22188	707.47699	 23.10	
 15.293	-83.542	  1.08920	  0.58944	  0.44313	  0.01071	  1.10645	 -0.05116	  1.22233	707.53497	 23.10	
 15.300	-90.000	  1.08740	  0.52861	  0.50330	  0.00835	  1.10968	 -0.05381	  1.22167	707.50201	 23.10	
 15.293	-96.458	  1.08680	  0.46933	  0.56754	  0.01461	  1.10525	 -0.05481	  1.22144	707.49597	 23.10	
 15.293	-102.897	  1.08614	  0.40931	  0.62948	  0.01958	  1.09655	 -0.05402	  1.22237	707.55298	 23.10	
 15.297	-109.291	  1.08805	  0.35682	  0.69076	  0.03509	  1.07963	 -0.05408	  1.22372	707.51501	 23.10	
 15.304	-115.711	  1.08397	  0.30353	  0.74999	  0.05571	  1.05114	 -0.05296	  1.21973	707.47699	 23.10	
 15.309	-122.142	  1.08236	  0.25378	  0.80786	  0.07922	  1.01845	 -0.05097	  1.21884	707.46503	 23.10	
 15.305	-128.583	  1.08610	  0.21143	  0.86502	  0.11078	  0.98420	 -0.05093	  1.22376	707.55298	 23.10	
 15.299	-134.985	  1.08493	  0.17113	  0.91441	  0.14702	  0.93766	 -0.05100	  1.22183	707.50403	 23.10	
 15.293	-141.428	  1.08474	  0.13660	  0.95930	  0.18582	  0.88900	 -0.05153	  1.22177	707.46997	 23.10	
 15.288	-147.854	  1.08519	  0.10843	  0.99969	  0.23232	  0.83475	 -0.04959	  1.22139	707.50500	 23.10	
 15.300	-154.261	  1.08393	  0.08376	  1.03188	  0.28196	  0.77703	 -0.04977	  1.21989	707.52899	 23.20	
 15.307	-160.676	  1.08497	  0.06429	  1.05897	  0.33479	  0.71809	 -0.04978	  1.22119	707.51801	 23.10	
 15.291	-167.167	  1.08752	  0.05142	  1.07945	  0.39379	  0.65626	 -0.04967	  1.22214	707.43799	 23.20	
 15.298	-173.587	  1.08817	  0.04404	  1.09167	  0.45309	  0.59458	 -0.04955	  1.22255	707.41803	 23.20	
 15.300	180.000	  1.09276	  0.04246	  1.09923	  0.51643	  0.53432	 -0.04948	  1.22635	707.54303	 23.10	
 17.000	180.000	  1.05854	 -0.00881	  1.12892	  0.49866	  0.51518	 -0.05163	  1.22577	707.47699	 23.20	
 16.990	-174.179	  1.05283	 -0.01093	  1.12044	  0.43492	  0.57164	 -0.05079	  1.22039	707.48602	 23.10	
 17.009	-168.383	  1.05099	 -0.00147	  1.11068	  0.37741	  0.63287	 -0.05122	  1.21920	707.47699	 23.10	
 17.000	-162.596	  1.05439	  0.00932	  1.09679	  0.32342	  0.69517	 -0.05167	  1.22380	707.51300	 23.10	
 16.990	-156.759	  1.05033	  0.02542	  1.06976	  0.26864	  0.75276	 -0.05092	  1.22055	707.48499	 23.10	
 16.995	-150.919	  1.05255	  0.04414	  1.04404	  0.21841	  0.81298	 -0.05277	  1.22445	707.48798	 23.10	
 16.988	-145.161	  1.05353	  0.07343	  1.00941	  0.17642	  0.86791	 -0.05314	  1.22508	707.52301	 23.10	
 17.014	-139.343	  1.05139	  0.09838	  0.96621	  0.12864	  0.91832	 -0.05458	  1.22420	707.46399	 23.10	
 17.007	-133.546	  1.05207	  0.13735	  0.91963	  0.09558	  0.96596	 -0.05320	  1.22317	707.39203	 23.10	
 17.001	-127.699	  1.05305	  0.17508	  0.87021	  0.06130	  1.00947	 -0.05381	  1.22455	707.38098	 23.10	
 17.006	-121.937	  1.05264	  0.21494	  0.81574	  0.03023	  1.04576	 -0.05378	  1.22401	707.45001	 23.10	
 17.002	-116.134	  1.05106	  0.26174	  0.75696	  0.00691	  1.07467	 -0.05222	  1.22106	707.47803	 23.10	
 17.001	-110.310	  1.05354	  0.31415	  0.69862	 -0.01071	  1.10213	 -0.05321	  1.22315	707.45001	 23.10	
 16.988	-104.517	  1.05266	  0.36612	  0.63780	 -0.02506	  1.11934	 -0.05291	  1.22160	707.35699	 23.10	
 17.008	-98.662	  1.05385	  0.42059	  0.57707	 -0.03873	  1.13464	 -0.05307	  1.22325	707.44501	 23.10	
 16.996	-92.909	  1.05034	  0.47545	  0.51449	 -0.04283	  1.13486	 -0.05141	  1.21769	707.44000	 23.10	
 16.996	-87.091	  1.05685	  0.53753	  0.45623	 -0.04457	  1.14145	 -0.05063	  1.22469	707.46399	 23.10	
 17.012	-81.253	  1.05434	  0.59686	  0.39689	 -0.03959	  1.13147	 -0.04880	  1.22178	707.51300	 23.10	
 16.988	-75.483	  1.05712	  0.65715	  0.34316	 -0.02940	  1.11971	 -0.04867	  1.22257	707.46198	 23.10	
 17.001	-69.690	  1.05677	  0.71555	  0.28917	 -0.01677	  1.10032	 -0.04886	  1.22200	707.44501	 23.10	
 17.002	-63.866	  1.06026	  0.77632	  0.23951	  0.00282	  1.07733	 -0.04840	  1.22487	707.47803	 23.10	
 17.006	-58.063	  1.06145	  0.83281	  0.19320	  0.02541	  1.04669	 -0.05028	  1.22435	707.47803	 23.10	
 17.001	-52.301	  1.05897	  0.88496	  0.14700	  0.05349	  1.00600	 -0.05149	  1.22167	707.44000	 23.10	
 17.007	-46.454	  1.05761	  0.93283	  0.10847	  0.08617	  0.96164	 -0.05222	  1.21821	707.39203	 23.10	
 17.014	-40.657	  1.06249	  0.98271	  0.07377	  0.12393	  0.91757	 -0.05180	  1.22285	707.48102	 23.10	
 16.988	-34.839	  1.06580	  1.02583	  0.04180	  0.16437	  0.86898	 -0.05203	  1.22578	707.52802	 23.10	
 16.995	-29.081	  1.06395	  1.05809	  0.01734	  0.20995	  0.81275	 -0.05174	  1.22257	707.37500	 23.10	
 16.990	-23.241	  1.06560	  1.08751	 -0.00304	  0.25915	  0.75588	 -0.05144	  1.22252	707.46100	 23.10	
 17.000	-17.404	  1.06172	  1.10733	 -0.01970	  0.31058	  0.69381	 -0.05197	  1.21964	707.42102	 23.10	
 17.009	-11.617	  1.06163	  1.12463	 -0.03424	  0.36253	  0.63427	 -0.05314	  1.21990	707.47198	 23.10	
 16.990	 -5.821	  1.06210	  1.13494	 -0.04097	  0.42088	  0.57326	 -0.05231	  1.21935	707.46100	 23.10	
 17.000	  0.000	  1.06301	  1.13851	 -0.04080	  0.48140	  0.51399	 -0.05251	  1.21929	707.51202	 23.10	
 16.990	  5.821	  1.06399	  1.13872	 -0.04000	  0.54101	  0.45626	 -0.05449	  1.22040	707.50201	 23.10	
 17.009	 11.617	  1.06410	  1.12982	 -0.03182	  0.60118	  0.39948	 -0.05530	  1.21946	707.47803	 23.10	
 17.000	 17.404	  1.06701	  1.11682	 -0.01789	  0.66338	  0.34788	 -0.05397	  1.22093	707.40698	 23.10	
 16.990	 23.241	  1.06553	  1.09372	 -0.00216	  0.72160	  0.29523	 -0.05435	  1.21805	707.46899	 23.10	
 16.995	 29.081	  1.06955	  1.07092	  0.01734	  0.78458	  0.24424	 -0.05432	  1.22259	707.43799	 23.10	
 16.988	 34.839	  1.06755	  1.03537	  0.04446	  0.83771	  0.20102	 -0.05550	  1.21907	707.45300	 23.10	
 17.014	 40.657	  1.07092	  0.99968	  0.07359	  0.89261	  0.15927	 -0.05887	  1.22198	707.40997	 23.10	
 17.007	 46.454	  1.06898	  0.95377	  0.10702	  0.93920	  0.11999	 -0.05721	  1.21945	707.38098	 23.10	
 17.001	 52.301	  1.07118	  0.90638	  0.14566	  0.98545	  0.08565	 -0.05642	  1.22091	707.45398	 23.10	
 17.006	 58.063	  1.07055	  0.85468	  0.18892	  1.02319	  0.05824	 -0.05584	  1.22002	707.36700	 23.10	
 17.002	 63.866	  1.07112	  0.79944	  0.23217	  1.05745	  0.02973	 -0.05703	  1.22067	707.39899	 23.10	
 17.001	 69.690	  1.07112	  0.74165	  0.28854	  1.08417	  0.01610	 -0.05688	  1.22014	707.42297	 23.10	
 16.988	 75.483	  1.07372	  0.68232	  0.33932	  1.10908	 -0.00471	 -0.06031	  1.22464	707.51300	 23.10	
 17.012	 81.253	  1.07152	  0.62203	  0.39781	  1.12139	 -0.01027	 -0.05837	  1.22196	707.45599	 23.10	
 16.996	 87.091	  1.06771	  0.56071	  0.45541	  1.12557	 -0.01514	 -0.05740	  1.21873	707.47302	 23.10	
 16.996	 92.909	  1.06828	  0.49819	  0.51520	  1.12858	 -0.02083	 -0.05758	  1.22012	707.35602	 23.10	
 17.008	 98.662	  1.07095	  0.43953	  0.57680	  1.12881	 -0.02106	 -0.05695	  1.22565	707.40802	 23.10	
 16.988	104.517	  1.06791	  0.38326	  0.63879	  1.11136	 -0.00562	 -0.05653	  1.22113	707.39697	 23.10	
 17.001	110.310	  1.06487	  0.32581	  0.69777	  1.09236	  0.00431	 -0.05666	  1.22029	707.37299	 23.10	
 17.002	116.134	  1.06925	  0.27673	  0.76168	  1.07237	  0.02356	 -0.05730	  1.22649	707.41498	 23.10	
 17.006	121.937	  1.06778	  0.22663	  0.82054	  1.04119	  0.04699	 -0.05850	  1.22695	707.37598	 23.10	
 17.001	127.699	  1.06387	  0.18292	  0.87286	  0.99930	  0.07706	 -0.05744	  1.22293	707.49298	 23.10	
 17.007	133.546	  1.05975	  0.13991	  0.92179	  0.95399	  0.10742	 -0.05699	  1.22050	707.42102	 23.10	
 17.014	139.343	  1.06447	  0.10815	  0.97395	  0.91087	  0.14887	 -0.05530	  1.22689	707.46503	 23.10	
 16.988	145.161	  1.06102	  0.07322	  1.01166	  0.85623	  0.18759	 -0.05253	  1.22436	707.46198	 23.10	
 16.995	150.919	  1.06116	  0.04703	  1.04902	  0.80119	  0.23416	 -0.05326	  1.22544	707.44598	 23.10	
 16.990	156.759	  1.05856	  0.02657	  1.07585	  0.74045	  0.28548	 -0.05395	  1.22267	707.38098	 23.10	
 17.000	162.596	  1.05778	  0.00328	  1.10075	  0.67956	  0.33507	 -0.05559	  1.22451	707.40198	 23.10	
 17.009	168.383	  1.06044	 -0.00192	  1.11816	  0.62108	  0.39597	 -0.05467	  1.22675	707.43402	 23.10	
 16.990	174.179	  1.05979	 -0.00687	  1.12685	  0.56091	  0.45463	 -0.05217	  1.22605	707.39697	 23.10	
 18.709	174.675	  1.01665	 -0.07715	  1.15320	  0.52922	  0.42321	 -0.04898	  1.22329	707.46100	 23.10	
 18.703	169.441	  1.01797	 -0.06962	  1.14509	  0.58983	  0.36789	 -0.05118	  1.22397	707.46503	 23.10	
 18.691	164.085	  1.01676	 -0.05851	  1.12865	  0.65051	  0.31169	 -0.05173	  1.22194	707.45300	 23.10	
 18.706	158.818	  1.02021	 -0.04181	  1.11024	  0.71217	  0.26012	 -0.05214	  1.22280	707.40503	 23.10	
 18.695	153.537	  1.01734	 -0.02232	  1.08149	  0.76791	  0.21087	 -0.05082	  1.21930	707.39398	 23.10	
 18.704	148.255	  1.01965	  0.00233	  1.05033	  0.82539	  0.16490	 -0.05151	  1.22063	707.39398	 23.10	
 18.698	142.952	  1.02349	  0.03038	  1.01594	  0.88191	  0.12379	 -0.05186	  1.22336	707.44000	 23.10	
 18.699	137.625	  1.02259	  0.06252	  0.97074	  0.93152	  0.08347	 -0.05323	  1.22180	707.46997	 23.10	
 18.705	132.343	  1.02387	  0.09731	  0.92364	  0.97967	  0.04631	 -0.05448	  1.22269	707.43402	 23.10	
 18.713	127.067	  1.02698	  0.13798	  0.87419	  1.02273	  0.01621	 -0.05651	  1.22445	707.47198	 23.10	
 18.700	121.794	  1.02822	  0.18258	  0.81957	  1.05818	 -0.00930	 -0.05626	  1.22277	707.41498	 23.10	
 18.698	116.504	  1.03095	  0.22889	  0.76349	  1.09195	 -0.03413	 -0.05545	  1.22528	707.40698	 23.10	
 18.707	111.165	  1.03101	  0.27990	  0.70237	  1.11616	 -0.05136	 -0.05418	  1.22301	707.44000	 23.10	
 18.690	105.863	  1.03212	  0.33231	  0.64247	  1.13620	 -0.06598	 -0.05409	  1.22290	707.42603	 23.10	
 18.696	100.583	  1.03321	  0.38724	  0.58126	  1.14904	 -0.07681	 -0.05435	  1.22239	707.48901	 23.10	
 18.700	 95.309	  1.03451	  0.44482	  0.52017	  1.15755	 -0.08297	 -0.05363	  1.22272	707.41602	 23.10	
 18.700	 90.000	  1.03705	  0.50413	  0.45960	  1.16134	 -0.08582	 -0.05646	  1.22489	707.42902	 23.10	
 18.700	 84.691	  1.03472	  0.56290	  0.39941	  1.15461	 -0.08377	 -0.05730	  1.22202	707.43799	 23.10	
 18.696	 79.417	  1.03744	  0.62325	  0.34196	  1.14743	 -0.07873	 -0.05886	  1.22479	707.46198	 23.10	
 18.690	 74.137	  1.04120	  0.68485	  0.28833	  1.13442	 -0.06717	 -0.05934	  1.22785	707.40198	 23.10	
 18.707	 68.835	  1.03545	  0.74021	  0.23371	  1.10742	 -0.05327	 -0.05792	  1.22191	707.43701	 23.10	
 18.698	 63.496	  1.03799	  0.80083	  0.18363	  1.08071	 -0.03239	 -0.05587	  1.22455	707.45801	 23.10	
 18.700	 58.206	  1.03834	  0.85529	  0.13749	  1.04647	 -0.00914	 -0.05598	  1.22360	707.41302	 23.10	
 18.713	 52.933	  1.03486	  0.90553	  0.09246	  1.00729	  0.01584	 -0.05674	  1.22138	707.45599	 23.10	
 18.705	 47.657	  1.03428	  0.95485	  0.05356	  0.96380	  0.04744	 -0.05777	  1.22211	707.42603	 23.10	
 18.699	 42.375	  1.03934	  1.00414	  0.01812	  0.92072	  0.08234	 -0.06064	  1.22817	707.46899	 23.10	
 18.698	 37.048	  1.03525	  1.04179	 -0.01413	  0.86516	  0.12191	 -0.05904	  1.22436	707.52600	 23.10	
 18.704	 31.745	  1.03390	  1.07637	 -0.04068	  0.80905	  0.16539	 -0.05696	  1.22282	707.43701	 23.10	
 18.695	 26.463	  1.03530	  1.10882	 -0.06403	  0.75298	  0.21199	 -0.05405	  1.22566	707.40503	 23.10	
 18.706	 21.182	  1.02990	  1.12920	 -0.08340	  0.68888	  0.26045	 -0.05278	  1.22059	707.48499	 23.10	
 18.691	 15.915	  1.03061	  1.15034	 -0.09993	  0.63120	  0.31142	 -0.05152	  1.22384	707.47803	 23.10	
 18.703	 10.559	  1.03293	  1.16621	 -0.11148	  0.57003	  0.36812	 -0.05308	  1.22680	707.46399	 23.10	
 18.709	  5.325	  1.02860	  1.16937	 -0.11758	  0.50856	  0.42216	 -0.05235	  1.22300	707.58600	 23.10	
 18.700	  0.000	  1.02420	  1.16698	 -0.11920	  0.44571	  0.48039	 -0.05088	  1.21894	707.46503	 23.10	
 18.709	 -5.325	  1.02397	  1.16411	 -0.11859	  0.38621	  0.53947	 -0.05078	  1.21952	707.34900	 23.10	
 18.703	-10.559	  1.02471	  1.15636	 -0.11294	  0.32959	  0.59967	 -0.05120	  1.22203	707.37201	 23.10	
 18.691	-15.915	  1.02405	  1.14017	 -0.10251	  0.27496	  0.65968	 -0.05122	  1.22167	707.49597	 23.10	
 18.706	-21.182	  1.02350	  1.12014	 -0.08916	  0.22097	  0.72020	 -0.04955	  1.22330	707.42297	 23.10	
 18.695	-26.463	  1.02585	  1.09545	 -0.06858	  0.17235	  0.77988	 -0.05089	  1.22620	707.37201	 23.10	
 18.704	-31.745	  1.02167	  1.05993	 -0.04724	  0.12497	  0.83318	 -0.05078	  1.22280	707.40997	 23.10	
 18.698	-37.048	  1.02450	  1.02473	 -0.01944	  0.08340	  0.88880	 -0.05110	  1.22600	707.37299	 23.10	
 18.699	-42.375	  1.02418	  0.98332	  0.01114	  0.04417	  0.93985	 -0.05194	  1.22747	707.39203	 23.10	
 18.705	-47.657	  1.02036	  0.93322	  0.04768	  0.00884	  0.98388	 -0.05077	  1.22393	707.39099	 23.10	
 18.713	-52.933	  1.01816	  0.88065	  0.08675	 -0.02345	  1.02390	 -0.05014	  1.22215	707.45599	 23.10	
 18.700	-58.206	  1.01878	  0.82781	  0.12990	 -0.04980	  1.06154	 -0.04834	  1.22320	707.39203	 23.10	
 18.698	-63.496	  1.02132	  0.77352	  0.17685	 -0.07378	  1.09743	 -0.04673	  1.22731	707.36700	 23.10	
 18.707	-68.835	  1.01679	  0.71262	  0.22527	 -0.09180	  1.11984	 -0.04588	  1.22345	707.33398	 23.10	
 18.690	-74.137	  1.01789	  0.65355	  0.27953	 -0.10742	  1.14247	 -0.04577	  1.22603	707.35901	 23.10	
 18.696	-79.417	  1.01642	  0.59373	  0.33362	 -0.11755	  1.15595	 -0.04488	  1.22469	707.40002	 23.10	
 18.700	-84.691	  1.01169	  0.53002	  0.39129	 -0.12218	  1.16062	 -0.04700	  1.21987	707.36700	 23.10	
 18.700	-90.000	  1.01360	  0.47146	  0.45198	 -0.12383	  1.16611	 -0.04751	  1.22290	707.42102	 23.10	
 18.700	-95.309	  1.00990	  0.41232	  0.51032	 -0.12044	  1.15947	 -0.04822	  1.21894	707.38599	 23.10	
 18.696	-100.583	  1.01340	  0.35791	  0.57388	 -0.11259	  1.15608	 -0.04930	  1.22419	707.47302	 23.10	
 18.690	-105.863	  1.01274	  0.30365	  0.63407	 -0.10249	  1.14225	 -0.05125	  1.22398	707.41302	 23.10	
 18.707	-111.165	  1.01162	  0.25104	  0.69477	 -0.08687	  1.12202	 -0.05118	  1.22385	707.37299	 23.10	
 18.698	-116.504	  1.00751	  0.20143	  0.75210	 -0.06637	  1.09117	 -0.05087	  1.21914	707.38300	 23.10	
 18.700	-121.794	  1.01014	  0.15795	  0.81101	 -0.04213	  1.06308	 -0.05047	  1.22282	707.40503	 23.10	
 18.713	-127.067	  1.01247	  0.11579	  0.86748	 -0.01420	  1.02820	 -0.05302	  1.22517	707.38898	 23.10	
 18.705	-132.343	  1.00932	  0.07622	  0.91766	  0.01844	  0.98429	 -0.05298	  1.22378	707.56702	 23.10	
 18.699	-137.625	  1.01272	  0.04241	  0.96798	  0.05564	  0.94003	 -0.05413	  1.22621	707.42102	 23.10	
 18.698	-142.952	  1.01188	  0.01307	  1.01015	  0.09612	  0.88921	 -0.05186	  1.22489	707.46100	 23.10	
 18.704	-148.255	  1.00980	 -0.01293	  1.04610	  0.13988	  0.83340	 -0.05135	  1.22196	707.45801	 23.10	
 18.695	-153.537	  1.01087	 -0.03494	  1.07868	  0.18722	  0.77713	 -0.05010	  1.22273	707.46503	 23.10	
 18.706	-158.818	  1.01222	 -0.05208	  1.10641	  0.23838	  0.72005	 -0.04842	  1.22301	707.39697	 23.10	
 18.691	-164.085	  1.01667	 -0.06569	  1.13129	  0.29263	  0.66336	 -0.04794	  1.22683	707.45300	 23.10	
 18.703	-169.441	  1.01266	 -0.07645	  1.14229	  0.34782	  0.59882	 -0.04738	  1.22131	707.45300	 23.10	
 18.709	-174.675	  1.01573	 -0.07999	  1.15403	  0.40700	  0.54162	 -0.04790	  1.22349	707.46503	 23.10	
 18.700	180.000	  1.01638	 -0.08120	  1.15723	  0.46772	  0.48083	 -0.04853	  1.22389	707.39697	 23.10	
 20.400	180.000	  0.96862	 -0.16230	  1.17949	  0.42865	  0.44181	 -0.04492	  1.22203	707.38599	 23.10	
 20.401	-175.153	  0.96917	 -0.16059	  1.17807	  0.37107	  0.50141	 -0.04281	  1.22359	707.40698	 23.10	
 20.407	-170.264	  0.96819	 -0.15891	  1.17162	  0.31139	  0.56130	 -0.04138	  1.22526	707.34302	 23.10	
 20.410	-165.423	  0.96553	 -0.14953	  1.15562	  0.25549	  0.62111	 -0.04263	  1.22253	707.40802	 23.10	
 20.392	-160.496	  0.96562	 -0.13680	  1.13601	  0.20086	  0.68236	 -0.04237	  1.22302	707.30798	 23.10	
 20.401	-155.705	  0.96490	 -0.12234	  1.11239	  0.14846	  0.74103	 -0.04452	  1.22335	707.35699	 23.10	
 20.405	-150.835	  0.96498	 -0.10129	  1.08237	  0.10072	  0.79874	 -0.04568	  1.22380	707.34497	 23.10	
 20.397	-145.903	  0.96393	 -0.07687	  1.04515	  0.05587	  0.85421	 -0.04866	  1.22247	707.36401	 23.10	
 20.392	-141.062	  0.96517	 -0.05057	  1.00632	  0.01291	  0.90879	 -0.04880	  1.22539	707.40802	 23.10	
 20.396	-136.227	  0.96303	 -0.02035	  0.96021	 -0.02484	  0.95548	 -0.04945	  1.22220	707.34802	 23.10	
 20.408	-131.372	  0.96593	  0.01298	  0.91487	 -0.06088	  1.00428	 -0.04866	  1.22699	707.27197	 23.00	
 20.410	-126.511	  0.96685	  0.05118	  0.86360	 -0.09237	  1.04595	 -0.04978	  1.22738	707.29498	 23.00	
 20.400	-121.604	  0.96261	  0.09231	  0.80335	 -0.12054	  1.07815	 -0.04933	  1.22251	707.28400	 23.00	
 20.403	-116.741	  0.96071	  0.13589	  0.74408	 -0.14564	  1.10801	 -0.04877	  1.22143	707.31299	 23.00	
 20.413	-111.900	  0.96509	  0.18438	  0.68727	 -0.16604	  1.13903	 -0.04845	  1.22690	707.30499	 23.00	
 20.398	-107.004	  0.96570	  0.23526	  0.62705	 -0.18178	  1.15924	 -0.04704	  1.22696	707.29401	 23.00	
 20.394	-102.132	  0.96582	  0.28914	  0.56472	 -0.19312	  1.17401	 -0.04617	  1.22539	707.33398	 23.00	
 20.403	-97.332	  0.96553	  0.34356	  0.50359	 -0.20119	  1.18256	 -0.04365	  1.22394	707.32898	 23.00	
 20.392	-92.440	  0.96841	  0.40223	  0.44421	 -0.20617	  1.19018	 -0.04354	  1.22640	707.29700	 23.00	
 20.392	-87.560	  0.96658	  0.46064	  0.38232	 -0.20750	  1.18798	 -0.04203	  1.22395	707.37598	 23.00	
 20.403	-82.668	  0.96691	  0.52055	  0.32304	 -0.20323	  1.18139	 -0.04055	  1.22306	707.29999	 23.00	
 20.394	-77.868	  0.96883	  0.58046	  0.26747	 -0.19719	  1.17287	 -0.03982	  1.22463	707.30298	 23.00	
 20.398	-72.996	  0.97163	  0.64183	  0.21375	 -0.18484	  1.15842	 -0.03692	  1.22600	707.33197	 23.00	
 20.413	-68.100	  0.96983	  0.70037	  0.16134	 -0.17141	  1.13504	 -0.03878	  1.22355	707.29700	 23.00	
 20.403	-63.259	  0.97091	  0.75938	  0.11047	 -0.15369	  1.10953	 -0.03975	  1.22455	707.29498	 23.00	
 20.400	-58.396	  0.97072	  0.81620	  0.06572	 -0.13002	  1.07592	 -0.04176	  1.22229	707.36499	 23.00	
 20.410	-53.489	  0.97596	  0.87485	  0.02109	 -0.10531	  1.04412	 -0.04328	  1.22876	707.33398	 23.00	
 20.408	-48.628	  0.97425	  0.92483	 -0.01766	 -0.07419	  1.00044	 -0.04434	  1.22514	707.24799	 23.00	
 20.396	-43.773	  0.97737	  0.97464	 -0.05337	 -0.03935	  0.95643	 -0.04581	  1.22682	707.22400	 23.00	
 20.392	-38.938	  0.97825	  1.01754	 -0.08398	 -0.00320	  0.90804	 -0.04598	  1.22629	707.33197	 22.90	
 20.397	-34.097	  0.97860	  1.05780	 -0.11253	  0.03759	  0.85544	 -0.04811	  1.22604	707.32397	 22.90	
 20.405	-29.165	  0.97684	  1.09168	 -0.13762	  0.08283	  0.79672	 -0.04643	  1.22289	707.32898	 22.90	
 20.401	-24.295	  0.98291	  1.12743	 -0.15865	  0.13065	  0.74379	 -0.04748	  1.22959	707.30798	 22.90	
 20.392	-19.504	  0.98043	  1.14899	 -0.17487	  0.18053	  0.68282	 -0.04894	  1.22622	707.27197	 22.90	
 20.410	-14.577	  0.97926	  1.16514	 -0.18628	  0.23400	  0.62157	 -0.04728	  1.22249	707.34003	 22.90	
 20.407	 -9.736	  0.97609	  1.17341	 -0.19389	  0.28823	  0.55987	 -0.04783	  1.21703	707.22101	 22.90	
 20.401	 -4.847	  0.98488	  1.19236	 -0.20033	  0.34932	  0.50340	 -0.04745	  1.22710	707.23798	 22.90	
 20.400	  0.000	  0.98623	  1.19625	 -0.20177	  0.40825	  0.44454	 -0.04936	  1.22767	707.31897	 22.90	
 20.401	  4.847	  0.98488	  1.19226	 -0.19959	  0.46726	  0.38544	 -0.04847	  1.22428	707.29498	 22.90	
 20.407	  9.736	  0.98696	  1.18876	 -0.19414	  0.52981	  0.32887	 -0.04836	  1.22707	707.26501	 22.90	
 20.410	 14.577	  0.98820	  1.17803	 -0.18554	  0.59124	  0.27348	 -0.04789	  1.22709	707.24402	 22.90	
 20.392	 19.504	  0.98592	  1.15688	 -0.17052	  0.65139	  0.22024	 -0.04858	  1.22352	707.30798	 22.90	
 20.401	 24.295	  0.98959	  1.13827	 -0.15334	  0.71294	  0.17155	 -0.05016	  1.22670	707.37201	 22.90	
 20.405	 29.165	  0.99184	  1.11286	 -0.13406	  0.77341	  0.12332	 -0.05231	  1.22893	707.32098	 22.90	
 20.397	 34.097	  0.99091	  1.07614	 -0.10619	  0.82916	  0.08025	 -0.05399	  1.22491	707.33197	 22.90	
 20.392	 38.938	  0.99222	  1.03982	 -0.07755	  0.88372	  0.03996	 -0.05709	  1.22607	707.32397	 22.90	
 20.396	 43.773	  0.99206	  0.99719	 -0.04617	  0.93428	  0.00175	 -0.05772	  1.22524	707.35101	 22.90	
 20.408	 48.628	  0.99190	  0.95085	 -0.01062	  0.98069	 -0.03139	 -0.05734	  1.22402	707.38098	 22.90	
 20.410	 53.489	  0.99716	  0.90558	  0.02857	  1.02928	 -0.06253	 -0.05602	  1.23081	707.32703	 22.90	
 20.400	 58.396	  0.99770	  0.85121	  0.07361	  1.06686	 -0.08715	 -0.05545	  1.22871	707.20599	 22.90	
 20.403	 63.259	  0.99482	  0.79373	  0.11877	  1.09813	 -0.11031	 -0.05551	  1.22545	707.28400	 22.90	
 20.413	 68.100	  0.99632	  0.73714	  0.16757	  1.12802	 -0.13006	 -0.05505	  1.22773	707.26202	 22.90	
 20.398	 72.996	  0.99382	  0.67616	  0.22084	  1.14779	 -0.14396	 -0.05585	  1.22424	707.33398	 22.90	
 20.394	 77.868	  0.99532	  0.61714	  0.27616	  1.16679	 -0.15516	 -0.05709	  1.22616	707.24799	 22.90	
 20.403	 82.668	  0.99155	  0.55638	  0.33169	  1.17454	 -0.16196	 -0.05480	  1.22238	707.28601	 22.90	
 20.392	 87.560	  0.99313	  0.49697	  0.39118	  1.18386	 -0.16566	 -0.05347	  1.22508	707.31897	 22.90	
 20.392	 92.440	  0.99240	  0.43824	  0.45074	  1.18481	 -0.16595	 -0.05129	  1.22507	707.32397	 22.90	
 20.403	 97.332	  0.98998	  0.37906	  0.51165	  1.17956	 -0.16237	 -0.04894	  1.22413	707.33502	 22.90	
 20.394	102.132	  0.99093	  0.32487	  0.57310	  1.17193	 -0.15529	 -0.04906	  1.22628	707.39203	 22.90	
 20.398	107.004	  0.98792	  0.26998	  0.63370	  1.15495	 -0.14297	 -0.04975	  1.22388	707.24902	 22.90	
 20.413	111.900	  0.98783	  0.21716	  0.69525	  1.13593	 -0.12864	 -0.04969	  1.22574	707.37299	 22.90	
 20.403	116.741	  0.98555	  0.16702	  0.75409	  1.10961	 -0.11068	 -0.04860	  1.22533	707.33698	 22.90	
 20.400	121.604	  0.98584	  0.12224	  0.81277	  1.07953	 -0.08684	 -0.05215	  1.22701	707.45599	 22.90	
 20.410	126.511	  0.98445	  0.07782	  0.86859	  1.04290	 -0.06093	 -0.05233	  1.22751	707.34497	 22.90	
 20.408	131.372	  0.98174	  0.03608	  0.92077	  1.00021	 -0.03219	 -0.05170	  1.22615	707.44598	 22.90	
 20.396	136.227	  0.97907	  0.00121	  0.96703	  0.95234	  0.00238	 -0.05030	  1.22386	707.34802	 22.90	
 20.392	141.062	  0.97731	 -0.03131	  1.01054	  0.90277	  0.03970	 -0.04963	  1.22306	707.26202	 22.90	
 20.397	145.903	  0.97824	 -0.06008	  1.05174	  0.85168	  0.07980	 -0.04736	  1.22564	707.35901	 22.90	
 20.405	150.835	  0.97615	 -0.08647	  1.08718	  0.79400	  0.12405	 -0.04796	  1.22507	707.26501	 22.90	
 20.401	155.705	  0.97433	 -0.10847	  1.11507	  0.73438	  0.17087	 -0.04835	  1.22278	707.26001	 22.90	
 20.392	160.496	  0.97348	 -0.12530	  1.13875	  0.67544	  0.21988	 -0.04820	  1.22320	707.28101	 22.90	
 20.410	165.423	  0.97427	 -0.14161	  1.16029	  0.61529	  0.27278	 -0.04720	  1.22612	707.39099	 22.90	
 20.407	170.264	  0.97052	 -0.15075	  1.16927	  0.55237	  0.32682	 -0.04612	  1.22222	707.31598	 22.90	
 20.401	175.153	  0.97024	 -0.15918	  1.17866	  0.49032	  0.38373	 -0.04668	  1.22365	707.35901	 22.90	
  0.141	 45.000	  1.23334	  0.66772	  0.64602	  0.65068	  0.65502	  0.00494	  1.22292	707.27899	 22.90	
  4.001	128.691	  1.22929	  0.57488	  0.71738	  0.74239	  0.54506	  0.00044	  1.22289	707.29498	 22.90	
  4.002	 76.995	  1.22814	  0.69112	  0.59401	  0.76982	  0.51916	  0.00032	  1.22222	707.36102	 22.90	
  4.002	 25.892	  1.22880	  0.79143	  0.50250	  0.68711	  0.58887	  0.00059	  1.22248	707.35901	 22.90	
  4.002	-25.892	  1.22937	  0.78858	  0.50323	  0.56319	  0.71418	 -0.00084	  1.22356	707.31897	 22.90	
  4.002	-76.995	  1.22916	  0.68751	  0.59354	  0.49235	  0.79582	 -0.00233	  1.22426	707.31097	 23.00	
  4.001	-128.691	  1.22773	  0.57046	  0.71617	  0.51964	  0.76507	 -0.00057	  1.22314	707.31598	 22.90	
  4.000	180.000	  1.23017	  0.52561	  0.77546	  0.62963	  0.65072	  0.00074	  1.22487	707.40198	 22.90	
  8.000	180.000	  1.20516	  0.35730	  0.90953	  0.60455	  0.62466	 -0.01493	  1.22487	707.37299	 22.90	
  7.991	-152.370	  1.20857	  0.38571	  0.87571	  0.47167	  0.76649	 -0.01530	  1.22887	707.32703	 22.90	
  7.997	-124.550	  1.20659	  0.46753	  0.77424	  0.37099	  0.87765	 -0.01518	  1.22672	707.33197	 22.90	
  8.006	-96.837	  1.20590	  0.59251	  0.63473	  0.32331	  0.93119	 -0.01896	  1.22578	707.38098	 22.90	
  7.988	-69.228	  1.20605	  0.73169	  0.49698	  0.33652	  0.91149	 -0.01923	  1.22588	707.27802	 22.90	
  7.997	-41.563	  1.20557	  0.85347	  0.38780	  0.40689	  0.82581	 -0.01823	  1.22449	707.31097	 22.90	
  8.008	-13.821	  1.20723	  0.92706	  0.32842	  0.52651	  0.69558	 -0.01726	  1.22605	707.38397	 22.90	
  8.008	 13.821	  1.20745	  0.92960	  0.32754	  0.66574	  0.55500	 -0.01504	  1.22531	707.30798	 22.90	
  7.997	 41.563	  1.20826	  0.86186	  0.38707	  0.79904	  0.43652	 -0.01417	  1.22530	707.35303	 22.90	
  7.988	 69.228	  1.20776	  0.74339	  0.49539	  0.88699	  0.36450	 -0.01329	  1.22543	707.34900	 22.90	
  8.006	 96.837	  1.20858	  0.60295	  0.63504	  0.90946	  0.35101	 -0.01404	  1.22559	707.23700	 23.00	
  7.997	124.550	  1.20867	  0.47725	  0.77400	  0.85715	  0.39713	 -0.01426	  1.22694	707.28900	 23.00	
  7.991	152.370	  1.20448	  0.39034	  0.87153	  0.74319	  0.49190	 -0.01398	  1.22377	707.38397	 23.00	
 12.009	161.059	  1.15536	  0.20508	  0.99893	  0.70955	  0.44069	 -0.03600	  1.22653	707.26801	 23.00	
 12.013	142.081	  1.15438	  0.26656	  0.92252	  0.84332	  0.32298	 -0.03509	  1.22320	707.34302	 23.00	
 12.006	123.113	  1.15822	  0.36573	  0.80639	  0.95030	  0.23767	 -0.03661	  1.22380	707.32703	 23.00	
 12.007	104.200	  1.16100	  0.49120	  0.66750	  1.01197	  0.18866	 -0.03567	  1.22463	707.31897	 23.00	
 11.989	 85.301	  1.16140	  0.63200	  0.52017	  1.02111	  0.17824	 -0.03497	  1.22330	707.31799	 23.00	
 12.013	 66.294	  1.16094	  0.77420	  0.38342	  0.98031	  0.20620	 -0.03462	  1.22325	707.30200	 23.00	
 12.012	 47.388	  1.16172	  0.90116	  0.27043	  0.89378	  0.27374	 -0.03432	  1.22472	707.25702	 23.00	
 11.990	 28.440	  1.15838	  0.99224	  0.19164	  0.76632	  0.37715	 -0.03559	  1.22282	707.33197	 23.00	
 11.991	  9.464	  1.15271	  1.03467	  0.15114	  0.61960	  0.50570	 -0.03639	  1.21813	707.24799	 23.00	
 11.991	 -9.464	  1.15259	  1.03357	  0.14956	  0.47456	  0.64982	 -0.03879	  1.21994	707.33698	 23.00	
 11.990	-28.440	  1.15461	  0.98320	  0.19036	  0.34530	  0.79194	 -0.03948	  1.22392	707.37598	 23.00	
 12.012	-47.388	  1.15166	  0.88656	  0.26574	  0.24035	  0.91311	 -0.04037	  1.22328	707.29999	 23.00	
 12.013	-66.294	  1.15177	  0.75687	  0.37993	  0.17368	  0.99895	 -0.04245	  1.22435	707.34497	 23.00	
 11.989	-85.301	  1.14828	  0.61207	  0.51417	  0.14338	  1.03560	 -0.04224	  1.22231	707.32397	 23.00	
 12.007	-104.200	  1.14988	  0.47279	  0.66195	  0.15598	  1.02539	 -0.04125	  1.22462	707.42102	 23.00	
 12.006	-123.113	  1.14887	  0.35031	  0.80146	  0.20786	  0.96285	 -0.03729	  1.22459	707.36902	 23.00	
 12.013	-142.081	  1.14682	  0.25496	  0.91768	  0.29597	  0.85752	 -0.03557	  1.22268	707.36902	 23.00	
 12.009	-161.059	  1.15128	  0.19935	  0.99568	  0.41733	  0.72607	 -0.03649	  1.22507	707.34100	 23.00	
 16.000	180.000	  1.08108	  0.01851	  1.11428	  0.50857	  0.52454	 -0.05145	  1.22782	707.35101	 23.00	
 15.990	-165.604	  1.07592	  0.02728	  1.09235	  0.36476	  0.66630	 -0.05178	  1.22544	707.36902	 23.00	
 16.002	-151.165	  1.07804	  0.07351	  1.03548	  0.24208	  0.81085	 -0.05246	  1.22867	707.31598	 23.00	
 16.002	-136.836	  1.07475	  0.14055	  0.93878	  0.13717	  0.93237	 -0.05449	  1.22577	707.42401	 23.00	
 15.995	-122.439	  1.07748	  0.23982	  0.82177	  0.06449	  1.03165	 -0.05399	  1.22746	707.35602	 22.90	
 15.993	-107.966	  1.07801	  0.35320	  0.68130	  0.01002	  1.09692	 -0.05546	  1.22675	707.45398	 22.90	
 16.005	-93.629	  1.07883	  0.48498	  0.53695	 -0.01510	  1.12585	 -0.05391	  1.22794	707.38098	 22.90	
 15.992	-79.234	  1.07917	  0.62791	  0.39369	 -0.00913	  1.11470	 -0.05167	  1.22592	707.44598	 22.90	
 16.009	-64.774	  1.08235	  0.77178	  0.27113	  0.03315	  1.06738	 -0.05119	  1.22643	707.42902	 22.90	
 15.997	-50.364	  1.08109	  0.89700	  0.15915	  0.08886	  0.98266	 -0.05420	  1.22356	707.44202	 22.90	
 15.997	-36.045	  1.08592	  1.00708	  0.07881	  0.18149	  0.87406	 -0.05259	  1.22695	707.46399	 22.90	
 16.000	-21.597	  1.08494	  1.08124	  0.02142	  0.29313	  0.73941	 -0.05451	  1.22334	707.43201	 22.90	
 16.003	 -7.169	  1.09093	  1.12394	 -0.00102	  0.42828	  0.60215	 -0.05395	  1.22669	707.39099	 22.90	
 16.003	  7.169	  1.09135	  1.12795	 -0.00824	  0.56665	  0.45861	 -0.05513	  1.22667	707.31897	 22.90	
 16.000	 21.597	  1.09311	  1.09400	  0.02050	  0.71237	  0.32710	 -0.05447	  1.22678	707.32599	 22.90	
 15.997	 36.045	  1.09685	  1.02562	  0.07355	  0.85094	  0.21090	 -0.05654	  1.22965	707.35699	 22.90	
 15.997	 50.364	  1.09613	  0.92005	  0.16050	  0.96471	  0.12387	 -0.05600	  1.22593	707.46503	 22.90	
 16.009	 64.774	  1.09662	  0.79356	  0.26657	  1.05296	  0.05650	 -0.05518	  1.22665	707.31799	 22.90	
 15.992	 79.234	  1.09765	  0.65293	  0.39404	  1.10552	  0.01830	 -0.05636	  1.22857	707.41498	 22.80	
 16.005	 93.629	  1.09536	  0.50788	  0.53650	  1.11733	  0.00935	 -0.05525	  1.22791	707.35699	 22.80	
 15.993	107.966	  1.09101	  0.37108	  0.68252	  1.08784	  0.03137	 -0.05558	  1.22537	707.30200	 22.80	
 15.995	122.439	  1.08719	  0.24839	  0.82232	  1.02128	  0.08049	 -0.05671	  1.22426	707.30798	 22.80	
 16.002	136.836	  1.08422	  0.15064	  0.94276	  0.92171	  0.15799	 -0.05410	  1.22399	707.38098	 22.80	
 16.002	151.165	  1.08226	  0.07699	  1.03585	  0.79606	  0.25898	 -0.05212	  1.22436	707.22400	 22.80	
 15.990	165.604	  1.08030	  0.03134	  1.09398	  0.65322	  0.38291	 -0.05327	  1.22500	707.26202	 22.80	
 20.003	168.362	  0.98584	 -0.13005	  1.16383	  0.58428	  0.31756	 -0.04765	  1.22663	707.31097	 22.80	
 20.008	156.764	  0.98585	 -0.09526	  1.11856	  0.72536	  0.19498	 -0.04824	  1.22507	707.41498	 22.80	
 20.000	145.147	  0.99049	 -0.03901	  1.04515	  0.86053	  0.08928	 -0.04829	  1.22724	707.30200	 22.80	
 19.995	133.545	  0.99104	  0.03736	  0.94060	  0.97685	  0.00077	 -0.05121	  1.22443	707.39398	 22.80	
 20.009	121.926	  0.99459	  0.13296	  0.81782	  1.07151	 -0.06859	 -0.05423	  1.22474	707.43103	 22.80	
 20.005	110.327	  0.99621	  0.24488	  0.67935	  1.13564	 -0.11562	 -0.05001	  1.22272	707.40802	 22.80	
 19.989	 98.733	  0.99933	  0.37254	  0.53642	  1.17045	 -0.14162	 -0.05202	  1.22211	707.36102	 22.80	
 19.999	 87.075	  1.00164	  0.50935	  0.39496	  1.17581	 -0.14729	 -0.05617	  1.22263	707.34003	 22.80	
 19.992	 75.457	  1.00515	  0.65164	  0.26255	  1.15283	 -0.13039	 -0.05686	  1.22479	707.37598	 22.90	
 20.009	 63.844	  1.00382	  0.78692	  0.14032	  1.09576	 -0.09459	 -0.05523	  1.22289	707.36499	 22.90	
 19.989	 52.269	  1.00346	  0.91403	  0.03545	  1.01147	 -0.03632	 -0.05591	  1.22382	707.28601	 22.90	
 19.999	 40.602	  1.00345	  1.02377	 -0.04807	  0.90220	  0.04334	 -0.05825	  1.22581	707.33502	 22.80	
 20.004	 29.051	  0.99932	  1.10530	 -0.11251	  0.77170	  0.14084	 -0.05405	  1.22281	707.40002	 22.80	
 20.005	 17.433	  0.99523	  1.15961	 -0.15697	  0.62978	  0.25508	 -0.04810	  1.22123	707.36902	 22.90	
 20.006	  5.780	  0.99567	  1.18641	 -0.17817	  0.48802	  0.38506	 -0.04884	  1.22399	707.33502	 22.90	
 20.006	 -5.780	  0.99248	  1.18294	 -0.17965	  0.34773	  0.52184	 -0.04912	  1.22286	707.28601	 22.90	
 20.005	-17.433	  0.99278	  1.15488	 -0.16257	  0.21579	  0.66402	 -0.04795	  1.22696	707.27802	 22.80	
 20.004	-29.051	  0.98832	  1.09066	 -0.12004	  0.09960	  0.79837	 -0.04708	  1.22487	707.40997	 22.90	
 19.999	-40.602	  0.98767	  1.00068	 -0.05440	  0.00166	  0.92352	 -0.04600	  1.22469	707.37598	 22.90	
 19.989	-52.269	  0.98303	  0.88494	  0.02920	 -0.07803	  1.02689	 -0.04441	  1.22153	707.35602	 22.90	
 20.009	-63.844	  0.98330	  0.75854	  0.13132	 -0.13651	  1.10983	 -0.04215	  1.22548	707.38300	 22.80	
 19.992	-75.457	  0.98139	  0.61816	  0.25356	 -0.17169	  1.16099	 -0.03995	  1.22454	707.35303	 22.80	
 19.999	-87.075	  0.97895	  0.47715	  0.38620	 -0.18653	  1.18252	 -0.04236	  1.22369	707.32599	 22.80	
 19.989	-98.733	  0.97926	  0.34101	  0.52993	 -0.18002	  1.17820	 -0.04493	  1.22629	707.37799	 22.80	
 20.005	-110.327	  0.97716	  0.21591	  0.67195	 -0.15329	  1.14334	 -0.04769	  1.22692	707.39203	 22.80	
 20.009	-121.926	  0.97527	  0.10585	  0.81010	 -0.10108	  1.07481	 -0.04841	  1.22478	707.30798	 22.80	
 19.995	-133.545	  0.97770	  0.01540	  0.93661	 -0.02869	  0.98355	 -0.05065	  1.22908	707.39398	 22.80	
 20.000	-145.147	  0.97375	 -0.05559	  1.03443	  0.06344	  0.86253	 -0.04942	  1.22268	707.43402	 22.80	
 20.008	-156.764	  0.97759	 -0.10752	  1.11531	  0.17313	  0.73332	 -0.04484	  1.22667	707.41498	 22.80	
 20.003	-168.362	  0.98070	 -0.13665	  1.16218	  0.29920	  0.59416	 -0.04500	  1.22735	707.43701	 22.80	
 20.000	180.000	  0.98306	 -0.14327	  1.17804	  0.43979	  0.45250	 -0.04534	  1.22664	707.49402	 22.80	
