FileType=PCF
NHL=14
Date=03/08/19	12:39:06
Facility=APL
Serial=16071-5
Customer=NASA
NP=6
Mach=0.150000
Calibration=1:1
CalPts=490
TstPts=95
PortNumbering=AP Standard
Units=Torr C m/s kg/m^3 deg mm 
Theta[deg]	Phi[deg]	P1[Torr]	P2[Torr]	P3[Torr]	P4[Torr]	P5[Torr]	P6[Torr]	Pt[Torr]	Ps[Abs,Torr]	Ts[C]	
  0.000	  0.000	 11.07173	  4.66520	  4.74475	  4.90791	  4.46587	  0.25912	 11.07085	709.60999	 17.60	
  1.691	128.401	 11.05728	  4.29740	  5.03864	  5.34919	  4.00603	  0.24575	 11.06379	709.54999	 17.60	
  1.692	 77.194	 11.06397	  4.75820	  4.60360	  5.47121	  3.89582	  0.26452	 11.06384	709.04999	 17.60	
  1.699	 26.182	 11.06372	  5.16669	  4.21961	  5.15805	  4.19143	  0.27328	 11.06600	709.15002	 17.60	
  1.699	-26.182	 11.06731	  5.16985	  4.23796	  4.66074	  4.68024	  0.26743	 11.06952	709.54999	 17.60	
  1.692	-77.194	 11.05954	  4.78997	  4.60745	  4.33878	  5.01994	  0.24641	 11.06249	709.52002	 17.60	
  1.691	-128.401	 11.07064	  4.31952	  5.07763	  4.43732	  4.92145	  0.23292	 11.07346	709.59003	 17.60	
  1.700	180.000	 11.05872	  4.09844	  5.26982	  4.86453	  4.46822	  0.22646	 11.06419	709.56000	 17.60	
  3.400	180.000	 11.03516	  3.48368	  5.86865	  4.79200	  4.41178	  0.16973	 11.06356	709.59998	 17.70	
  3.388	-152.325	 11.04526	  3.63822	  5.72904	  4.26054	  4.97253	  0.18396	 11.06259	709.56000	 17.70	
  3.397	-124.529	 11.05858	  4.00863	  5.34788	  3.90649	  5.39682	  0.18704	 11.07250	709.56000	 17.70	
  3.399	-96.763	 11.05364	  4.50528	  4.84198	  3.74543	  5.58003	  0.19938	 11.06540	709.59003	 17.70	
  3.394	-69.283	 11.05655	  5.02084	  4.32043	  3.80151	  5.53410	  0.21887	 11.06781	709.65997	 17.70	
  3.400	-41.398	 11.05932	  5.50296	  3.87371	  4.12152	  5.17164	  0.23264	 11.06700	709.75000	 17.70	
  3.401	-14.021	 11.05485	  5.77904	  3.61667	  4.60600	  4.64663	  0.25693	 11.06962	709.54999	 17.70	
  3.401	 14.021	 11.05634	  5.77029	  3.60810	  5.14098	  4.12965	  0.26506	 11.06894	709.59003	 17.70	
  3.400	 41.398	 11.05406	  5.46285	  3.84943	  5.62819	  3.66057	  0.25051	 11.07505	709.59003	 17.70	
  3.394	 69.283	 11.03623	  4.95736	  4.29627	  5.95102	  3.36249	  0.23841	 11.06299	709.64001	 17.70	
  3.399	 96.763	 11.03531	  4.40566	  4.84083	  6.01653	  3.30289	  0.21693	 11.07049	709.50000	 17.70	
  3.397	124.529	 11.02856	  3.93233	  5.32242	  5.82652	  3.46769	  0.21304	 11.06836	709.59003	 17.70	
  3.388	152.325	 11.02798	  3.59886	  5.71643	  5.35308	  3.87476	  0.17648	 11.06458	709.65997	 17.70	
  5.099	161.165	 10.97302	  2.90993	  6.34693	  5.29016	  3.76486	  0.10479	 11.06811	709.65002	 17.70	
  5.109	142.013	 10.96425	  3.13934	  6.04938	  5.84516	  3.27100	  0.11654	 11.07359	709.71997	 17.80	
  5.095	123.033	 10.95741	  3.53815	  5.58413	  6.27937	  2.91061	  0.13979	 11.06501	709.71997	 17.80	
  5.105	104.191	 10.96432	  4.00404	  5.05832	  6.51675	  2.71600	  0.15264	 11.06886	709.59998	 17.80	
  5.093	 85.207	 10.97711	  4.58051	  4.47449	  6.58793	  2.67214	  0.17978	 11.07205	709.58002	 17.80	
  5.104	 66.290	 10.98143	  5.15632	  3.92661	  6.44499	  2.78686	  0.19177	 11.06900	709.52002	 17.80	
  5.094	 47.331	 10.99073	  5.69361	  3.46145	  6.11532	  3.08051	  0.20832	 11.07127	709.42999	 17.80	
  5.089	 28.397	 10.99295	  6.09649	  3.14306	  5.63086	  3.51553	  0.21596	 11.06610	708.81000	 17.80	
  5.096	  9.576	 11.00681	  6.32716	  2.98673	  5.07753	  4.03484	  0.21429	 11.06895	709.60999	 17.80	
  5.096	 -9.576	 11.01083	  6.35598	  2.97842	  4.49089	  4.60264	  0.21557	 11.07056	709.57001	 17.80	
  5.089	-28.397	 11.02256	  6.16876	  3.15866	  3.98089	  5.16554	  0.19305	 11.07235	709.04999	 17.80	
  5.094	-47.331	 11.02125	  5.79372	  3.49212	  3.53309	  5.66579	  0.17262	 11.06871	709.57001	 17.80	
  5.104	-66.290	 11.02522	  5.28289	  3.96330	  3.23715	  6.03099	  0.15976	 11.07087	709.16998	 17.80	
  5.093	-85.207	 11.02717	  4.72861	  4.49515	  3.12379	  6.16652	  0.13589	 11.07314	709.57001	 17.80	
  5.105	-104.191	 11.02217	  4.15199	  5.07950	  3.14701	  6.12680	  0.12799	 11.07388	708.90997	 17.80	
  5.095	-123.033	 11.01490	  3.65775	  5.59928	  3.34213	  5.87832	  0.11272	 11.06986	708.83002	 17.90	
  5.109	-142.013	 11.00427	  3.23644	  6.06289	  3.67902	  5.44954	  0.10743	 11.07027	708.84998	 17.80	
  5.099	-161.165	 10.99857	  2.96063	  6.36137	  4.15733	  4.91044	  0.10711	 11.07469	709.14001	 17.90	
  5.100	180.000	 10.97483	  2.84468	  6.44699	  4.70739	  4.32510	  0.09985	 11.06115	709.02002	 17.90	
  6.800	180.000	 10.88516	  2.19181	  7.00950	  4.60206	  4.22893	  0.01514	 11.07268	708.81000	 17.90	
  6.796	-166.229	 10.89658	  2.28029	  6.93470	  4.06118	  4.79680	  0.00643	 11.06958	709.58002	 17.90	
  6.808	-152.311	 10.90912	  2.47964	  6.71817	  3.54991	  5.36439	  0.01333	 11.07194	709.25000	 17.90	
  6.795	-138.383	 10.92150	  2.78865	  6.36644	  3.12041	  5.87078	  0.01862	 11.07290	709.58002	 17.90	
  6.792	-124.591	 10.92813	  3.19060	  5.90618	  2.79618	  6.27522	  0.02017	 11.07411	708.81000	 17.90	
  6.787	-110.754	 10.93274	  3.67858	  5.36883	  2.57377	  6.57311	  0.03105	 11.07214	709.09998	 17.90	
  6.800	-96.985	 10.93882	  4.21686	  4.80843	  2.47208	  6.71855	  0.03920	 11.07203	709.50000	 17.90	
  6.800	-83.015	 10.94615	  4.79610	  4.23703	  2.48391	  6.71978	  0.04973	 11.07486	709.35999	 17.90	
  6.787	-69.246	 10.95288	  5.35705	  3.71461	  2.61323	  6.56156	  0.06345	 11.07576	708.85999	 17.90	
  6.792	-55.409	 10.94685	  5.87836	  3.23619	  2.84115	  6.26802	  0.08125	 11.07324	709.28003	 17.90	
  6.795	-41.617	 10.94445	  6.32624	  2.84414	  3.17615	  5.86042	  0.10022	 11.07212	708.84003	 17.90	
  6.808	-27.689	 10.94262	  6.66787	  2.54958	  3.61739	  5.34852	  0.11628	 11.07301	708.84003	 17.90	
  6.796	-13.771	 10.93663	  6.87255	  2.37380	  4.13819	  4.77574	  0.13710	 11.07337	708.79999	 17.90	
  6.800	  0.000	 10.92804	  6.91954	  2.31882	  4.69220	  4.21737	  0.14686	 11.07563	708.77002	 17.90	
  6.796	 13.771	 10.91626	  6.81835	  2.37667	  5.26582	  3.65654	  0.14524	 11.07233	708.76001	 18.00	
  6.808	 27.689	 10.90913	  6.57328	  2.54170	  5.82110	  3.14794	  0.14985	 11.07256	708.65997	 18.00	
  6.795	 41.617	 10.89895	  6.19244	  2.82947	  6.31737	  2.71191	  0.13655	 11.07500	708.69000	 18.00	
  6.792	 55.409	 10.89441	  5.71831	  3.22142	  6.70962	  2.37517	  0.11887	 11.07649	709.54999	 18.00	
  6.787	 69.246	 10.88405	  5.16478	  3.70049	  6.98585	  2.13985	  0.11179	 11.07180	709.42999	 18.00	
  6.800	 83.015	 10.87340	  4.59368	  4.22973	  7.11963	  2.02163	  0.10147	 11.06999	709.40002	 18.00	
  6.800	 96.985	 10.87141	  4.01986	  4.80508	  7.11487	  2.01297	  0.06951	 11.07618	708.66998	 18.00	
  6.787	110.754	 10.85928	  3.49040	  5.36804	  6.94975	  2.13401	  0.05421	 11.07468	708.75000	 18.00	
  6.792	124.591	 10.85877	  3.02677	  5.90177	  6.65361	  2.37095	  0.05462	 11.07546	708.76001	 18.00	
  6.795	138.383	 10.85699	  2.65571	  6.35396	  6.24870	  2.69668	  0.03275	 11.07501	708.71997	 18.00	
  6.808	152.311	 10.86231	  2.38096	  6.71297	  5.74133	  3.14025	  0.01308	 11.07486	708.76001	 18.00	
  6.796	166.229	 10.87546	  2.22598	  6.93604	  5.17490	  3.66502	  0.01397	 11.07680	708.76001	 18.00	
  8.491	168.704	 10.73012	  1.53572	  7.48334	  5.04644	  3.50941	 -0.08446	 11.07420	709.19000	 18.00	
  8.502	157.493	 10.71266	  1.65429	  7.29023	  5.63140	  2.96342	 -0.08604	 11.07390	709.46997	 18.00	
  8.494	146.194	 10.70684	  1.87956	  6.98256	  6.17686	  2.48140	 -0.07593	 11.07209	708.96002	 18.00	
  8.495	135.039	 10.70427	  2.18839	  6.57704	  6.66107	  2.08376	 -0.05854	 11.07539	708.71997	 18.00	
  8.487	123.723	 10.69558	  2.58139	  6.08269	  7.07210	  1.74936	 -0.04303	 11.06413	708.77002	 18.00	
  8.492	112.575	 10.70514	  3.04295	  5.54529	  7.38633	  1.51180	 -0.04839	 11.07255	708.92999	 18.00	
  8.510	101.220	 10.70783	  3.57635	  4.95512	  7.59013	  1.35593	 -0.04523	 11.06902	709.29999	 18.00	
  8.500	 90.000	 10.71582	  4.14490	  4.36824	  7.66274	  1.31015	 -0.02119	 11.06863	708.82001	 18.00	
  8.510	 78.780	 10.73507	  4.73433	  3.80246	  7.62274	  1.36033	  0.00610	 11.07877	708.90002	 18.10	
  8.492	 67.425	 10.74040	  5.33872	  3.26189	  7.44044	  1.51215	  0.01083	 11.07400	708.87000	 18.10	
  8.487	 56.277	 10.75527	  5.89398	  2.79488	  7.15115	  1.75527	  0.02343	 11.08179	708.98999	 18.10	
  8.495	 44.961	 10.75569	  6.39925	  2.38096	  6.75585	  2.08151	  0.03976	 11.07367	708.78998	 18.10	
  8.494	 33.806	 10.76293	  6.82040	  2.05728	  6.28192	  2.48200	  0.06164	 11.07304	708.88000	 18.10	
  8.502	 22.507	 10.77555	  7.15422	  1.82187	  5.74560	  2.95750	  0.06216	 11.07701	708.65997	 18.10	
  8.491	 11.296	 10.79330	  7.37071	  1.68628	  5.16808	  3.49343	  0.05162	 11.07785	709.54999	 18.10	
  8.500	  0.000	 10.79493	  7.45841	  1.63299	  4.57499	  4.06144	  0.04887	 11.06931	708.77002	 18.10	
  8.491	-11.296	 10.81085	  7.41812	  1.69243	  4.01161	  4.64895	  0.04369	 11.07218	708.82001	 18.10	
  8.502	-22.507	 10.82715	  7.25941	  1.83694	  3.47263	  5.24792	  0.02529	 11.08320	708.78003	 18.10	
  8.494	-33.806	 10.82626	  6.96403	  2.08728	  2.98505	  5.80965	  0.00323	 11.07565	708.78003	 18.10	
  8.495	-44.961	 10.82903	  6.57707	  2.41080	  2.58268	  6.29126	 -0.00837	 11.06692	708.78998	 18.10	
  8.487	-56.277	 10.83085	  6.10186	  2.81481	  2.25031	  6.70809	 -0.02015	 11.07259	708.77002	 18.10	
  8.492	-67.425	 10.83015	  5.57357	  3.27861	  2.00172	  7.02165	 -0.04582	 11.07269	708.72998	 18.10	
  8.510	-78.780	 10.82283	  4.98663	  3.81385	  1.84029	  7.22523	 -0.06219	 11.07084	708.73999	 18.10	
  8.500	-90.000	 10.82425	  4.40305	  4.37961	  1.78489	  7.28660	 -0.06574	 11.07868	708.75000	 18.10	
  8.510	-101.220	 10.81238	  3.82219	  4.95982	  1.80823	  7.22519	 -0.07270	 11.07444	708.78003	 18.10	
  8.492	-112.575	 10.80218	  3.26505	  5.55003	  1.94829	  7.02302	 -0.07841	 11.06960	708.78998	 18.10	
  8.487	-123.723	 10.80084	  2.78882	  6.09448	  2.17883	  6.72213	 -0.08559	 11.07449	708.65997	 18.10	
  8.495	-135.039	 10.79604	  2.36078	  6.58855	  2.50211	  6.30763	 -0.07564	 11.07895	708.71997	 18.10	
  8.494	-146.194	 10.78102	  2.01682	  6.99183	  2.89356	  5.82379	 -0.08040	 11.07531	708.64001	 18.10	
  8.502	-157.493	 10.76622	  1.74982	  7.29862	  3.36485	  5.26946	 -0.09369	 11.07245	708.67999	 18.10	
  8.491	-168.704	 10.75103	  1.58279	  7.48055	  3.89577	  4.68194	 -0.09825	 11.07235	708.77002	 18.10	
  8.500	180.000	 10.73945	  1.50779	  7.54313	  4.45939	  4.09083	 -0.09045	 11.07424	708.73999	 18.20	
 10.200	180.000	 10.54633	  0.84424	  8.03510	  4.28887	  3.93228	 -0.19537	 11.06747	708.77002	 18.20	
 10.191	-170.497	 10.56640	  0.90698	  7.98823	  3.72570	  4.52862	 -0.20489	 11.07369	708.71997	 18.20	
 10.210	-161.034	 10.57122	  1.04079	  7.83044	  3.17269	  5.12971	 -0.20121	 11.06541	708.76001	 18.20	
 10.194	-151.526	 10.58824	  1.26796	  7.56289	  2.67882	  5.71066	 -0.18466	 11.07067	708.83002	 18.20	
 10.190	-142.105	 10.60331	  1.56148	  7.21150	  2.24731	  6.23986	 -0.17076	 11.07131	708.76001	 18.20	
 10.215	-132.646	 10.61104	  1.92353	  6.76889	  1.85848	  6.73077	 -0.17706	 11.06935	708.73999	 18.20	
 10.203	-123.092	 10.61961	  2.36759	  6.24997	  1.55115	  7.14114	 -0.18566	 11.06979	708.76001	 18.20	
 10.192	-113.678	 10.62718	  2.85242	  5.69747	  1.32630	  7.45346	 -0.18245	 11.06920	708.71002	 18.20	
 10.208	-104.249	 10.63261	  3.38992	  5.11038	  1.17344	  7.67528	 -0.17309	 11.06913	708.81000	 18.20	
 10.210	-94.801	 10.64007	  3.96755	  4.51431	  1.11516	  7.78153	 -0.16098	 11.06633	708.72998	 18.20	
 10.210	-85.199	 10.65075	  4.56806	  3.92054	  1.12618	  7.78164	 -0.16790	 11.07031	708.81000	 18.20	
 10.208	-75.751	 10.65128	  5.16282	  3.35888	  1.21031	  7.67003	 -0.16946	 11.06530	708.82001	 18.20	
 10.192	-66.322	 10.65807	  5.74213	  2.83483	  1.37700	  7.45095	 -0.15579	 11.06710	708.84003	 18.20	
 10.203	-56.908	 10.65592	  6.27934	  2.37048	  1.61940	  7.12847	 -0.13378	 11.06342	708.78003	 18.20	
 10.215	-47.354	 10.66174	  6.78114	  1.95223	  1.94282	  6.71700	 -0.12779	 11.06799	708.76001	 18.20	
 10.190	-37.895	 10.66132	  7.20194	  1.61068	  2.34172	  6.22466	 -0.11958	 11.06593	708.78998	 18.20	
 10.194	-28.474	 10.65283	  7.53831	  1.33213	  2.78360	  5.68746	 -0.09908	 11.06149	708.78003	 18.20	
 10.210	-18.966	 10.64550	  7.78887	  1.12652	  3.29039	  5.10791	 -0.07695	 11.06517	708.59998	 18.20	
 10.191	 -9.503	 10.63301	  7.92265	  1.01000	  3.84799	  4.50153	 -0.05575	 11.06475	708.72998	 18.20	
 10.200	  0.000	 10.61818	  7.94767	  0.96323	  4.42183	  3.90258	 -0.05144	 11.06005	708.72998	 18.20	
 10.191	  9.503	 10.61765	  7.87470	  1.00522	  5.02319	  3.32365	 -0.04460	 11.06907	708.78003	 18.30	
 10.210	 18.966	 10.59176	  7.68200	  1.11366	  5.61490	  2.76819	 -0.03683	 11.06436	708.76001	 18.20	
 10.194	 28.474	 10.58107	  7.38932	  1.31203	  6.17859	  2.26937	 -0.02926	 11.06470	708.79999	 18.30	
 10.190	 37.895	 10.57108	  7.00956	  1.58469	  6.69561	  1.83240	 -0.04123	 11.06224	708.84998	 18.30	
 10.215	 47.354	 10.56070	  6.54908	  1.93596	  7.17150	  1.43924	 -0.06946	 11.06153	708.78003	 18.30	
 10.203	 56.908	 10.54876	  6.01822	  2.35243	  7.55659	  1.12568	 -0.08666	 11.06208	708.71002	 18.30	
 10.192	 66.322	 10.54883	  5.45605	  2.82864	  7.85218	  0.89794	 -0.09531	 11.06356	708.73999	 18.30	
 10.208	 75.751	 10.53677	  4.86022	  3.35037	  8.04990	  0.73365	 -0.09838	 11.06318	708.83002	 18.30	
 10.210	 85.199	 10.52905	  4.25725	  3.91125	  8.13997	  0.65673	 -0.11274	 11.06386	708.73999	 18.30	
 10.210	 94.801	 10.52052	  3.66681	  4.50755	  8.12428	  0.65577	 -0.14089	 11.06325	708.82001	 18.30	
 10.208	104.249	 10.50500	  3.10169	  5.10667	  8.00286	  0.73517	 -0.15410	 11.05994	708.77002	 18.30	
 10.192	113.678	 10.49892	  2.58951	  5.68859	  7.78005	  0.89609	 -0.15961	 11.06036	708.84998	 18.30	
 10.203	123.092	 10.49750	  2.12813	  6.23783	  7.47090	  1.12751	 -0.15203	 11.06263	708.83002	 18.30	
 10.215	132.646	 10.49521	  1.72041	  6.74895	  7.05769	  1.44273	 -0.16317	 11.06116	708.90002	 18.30	
 10.190	142.105	 10.50440	  1.39239	  7.19386	  6.57264	  1.83502	 -0.17894	 11.06439	708.81000	 18.30	
 10.194	151.526	 10.51229	  1.13676	  7.55106	  6.04651	  2.27832	 -0.19005	 11.06604	708.78998	 18.30	
 10.210	161.034	 10.50944	  0.95251	  7.81473	  5.47402	  2.77674	 -0.19025	 11.05507	708.64001	 18.30	
 10.191	170.497	 10.52771	  0.86175	  7.97611	  4.87989	  3.34295	 -0.19177	 11.05833	708.71997	 18.30	
 11.899	171.783	 10.30468	  0.21062	  8.44630	  4.68583	  3.15859	 -0.28881	 11.06228	708.72998	 18.30	
 11.890	163.610	 10.28675	  0.29083	  8.29941	  5.28174	  2.59773	 -0.29213	 11.05742	708.71002	 18.30	
 11.889	155.445	 10.28163	  0.43384	  8.06998	  5.86039	  2.08174	 -0.29951	 11.05974	708.72998	 18.30	
 11.909	147.299	 10.27094	  0.63912	  7.75732	  6.41942	  1.60836	 -0.29129	 11.05755	708.78003	 18.30	
 11.902	139.148	 10.27067	  0.91411	  7.36235	  6.94451	  1.18851	 -0.28530	 11.06510	708.71997	 18.30	
 11.894	130.867	 10.26713	  1.26687	  6.89120	  7.42131	  0.82385	 -0.27076	 11.06505	708.84003	 18.30	
 11.897	122.732	 10.26937	  1.66511	  6.37334	  7.81509	  0.53461	 -0.26097	 11.06129	708.76001	 18.30	
 11.903	114.597	 10.27334	  2.12116	  5.81748	  8.14160	  0.30487	 -0.27227	 11.06359	708.78998	 18.30	
 11.893	106.346	 10.28461	  2.63484	  5.22901	  8.38604	  0.14252	 -0.27617	 11.06775	708.69000	 18.30	
 11.892	 98.155	 10.29233	  3.19105	  4.61856	  8.53441	  0.04264	 -0.26444	 11.06290	708.71002	 18.30	
 11.900	 90.000	 10.29550	  3.75935	  4.02107	  8.59801	  0.00613	 -0.24391	 11.05884	708.69000	 18.40	
 11.892	 81.845	 10.30816	  4.35650	  3.44169	  8.56635	  0.04217	 -0.22785	 11.06075	708.75000	 18.40	
 11.893	 73.654	 10.31951	  4.97209	  2.88596	  8.44409	  0.13915	 -0.22235	 11.06522	708.72998	 18.40	
 11.903	 65.403	 10.32175	  5.56672	  2.36412	  8.22650	  0.29577	 -0.21825	 11.06289	708.76001	 18.40	
 11.897	 57.268	 10.33335	  6.13822	  1.90194	  7.92586	  0.52794	 -0.20357	 11.06623	708.73999	 18.40	
 11.894	 49.133	 10.33730	  6.67076	  1.48580	  7.55033	  0.81049	 -0.18685	 11.06762	708.75000	 18.40	
 11.902	 40.852	 10.34776	  7.16587	  1.11909	  7.09276	  1.17018	 -0.15580	 11.06688	708.79999	 18.40	
 11.909	 32.701	 10.35529	  7.58183	  0.82513	  6.57810	  1.58833	 -0.13828	 11.06557	708.76001	 18.40	
 11.889	 24.555	 10.37965	  7.91636	  0.60844	  6.03412	  2.06304	 -0.13169	 11.06931	708.75000	 18.40	
 11.890	 16.390	 10.39592	  8.17806	  0.45272	  5.45959	  2.57476	 -0.14467	 11.07403	708.70001	 18.40	
 11.899	  8.217	 10.40348	  8.34520	  0.34981	  4.85344	  3.12921	 -0.15167	 11.06818	708.75000	 18.40	
 11.900	  0.000	 10.41441	  8.41833	  0.31514	  4.25665	  3.71511	 -0.15511	 11.06579	708.73999	 18.40	
 11.899	 -8.217	 10.43328	  8.39996	  0.35178	  3.67844	  4.31508	 -0.15701	 11.07117	708.78003	 18.40	
 11.890	-16.390	 10.44079	  8.27669	  0.45778	  3.11608	  4.92576	 -0.17402	 11.06017	708.66998	 18.40	
 11.889	-24.555	 10.44722	  8.07093	  0.62181	  2.60370	  5.51549	 -0.19707	 11.06292	708.84998	 18.40	
 11.909	-32.701	 10.45937	  7.78512	  0.84780	  2.12761	  6.08881	 -0.21596	 11.07023	708.71997	 18.40	
 11.902	-40.852	 10.45655	  7.40298	  1.13836	  1.69892	  6.62105	 -0.23098	 11.06467	708.84003	 18.40	
 11.894	-49.133	 10.45469	  6.94441	  1.50522	  1.32712	  7.09443	 -0.23020	 11.06020	708.71997	 18.40	
 11.897	-57.268	 10.45742	  6.43907	  1.92247	  1.02469	  7.50445	 -0.24080	 11.06548	708.81000	 18.40	
 11.903	-65.403	 10.45374	  5.89637	  2.38314	  0.79175	  7.82347	 -0.24709	 11.06754	708.70001	 18.40	
 11.893	-73.654	 10.44917	  5.30851	  2.89915	  0.61936	  8.06548	 -0.25883	 11.06360	708.65997	 18.40	
 11.892	-81.845	 10.44718	  4.70907	  3.45579	  0.51363	  8.21647	 -0.25288	 11.06799	708.78998	 18.40	
 11.900	-90.000	 10.43453	  4.11335	  4.03721	  0.46971	  8.26582	 -0.24686	 11.06608	708.76001	 18.40	
 11.892	-98.155	 10.43481	  3.52837	  4.63769	  0.48992	  8.22065	 -0.24522	 11.07127	708.72998	 18.40	
 11.893	-106.346	 10.42577	  2.95492	  5.24347	  0.57542	  8.07786	 -0.25338	 11.06731	708.77002	 18.40	
 11.903	-114.597	 10.41324	  2.42262	  5.83559	  0.73115	  7.84253	 -0.26187	 11.06690	708.78003	 18.40	
 11.897	-122.732	 10.40734	  1.94384	  6.38755	  0.94826	  7.52347	 -0.26574	 11.06791	708.79999	 18.40	
 11.894	-130.867	 10.39835	  1.50597	  6.90610	  1.23356	  7.12451	 -0.26294	 11.07102	708.76001	 18.40	
 11.902	-139.148	 10.39273	  1.12234	  7.37441	  1.59403	  6.64531	 -0.25587	 11.07147	708.82001	 18.40	
 11.909	-147.299	 10.37736	  0.81352	  7.76758	  2.00744	  6.11850	 -0.26447	 11.06894	708.71997	 18.50	
 11.889	-155.445	 10.36561	  0.56923	  8.08022	  2.46621	  5.55841	 -0.27675	 11.06212	708.76001	 18.50	
 11.890	-163.610	 10.35599	  0.37730	  8.31393	  2.97215	  4.96633	 -0.29438	 11.06953	708.71002	 18.50	
 11.899	-171.783	 10.33980	  0.25427	  8.45812	  3.52462	  4.35584	 -0.30087	 11.07035	708.70001	 18.50	
 11.900	180.000	 10.31873	  0.20039	  8.49176	  4.09214	  3.75014	 -0.29597	 11.05939	708.71997	 18.50	
 13.600	180.000	 10.05931	 -0.43380	  8.93286	  3.86788	  3.54247	 -0.37434	 11.06672	708.71002	 18.50	
 13.608	-172.853	 10.06950	 -0.39634	  8.89726	  3.30328	  4.12797	 -0.37965	 11.06865	708.64001	 18.50	
 13.611	-165.583	 10.08102	 -0.29740	  8.77525	  2.74297	  4.75087	 -0.37000	 11.06399	708.66998	 18.50	
 13.601	-158.353	 10.09919	 -0.12950	  8.56419	  2.22976	  5.35482	 -0.35239	 11.06938	708.70001	 18.50	
 13.609	-151.210	 10.11286	  0.08816	  8.28016	  1.75960	  5.93554	 -0.33167	 11.06785	708.71997	 18.50	
 13.611	-143.999	 10.12341	  0.36093	  7.91935	  1.32328	  6.49720	 -0.31298	 11.06928	708.63000	 18.50	
 13.601	-136.825	 10.13820	  0.68523	  7.50116	  0.93880	  7.01422	 -0.31086	 11.07260	708.65997	 18.50	
 13.596	-129.640	 10.14819	  1.06419	  7.02437	  0.62204	  7.47026	 -0.31188	 11.06990	708.73999	 18.50	
 13.611	-122.431	 10.15008	  1.49237	  6.49074	  0.34299	  7.87158	 -0.31002	 11.06720	708.64001	 18.50	
 13.604	-115.211	 10.16229	  1.97542	  5.91809	  0.12555	  8.20527	 -0.30763	 11.07082	708.65002	 18.50	
 13.595	-108.042	 10.16987	  2.49050	  5.33166	 -0.03035	  8.45255	 -0.29900	 11.06769	708.69000	 18.50	
 13.607	-100.793	 10.17397	  3.04681	  4.72720	 -0.13374	  8.62854	 -0.29310	 11.06690	708.78998	 18.50	
 13.601	-93.617	 10.17822	  3.62476	  4.12256	 -0.17698	  8.70576	 -0.29473	 11.06483	708.71002	 18.50	
 13.601	-86.383	 10.18803	  4.21818	  3.53550	 -0.16169	  8.70810	 -0.29877	 11.06952	708.84003	 18.50	
 13.607	-79.207	 10.19812	  4.81931	  2.95410	 -0.10830	  8.62329	 -0.30958	 11.07207	708.71997	 18.50	
 13.595	-71.958	 10.20817	  5.42694	  2.41005	  0.01555	  8.44619	 -0.31566	 11.07206	708.66998	 18.50	
 13.604	-64.789	 10.21446	  6.00442	  1.91532	  0.19228	  8.18817	 -0.31159	 11.07093	708.72998	 18.50	
 13.611	-57.569	 10.21458	  6.56197	  1.45422	  0.42557	  7.85068	 -0.31122	 11.06652	708.85999	 18.50	
 13.596	-50.360	 10.21466	  7.07924	  1.04522	  0.71802	  7.44382	 -0.31268	 11.06311	708.70001	 18.50	
 13.601	-43.175	 10.21904	  7.54804	  0.68483	  1.05335	  6.99057	 -0.31660	 11.07166	708.64001	 18.50	
 13.611	-36.001	 10.21823	  7.95572	  0.37915	  1.44675	  6.47095	 -0.32043	 11.06912	708.63000	 18.50	
 13.609	-28.790	 10.21786	  8.29985	  0.12938	  1.89863	  5.90425	 -0.31024	 11.07245	708.69000	 18.50	
 13.601	-21.647	 10.21536	  8.56442	 -0.06324	  2.38129	  5.32882	 -0.29449	 11.07622	708.67999	 18.50	
 13.611	-14.417	 10.19840	  8.74407	 -0.20823	  2.90531	  4.71671	 -0.27371	 11.07153	708.72998	 18.50	
 13.608	 -7.147	 10.18830	  8.84818	 -0.28851	  3.47501	  4.10328	 -0.26289	 11.07279	708.73999	 18.60	
 13.600	  0.000	 10.17464	  8.86163	 -0.31689	  4.05212	  3.50586	 -0.26168	 11.06980	708.65002	 18.50	
 13.608	  7.147	 10.15806	  8.79240	 -0.29899	  4.64023	  2.92331	 -0.25993	 11.06820	708.65997	 18.60	
 13.611	 14.417	 10.14273	  8.63555	 -0.21912	  5.24924	  2.35447	 -0.25887	 11.06942	708.72998	 18.60	
 13.601	 21.647	 10.13323	  8.39877	 -0.07372	  5.84157	  1.83868	 -0.24417	 11.06945	708.71997	 18.60	
 13.609	 28.790	 10.11827	  8.09274	  0.11756	  6.40868	  1.35252	 -0.24512	 11.06821	708.75000	 18.60	
 13.611	 36.001	 10.10653	  7.70816	  0.36672	  6.95793	  0.91170	 -0.25557	 11.07473	708.76001	 18.60	
 13.601	 43.175	 10.09107	  7.26207	  0.67310	  7.44975	  0.53097	 -0.28305	 11.06822	708.65997	 18.60	
 13.596	 50.360	 10.08785	  6.76735	  1.03125	  7.88481	  0.21064	 -0.30545	 11.07184	708.73999	 18.60	
 13.611	 57.569	 10.07463	  6.21363	  1.44585	  8.26918	 -0.06948	 -0.32973	 11.06709	708.78998	 18.60	
 13.604	 64.789	 10.06307	  5.62847	  1.90768	  8.57561	 -0.29186	 -0.34391	 11.06648	708.75000	 18.60	
 13.595	 71.958	 10.06225	  5.04054	  2.40885	  8.80674	 -0.45271	 -0.34418	 11.07514	708.79999	 18.60	
 13.607	 79.207	 10.04747	  4.42409	  2.94601	  8.95955	 -0.56977	 -0.35128	 11.06765	708.66998	 18.60	
 13.601	 86.383	 10.03755	  3.82346	  3.51204	  9.02528	 -0.62113	 -0.36045	 11.06729	708.78003	 18.60	
 13.601	 93.617	 10.03218	  3.23707	  4.10592	  9.01186	 -0.62644	 -0.38250	 11.06834	708.69000	 18.60	
 13.607	100.793	 10.01830	  2.67099	  4.70686	  8.91648	 -0.57623	 -0.39532	 11.06653	708.71997	 18.60	
 13.595	108.042	 10.01213	  2.13812	  5.32048	  8.73428	 -0.45323	 -0.39825	 11.06496	708.78998	 18.60	
 13.604	115.211	 10.00850	  1.64778	  5.90323	  8.48042	 -0.28813	 -0.38817	 11.06995	708.71002	 18.60	
 13.611	122.431	  9.99838	  1.19504	  6.46312	  8.14873	 -0.07665	 -0.38092	 11.06672	708.73999	 18.60	
 13.596	129.640	 10.00525	  0.80143	  7.00392	  7.73796	  0.22174	 -0.38275	 11.06887	708.72998	 18.60	
 13.601	136.825	 10.00509	  0.45504	  7.48011	  7.29024	  0.53854	 -0.39735	 11.07137	708.78998	 18.60	
 13.611	143.999	 10.00609	  0.16431	  7.90129	  6.78038	  0.92576	 -0.40655	 11.07061	708.78998	 18.60	
 13.609	151.210	 10.01897	 -0.06936	  8.27205	  6.22370	  1.37918	 -0.40213	 11.07837	708.64001	 18.60	
 13.601	158.353	 10.02156	 -0.23875	  8.54995	  5.64659	  1.86256	 -0.39571	 11.06667	708.71002	 18.60	
 13.611	165.583	 10.02832	 -0.36802	  8.76007	  5.05838	  2.38078	 -0.38268	 11.06854	708.66998	 18.60	
 13.608	172.853	 10.04353	 -0.42562	  8.88926	  4.44947	  2.95796	 -0.37331	 11.06935	708.77002	 18.60	
 15.298	173.587	  9.74820	 -1.03593	  9.28596	  4.19669	  2.72345	 -0.44006	 11.07129	708.63000	 18.60	
 15.291	167.167	  9.73656	 -0.98692	  9.17361	  4.79489	  2.16018	 -0.45558	 11.07511	708.71997	 18.60	
 15.307	160.676	  9.72007	 -0.89364	  8.98800	  5.38579	  1.62591	 -0.48081	 11.06861	708.76001	 18.60	
 15.300	154.261	  9.71140	 -0.74730	  8.73085	  5.97002	  1.13599	 -0.49999	 11.07491	708.82001	 18.60	
 15.288	147.854	  9.70826	 -0.54886	  8.40167	  6.54351	  0.68589	 -0.50914	 11.07453	708.71002	 18.60	
 15.293	141.428	  9.70891	 -0.30368	  8.01398	  7.08236	  0.28261	 -0.50384	 11.07866	708.63000	 18.60	
 15.299	134.985	  9.69940	 -0.00983	  7.56169	  7.57814	 -0.07439	 -0.49701	 11.07011	708.60999	 18.60	
 15.305	128.583	  9.69744	  0.32904	  7.06692	  8.03380	 -0.38720	 -0.48505	 11.07013	708.78003	 18.60	
 15.309	122.142	  9.69758	  0.71384	  6.53511	  8.43694	 -0.65556	 -0.48924	 11.07304	708.71997	 18.60	
 15.304	115.711	  9.69870	  1.15632	  5.96051	  8.77378	 -0.87091	 -0.50355	 11.06885	708.70001	 18.60	
 15.297	109.291	  9.71019	  1.63480	  5.37419	  9.04369	 -1.02851	 -0.51780	 11.06963	708.81000	 18.60	
 15.293	102.897	  9.72104	  2.14963	  4.77824	  9.24062	 -1.14613	 -0.52021	 11.07166	708.71997	 18.60	
 15.293	 96.458	  9.72861	  2.70479	  4.16837	  9.35694	 -1.21071	 -0.51141	 11.06842	708.59003	 18.60	
 15.300	 90.000	  9.74005	  3.27833	  3.57023	  9.41201	 -1.23617	 -0.49790	 11.07268	708.71997	 18.60	
 15.293	 83.542	  9.75482	  3.87270	  2.99527	  9.39297	 -1.20580	 -0.48121	 11.07627	708.78998	 18.70	
 15.293	 77.103	  9.75308	  4.47625	  2.43440	  9.29164	 -1.13941	 -0.47630	 11.06615	708.66998	 18.70	
 15.297	 70.709	  9.75860	  5.07041	  1.91405	  9.12792	 -1.03596	 -0.47040	 11.06938	708.75000	 18.60	
 15.304	 64.289	  9.76663	  5.66969	  1.42131	  8.88928	 -0.87955	 -0.47239	 11.07147	708.84998	 18.70	
 15.309	 57.858	  9.77237	  6.25469	  0.96594	  8.57778	 -0.66916	 -0.46424	 11.07157	708.79999	 18.70	
 15.305	 51.417	  9.78767	  6.81533	  0.56541	  8.20035	 -0.40462	 -0.43633	 11.07639	708.89001	 18.70	
 15.299	 45.015	  9.79642	  7.32770	  0.21084	  7.76046	 -0.09590	 -0.40207	 11.06989	708.90997	 18.70	
 15.293	 38.572	  9.80633	  7.78922	 -0.09232	  7.27961	  0.25344	 -0.37689	 11.07134	708.90002	 18.70	
 15.288	 32.146	  9.82034	  8.20401	 -0.35567	  6.75830	  0.64570	 -0.35799	 11.07209	708.83002	 18.70	
 15.300	 25.739	  9.83249	  8.55846	 -0.57085	  6.19602	  1.09913	 -0.35222	 11.07330	708.79999	 18.70	
 15.307	 19.324	  9.84966	  8.84142	 -0.73515	  5.61292	  1.59654	 -0.35411	 11.07321	708.83002	 18.70	
 15.291	 12.833	  9.86374	  9.05164	 -0.84672	  5.01439	  2.12503	 -0.36240	 11.07262	708.83002	 18.70	
 15.298	  6.413	  9.88281	  9.19915	 -0.91248	  4.41481	  2.68756	 -0.36461	 11.07765	708.79999	 18.70	
 15.300	  0.000	  9.89578	  9.26207	 -0.92721	  3.82786	  3.26623	 -0.35821	 11.07367	708.90002	 18.70	
 15.298	 -6.413	  9.91037	  9.24817	 -0.89758	  3.25393	  3.86189	 -0.35259	 11.07655	708.84998	 18.70	
 15.291	-12.833	  9.92758	  9.16229	 -0.82429	  2.69227	  4.47641	 -0.35586	 11.07483	708.87000	 18.70	
 15.307	-19.324	  9.92635	  8.99761	 -0.71794	  2.14926	  5.08511	 -0.36529	 11.06934	708.75000	 18.70	
 15.300	-25.739	  9.93934	  8.76891	 -0.55754	  1.66160	  5.67901	 -0.37218	 11.07640	708.83002	 18.70	
 15.288	-32.146	  9.95121	  8.46124	 -0.34185	  1.20300	  6.26467	 -0.37514	 11.08716	708.83002	 18.70	
 15.293	-38.572	  9.94497	  8.08368	 -0.07730	  0.79015	  6.80705	 -0.37709	 11.07295	708.78998	 18.70	
 15.299	-45.015	  9.94787	  7.65871	  0.23184	  0.43349	  7.30973	 -0.36264	 11.07786	708.84003	 18.70	
 15.305	-51.417	  9.93789	  7.17388	  0.57715	  0.10870	  7.76685	 -0.34403	 11.07095	708.84003	 18.70	
 15.309	-57.858	  9.93665	  6.65445	  0.97187	 -0.16677	  8.16863	 -0.33247	 11.07360	708.76001	 18.70	
 15.304	-64.289	  9.93531	  6.09240	  1.42572	 -0.39111	  8.51466	 -0.33675	 11.07600	708.77002	 18.70	
 15.297	-70.709	  9.92539	  5.50751	  1.91411	 -0.56318	  8.77960	 -0.32783	 11.07128	708.76001	 18.70	
 15.293	-77.103	  9.91579	  4.91512	  2.44010	 -0.68517	  8.96868	 -0.31993	 11.06761	708.84003	 18.70	
 15.293	-83.542	  9.91413	  4.30996	  3.00966	 -0.75756	  9.08582	 -0.31721	 11.07397	708.76001	 18.70	
 15.300	-90.000	  9.90763	  3.70985	  3.59093	 -0.78730	  9.12993	 -0.30748	 11.07464	708.78998	 18.70	
 15.293	-96.458	  9.89607	  3.12833	  4.19030	 -0.77166	  9.08883	 -0.29880	 11.07469	708.83002	 18.70	
 15.293	-102.897	  9.88564	  2.55221	  4.79834	 -0.72237	  8.97918	 -0.30444	 11.07362	708.84998	 18.70	
 15.297	-109.291	  9.87910	  2.01942	  5.39273	 -0.61986	  8.79767	 -0.30705	 11.07395	708.89001	 18.70	
 15.304	-115.711	  9.86765	  1.51399	  5.97962	 -0.46680	  8.53350	 -0.30812	 11.07202	708.84003	 18.70	
 15.309	-122.142	  9.85633	  1.03772	  6.55035	 -0.25780	  8.19628	 -0.31930	 11.06960	708.77002	 18.70	
 15.305	-128.583	  9.85736	  0.61722	  7.09410	 -0.00037	  7.79610	 -0.32122	 11.07467	708.81000	 18.70	
 15.299	-134.985	  9.84970	  0.25103	  7.58740	  0.31119	  7.34339	 -0.32095	 11.07434	708.87000	 18.70	
 15.293	-141.428	  9.83510	 -0.08100	  8.02677	  0.65713	  6.84042	 -0.33409	 11.07011	708.91998	 18.70	
 15.288	-147.854	  9.82152	 -0.36415	  8.41194	  1.05644	  6.29298	 -0.34971	 11.06682	708.87000	 18.70	
 15.300	-154.261	  9.80935	 -0.60291	  8.74180	  1.49705	  5.71304	 -0.36880	 11.07022	708.85999	 18.70	
 15.307	-160.676	  9.79850	 -0.79182	  9.00573	  1.97446	  5.12242	 -0.39804	 11.07554	708.90002	 18.70	
 15.291	-167.167	  9.78360	 -0.92690	  9.18740	  2.50186	  4.50837	 -0.41674	 11.07213	708.87000	 18.70	
 15.298	-173.587	  9.76833	 -1.01514	  9.29565	  3.05303	  3.88888	 -0.42883	 11.07298	708.84998	 18.70	
 15.300	180.000	  9.75930	 -1.05348	  9.32929	  3.61163	  3.29984	 -0.42910	 11.07407	708.91998	 18.70	
 17.000	180.000	  9.42073	 -1.64479	  9.68815	  3.33689	  3.04420	 -0.46346	 11.07653	708.94000	 18.70	
 16.990	-174.179	  9.43436	 -1.60972	  9.65671	  2.78002	  3.63309	 -0.45025	 11.07553	708.90002	 18.70	
 17.009	-168.383	  9.44274	 -1.54086	  9.56033	  2.22755	  4.24164	 -0.43419	 11.07154	708.90002	 18.70	
 17.000	-162.596	  9.45853	 -1.41962	  9.38852	  1.72181	  4.85006	 -0.41414	 11.07415	708.87000	 18.70	
 16.990	-156.759	  9.47555	 -1.24905	  9.15676	  1.23596	  5.45740	 -0.38470	 11.07315	708.84998	 18.70	
 16.995	-150.919	  9.48293	 -1.04485	  8.85772	  0.78199	  6.04987	 -0.35833	 11.07211	708.84003	 18.80	
 16.988	-145.161	  9.49958	 -0.79979	  8.50171	  0.38183	  6.60909	 -0.34660	 11.07189	708.70001	 18.80	
 17.014	-139.343	  9.50857	 -0.51760	  8.09587	  0.01788	  7.13808	 -0.33054	 11.06957	708.71002	 18.80	
 17.007	-133.546	  9.52133	 -0.18022	  7.62951	 -0.30744	  7.64029	 -0.32149	 11.07368	708.73999	 18.80	
 17.001	-127.699	  9.53064	  0.19136	  7.11983	 -0.59348	  8.09142	 -0.32106	 11.07582	708.79999	 18.80	
 17.006	-121.937	  9.53460	  0.59026	  6.57971	 -0.83919	  8.48780	 -0.30690	 11.07374	708.87000	 18.80	
 17.002	-116.134	  9.54330	  1.05157	  6.01261	 -1.02275	  8.81597	 -0.30090	 11.07312	708.87000	 18.80	
 17.001	-110.310	  9.54796	  1.54659	  5.41886	 -1.17495	  9.08414	 -0.29853	 11.06638	708.78003	 18.80	
 16.988	-104.517	  9.56376	  2.07001	  4.82665	 -1.27788	  9.28965	 -0.28743	 11.07282	708.92999	 18.80	
 17.008	-98.662	  9.56931	  2.62056	  4.22310	 -1.35417	  9.43160	 -0.29361	 11.07650	708.91998	 18.80	
 16.996	-92.909	  9.57237	  3.18158	  3.62733	 -1.38577	  9.49751	 -0.29076	 11.07623	708.79999	 18.80	
 16.996	-87.091	  9.58156	  3.77274	  3.04178	 -1.38039	  9.49556	 -0.29404	 11.07428	708.84998	 18.80	
 17.012	-81.253	  9.58685	  4.36923	  2.46501	 -1.34216	  9.42140	 -0.29958	 11.07078	708.88000	 18.80	
 16.988	-75.483	  9.59892	  4.96967	  1.92543	 -1.24930	  9.27494	 -0.30698	 11.06870	708.91998	 18.80	
 17.001	-69.690	  9.60005	  5.55878	  1.40896	 -1.12742	  9.06403	 -0.31378	 11.07057	708.83002	 18.80	
 17.002	-63.866	  9.60975	  6.13908	  0.93271	 -0.95457	  8.78677	 -0.32885	 11.07032	708.87000	 18.80	
 17.006	-58.063	  9.61669	  6.70418	  0.48996	 -0.75437	  8.45619	 -0.33595	 11.07793	708.85999	 18.80	
 17.001	-52.301	  9.62388	  7.23111	  0.10513	 -0.50269	  8.06078	 -0.35106	 11.08120	708.82001	 18.80	
 17.007	-46.454	  9.61913	  7.72036	 -0.24660	 -0.20056	  7.60171	 -0.36402	 11.07127	708.82001	 18.80	
 17.014	-40.657	  9.61890	  8.17146	 -0.55721	  0.13354	  7.10031	 -0.38340	 11.06997	708.90997	 18.80	
 16.988	-34.839	  9.62445	  8.56977	 -0.82029	  0.52145	  6.56998	 -0.39852	 11.07780	708.70001	 18.80	
 16.995	-29.081	  9.62007	  8.90542	 -1.03784	  0.94022	  6.00598	 -0.41170	 11.07311	708.87000	 18.80	
 16.990	-23.241	  9.61853	  9.18437	 -1.20504	  1.41244	  5.41382	 -0.41416	 11.07177	708.88000	 18.80	
 17.000	-17.404	  9.61600	  9.39952	 -1.34206	  1.91127	  4.81714	 -0.41684	 11.07620	708.88000	 18.80	
 17.009	-11.617	  9.59738	  9.53821	 -1.44313	  2.43196	  4.20996	 -0.42076	 11.07374	708.83002	 18.80	
 16.990	 -5.821	  9.59278	  9.61650	 -1.49812	  2.99170	  3.60773	 -0.42918	 11.07382	708.78003	 18.80	
 17.000	  0.000	  9.57501	  9.62267	 -1.52663	  3.56261	  3.01391	 -0.43947	 11.07448	708.94000	 18.80	
 16.990	  5.821	  9.56285	  9.55909	 -1.50683	  4.15278	  2.43431	 -0.45616	 11.07474	708.87000	 18.80	
 17.009	 11.617	  9.54378	  9.43174	 -1.45539	  4.75001	  1.87273	 -0.46372	 11.07206	708.81000	 18.80	
 17.000	 17.404	  9.52843	  9.23617	 -1.35961	  5.33810	  1.35410	 -0.46500	 11.06566	708.83002	 18.80	
 16.990	 23.241	  9.51528	  8.97958	 -1.22494	  5.93296	  0.84768	 -0.45835	 11.07242	708.88000	 18.80	
 16.995	 29.081	  9.50028	  8.65091	 -1.04425	  6.51348	  0.37946	 -0.46360	 11.07615	708.94000	 18.80	
 16.988	 34.839	  9.48573	  8.27062	 -0.81672	  7.05163	 -0.01589	 -0.48108	 11.07431	708.87000	 18.80	
 17.014	 40.657	  9.47115	  7.83713	 -0.55278	  7.56745	 -0.38410	 -0.50289	 11.07550	708.90002	 18.80	
 17.007	 46.454	  9.46123	  7.35177	 -0.24854	  8.04630	 -0.71266	 -0.53386	 11.07541	708.85999	 18.80	
 17.001	 52.301	  9.44743	  6.81727	  0.10192	  8.47388	 -0.99862	 -0.57262	 11.07263	708.84003	 18.80	
 17.006	 58.063	  9.43612	  6.26613	  0.48872	  8.84274	 -1.23892	 -0.59807	 11.07309	708.83002	 18.80	
 17.002	 63.866	  9.43727	  5.68375	  0.93656	  9.15402	 -1.42567	 -0.60316	 11.07407	708.87000	 18.80	
 17.001	 69.690	  9.43098	  5.08487	  1.41464	  9.40292	 -1.58604	 -0.59743	 11.07033	708.79999	 18.80	
 16.988	 75.483	  9.42525	  4.48700	  1.92367	  9.58544	 -1.69638	 -0.60234	 11.07067	708.87000	 18.80	
 17.012	 81.253	  9.41523	  3.88873	  2.45860	  9.70858	 -1.77650	 -0.61225	 11.06788	708.78998	 18.80	
 16.996	 87.091	  9.40849	  3.28928	  3.02915	  9.76009	 -1.81677	 -0.62104	 11.07327	708.88000	 18.80	
 16.996	 92.909	  9.39564	  2.71594	  3.60780	  9.74445	 -1.81768	 -0.63143	 11.06999	708.90997	 18.80	
 17.008	 98.662	  9.38364	  2.15876	  4.20088	  9.67293	 -1.79085	 -0.64595	 11.07455	708.84998	 18.80	
 16.988	104.517	  9.38023	  1.62726	  4.81041	  9.52211	 -1.70419	 -0.64988	 11.07311	708.84998	 18.80	
 17.001	110.310	  9.37502	  1.12880	  5.40783	  9.31173	 -1.58624	 -0.63486	 11.07791	708.90002	 18.80	
 17.002	116.134	  9.36031	  0.66365	  5.99168	  9.02401	 -1.42410	 -0.61601	 11.07249	708.96997	 18.80	
 17.006	121.937	  9.35379	  0.23757	  6.55645	  8.68492	 -1.22863	 -0.60154	 11.07062	708.94000	 18.80	
 17.001	127.699	  9.35918	 -0.13511	  7.09581	  8.29580	 -0.98001	 -0.59902	 11.07415	708.83002	 18.90	
 17.007	133.546	  9.35304	 -0.47760	  7.60669	  7.84348	 -0.68835	 -0.59731	 11.07142	708.94000	 18.90	
 17.014	139.343	  9.35331	 -0.77622	  8.07638	  7.34787	 -0.35790	 -0.60433	 11.07490	708.85999	 18.90	
 16.988	145.161	  9.35958	 -1.02112	  8.48780	  6.81869	  0.01918	 -0.59879	 11.07543	708.91998	 18.90	
 16.995	150.919	  9.36476	 -1.22686	  8.84351	  6.27655	  0.42385	 -0.59381	 11.07669	708.84998	 18.90	
 16.990	156.759	  9.37377	 -1.38406	  9.14122	  5.69144	  0.89170	 -0.56192	 11.07308	708.87000	 18.90	
 17.000	162.596	  9.38249	 -1.51458	  9.38066	  5.09999	  1.37925	 -0.54379	 11.07445	708.88000	 18.90	
 17.009	168.383	  9.39226	 -1.59814	  9.55204	  4.51386	  1.89841	 -0.50849	 11.07756	708.90002	 18.90	
 16.990	174.179	  9.40889	 -1.63495	  9.64721	  3.92090	  2.46243	 -0.48809	 11.07362	708.92999	 18.90	
 18.709	174.675	  9.02930	 -2.22437	  9.97747	  3.61429	  2.18500	 -0.50512	 11.07604	708.79999	 18.90	
 18.703	169.441	  9.01239	 -2.17889	  9.88034	  4.19091	  1.64194	 -0.54370	 11.06913	708.82001	 18.90	
 18.691	164.085	  9.00242	 -2.10771	  9.72170	  4.78143	  1.12486	 -0.57358	 11.06629	708.82001	 18.90	
 18.706	158.818	  8.99527	 -2.00692	  9.51853	  5.37276	  0.63277	 -0.60910	 11.07560	708.78998	 18.90	
 18.695	153.537	  8.99100	 -1.86138	  9.23938	  5.95804	  0.17629	 -0.64345	 11.07348	708.83002	 18.90	
 18.704	148.255	  8.98265	 -1.69238	  8.91445	  6.51981	 -0.24253	 -0.66051	 11.07345	708.82001	 18.90	
 18.698	142.952	  8.97719	 -1.47394	  8.52469	  7.06357	 -0.62416	 -0.67589	 11.07042	708.83002	 18.90	
 18.699	137.625	  8.98118	 -1.22788	  8.09378	  7.58811	 -0.96965	 -0.68337	 11.07705	708.83002	 18.90	
 18.705	132.343	  8.97637	 -0.93484	  7.61223	  8.06798	 -1.28247	 -0.69056	 11.07336	708.78998	 18.90	
 18.713	127.067	  8.97790	 -0.60876	  7.10542	  8.50211	 -1.54516	 -0.69698	 11.07016	708.82001	 18.90	
 18.700	121.794	  8.98343	 -0.23480	  6.56318	  8.89315	 -1.76973	 -0.70376	 11.07030	708.79999	 18.90	
 18.698	116.504	  8.98473	  0.16799	  5.99687	  9.23587	 -1.96519	 -0.72060	 11.06851	708.82001	 18.90	
 18.707	111.165	  8.98564	  0.61715	  5.40063	  9.53018	 -2.12919	 -0.73640	 11.06538	708.75000	 18.90	
 18.690	105.863	  8.99685	  1.09637	  4.80487	  9.75533	 -2.24968	 -0.75089	 11.06772	708.77002	 18.90	
 18.696	100.583	  9.00352	  1.60210	  4.21119	  9.92519	 -2.34007	 -0.75769	 11.06988	708.77002	 18.90	
 18.700	 95.309	  9.01402	  2.14030	  3.61156	 10.03172	 -2.39249	 -0.76077	 11.06988	708.75000	 18.90	
 18.700	 90.000	  9.02209	  2.70030	  3.03069	 10.06955	 -2.39943	 -0.75131	 11.06532	708.82001	 18.90	
 18.700	 84.691	  9.04053	  3.27941	  2.46901	 10.05945	 -2.38051	 -0.74305	 11.07686	708.79999	 18.90	
 18.696	 79.417	  9.04739	  3.87378	  1.91969	  9.98550	 -2.33211	 -0.73618	 11.07370	708.87000	 18.90	
 18.690	 74.137	  9.05264	  4.46566	  1.39805	  9.84630	 -2.24556	 -0.72259	 11.07019	708.71997	 18.90	
 18.707	 68.835	  9.05805	  5.06455	  0.90842	  9.65109	 -2.12924	 -0.72269	 11.06746	708.79999	 18.90	
 18.698	 63.496	  9.06571	  5.66655	  0.43945	  9.38547	 -1.97473	 -0.71766	 11.07171	708.85999	 18.90	
 18.700	 58.206	  9.07700	  6.24797	  0.02378	  9.07101	 -1.78759	 -0.71911	 11.07459	708.76001	 18.90	
 18.713	 52.933	  9.07591	  6.80264	 -0.36481	  8.70458	 -1.56731	 -0.70163	 11.07261	708.73999	 18.90	
 18.705	 47.657	  9.08230	  7.33146	 -0.70603	  8.28788	 -1.30726	 -0.67078	 11.07048	708.69000	 18.90	
 18.699	 42.375	  9.09748	  7.83268	 -1.01002	  7.82361	 -1.00408	 -0.63377	 11.07180	708.75000	 18.90	
 18.698	 37.048	  9.11517	  8.29481	 -1.27108	  7.32339	 -0.66400	 -0.61049	 11.07325	708.73999	 18.90	
 18.704	 31.745	  9.12601	  8.69919	 -1.50846	  6.79259	 -0.29754	 -0.58506	 11.07481	708.79999	 18.90	
 18.695	 26.463	  9.14629	  9.05198	 -1.69551	  6.24268	  0.11479	 -0.56662	 11.07578	708.87000	 18.90	
 18.706	 21.182	  9.15619	  9.35115	 -1.85472	  5.64683	  0.58268	 -0.55639	 11.07027	708.89001	 18.90	
 18.691	 15.915	  9.16927	  9.58603	 -1.95940	  5.05136	  1.08458	 -0.55649	 11.06459	708.73999	 18.90	
 18.703	 10.559	  9.18630	  9.77288	 -2.04550	  4.45932	  1.60521	 -0.54500	 11.07120	708.84003	 18.90	
 18.709	  5.325	  9.20418	  9.89180	 -2.09270	  3.87224	  2.15673	 -0.52170	 11.07106	708.85999	 18.90	
 18.700	  0.000	  9.22072	  9.95184	 -2.10732	  3.28791	  2.73277	 -0.50108	 11.07440	708.79999	 18.90	
 18.709	 -5.325	  9.23121	  9.94546	 -2.08573	  2.72376	  3.31530	 -0.47975	 11.07362	708.82001	 18.90	
 18.703	-10.559	  9.24337	  9.88160	 -2.03546	  2.17223	  3.91806	 -0.46677	 11.07307	708.85999	 18.90	
 18.691	-15.915	  9.25320	  9.74466	 -1.94168	  1.65417	  4.52072	 -0.44685	 11.06657	708.79999	 18.90	
 18.706	-21.182	  9.26280	  9.55903	 -1.82529	  1.16210	  5.11904	 -0.44044	 11.06964	708.82001	 18.90	
 18.695	-26.463	  9.27007	  9.30515	 -1.67439	  0.70093	  5.71457	 -0.42913	 11.06958	708.79999	 18.90	
 18.704	-31.745	  9.27322	  9.00216	 -1.48836	  0.27391	  6.28592	 -0.40627	 11.07276	708.77002	 18.90	
 18.698	-37.048	  9.27124	  8.63358	 -1.27135	 -0.11605	  6.83631	 -0.38468	 11.06853	708.87000	 18.90	
 18.699	-42.375	  9.27293	  8.21648	 -1.00677	 -0.48039	  7.36832	 -0.36716	 11.07188	708.79999	 18.90	
 18.705	-47.657	  9.27174	  7.75563	 -0.69951	 -0.79531	  7.86135	 -0.35100	 11.07477	708.78003	 18.90	
 18.713	-52.933	  9.26999	  7.25786	 -0.35951	 -1.07031	  8.30275	 -0.33143	 11.07753	708.82001	 18.90	
 18.700	-58.206	  9.26575	  6.73061	  0.01655	 -1.30424	  8.68841	 -0.31849	 11.07035	708.82001	 18.90	
 18.698	-63.496	  9.25963	  6.16872	  0.44189	 -1.50050	  9.02921	 -0.30178	 11.07060	708.77002	 18.90	
 18.707	-68.835	  9.24720	  5.57906	  0.91562	 -1.67157	  9.32246	 -0.29698	 11.07040	708.77002	 18.90	
 18.690	-74.137	  9.24207	  4.99104	  1.41462	 -1.79418	  9.54646	 -0.28278	 11.06856	708.73999	 18.90	
 18.696	-79.417	  9.22989	  4.39703	  1.93792	 -1.89236	  9.71145	 -0.27677	 11.06974	708.76001	 18.90	
 18.700	-84.691	  9.21441	  3.79839	  2.48737	 -1.95115	  9.80625	 -0.27277	 11.06416	708.69000	 18.90	
 18.700	-90.000	  9.21222	  3.21624	  3.05935	 -1.96494	  9.84142	 -0.27198	 11.06797	708.71997	 19.00	
 18.700	-95.309	  9.20598	  2.64638	  3.64279	 -1.95901	  9.81976	 -0.27291	 11.07747	708.83002	 19.00	
 18.696	-100.583	  9.19418	  2.09261	  4.23702	 -1.90596	  9.71277	 -0.27398	 11.06400	708.71002	 19.00	
 18.690	-105.863	  9.19674	  1.56280	  4.83647	 -1.82776	  9.56667	 -0.27453	 11.07437	708.77002	 19.00	
 18.707	-111.165	  9.18307	  1.05762	  5.42577	 -1.72742	  9.35320	 -0.27236	 11.07451	708.76001	 19.00	
 18.698	-116.504	  9.17524	  0.57739	  6.02063	 -1.57590	  9.06479	 -0.28102	 11.06956	708.73999	 19.00	
 18.700	-121.794	  9.16616	  0.14784	  6.58308	 -1.38821	  8.72701	 -0.28090	 11.06448	708.78003	 19.00	
 18.713	-127.067	  9.15380	 -0.24909	  7.11802	 -1.17515	  8.33798	 -0.29159	 11.06376	708.71997	 19.00	
 18.705	-132.343	  9.14515	 -0.61421	  7.62884	 -0.91905	  7.90091	 -0.29839	 11.06645	708.77002	 19.00	
 18.699	-137.625	  9.14407	 -0.93769	  8.10553	 -0.61202	  7.41322	 -0.30919	 11.06935	708.64001	 19.00	
 18.698	-142.952	  9.13831	 -1.22649	  8.54109	 -0.26951	  6.89054	 -0.32475	 11.07138	708.70001	 19.00	
 18.704	-148.255	  9.12757	 -1.47904	  8.92676	  0.10123	  6.34103	 -0.34086	 11.07885	708.82001	 19.00	
 18.695	-153.537	  9.11195	 -1.68849	  9.24917	  0.51364	  5.76514	 -0.36097	 11.07363	708.90997	 19.00	
 18.706	-158.818	  9.09537	 -1.88063	  9.52711	  0.95883	  5.16381	 -0.37351	 11.07391	708.71997	 19.00	
 18.691	-164.085	  9.08641	 -2.02471	  9.73870	  1.44204	  4.56345	 -0.40630	 11.07721	708.78998	 19.00	
 18.703	-169.441	  9.06806	 -2.13206	  9.89052	  1.95287	  3.94624	 -0.42678	 11.07146	708.72998	 19.00	
 18.709	-174.675	  9.05292	 -2.19779	  9.97745	  2.48307	  3.34300	 -0.45127	 11.07153	708.75000	 19.00	
 18.700	180.000	  9.04544	 -2.21982	 10.00591	  3.04044	  2.76398	 -0.47457	 11.07137	708.71997	 19.00	
 20.400	180.000	  8.63151	 -2.77604	 10.27714	  2.72671	  2.46358	 -0.46408	 11.06752	708.71002	 19.00	
 20.401	-175.153	  8.64395	 -2.75421	 10.25891	  2.18326	  3.03532	 -0.42566	 11.07064	708.78003	 19.00	
 20.407	-170.264	  8.65536	 -2.70084	 10.17581	  1.64624	  3.63766	 -0.40622	 11.07081	708.75000	 19.00	
 20.410	-165.423	  8.67047	 -2.61373	 10.04545	  1.15275	  4.23413	 -0.38851	 11.07364	708.76001	 19.00	
 20.392	-160.496	  8.68178	 -2.48782	  9.84488	  0.66954	  4.84242	 -0.35546	 11.06909	708.71997	 19.00	
 20.401	-155.705	  8.69313	 -2.31940	  9.59655	  0.22605	  5.43782	 -0.34401	 11.06939	708.65997	 19.00	
 20.405	-150.835	  8.71054	 -2.13848	  9.29503	 -0.18314	  6.02343	 -0.32853	 11.07463	708.71997	 19.00	
 20.397	-145.903	  8.73353	 -1.90486	  8.93522	 -0.56011	  6.59892	 -0.32148	 11.07765	708.66998	 19.00	
 20.392	-141.062	  8.74103	 -1.64549	  8.53018	 -0.90687	  7.13977	 -0.30318	 11.07013	708.75000	 19.00	
 20.396	-136.227	  8.74476	 -1.36092	  8.08309	 -1.22414	  7.65036	 -0.29253	 11.06865	708.71002	 19.00	
 20.408	-131.372	  8.75618	 -1.04612	  7.61195	 -1.49327	  8.12323	 -0.28218	 11.07385	708.83002	 19.00	
 20.410	-126.511	  8.76360	 -0.69231	  7.09113	 -1.73505	  8.55583	 -0.27536	 11.06863	708.73999	 19.00	
 20.400	-121.604	  8.76769	 -0.29915	  6.54384	 -1.94577	  8.94916	 -0.26861	 11.06965	708.76001	 19.00	
 20.403	-116.741	  8.77170	  0.11705	  5.98352	 -2.12320	  9.28338	 -0.26426	 11.07051	708.65997	 19.00	
 20.413	-111.900	  8.77423	  0.56027	  5.40315	 -2.26837	  9.56895	 -0.26481	 11.06942	708.76001	 19.00	
 20.398	-107.004	  8.78563	  1.05462	  4.81735	 -2.37401	  9.79936	 -0.25928	 11.07106	708.71997	 19.00	
 20.394	-102.132	  8.79320	  1.56704	  4.22709	 -2.44693	  9.96349	 -0.25307	 11.06742	708.81000	 19.00	
 20.403	-97.332	  8.79897	  2.09560	  3.64469	 -2.50593	 10.07724	 -0.25914	 11.07087	708.84003	 19.00	
 20.392	-92.440	  8.81166	  2.65471	  3.05894	 -2.52524	 10.12957	 -0.25559	 11.06937	708.78003	 19.00	
 20.392	-87.560	  8.82178	  3.22565	  2.48800	 -2.51958	 10.12584	 -0.26365	 11.06989	708.82001	 19.00	
 20.403	-82.668	  8.82673	  3.81500	  1.92397	 -2.49238	 10.06879	 -0.25706	 11.06958	708.78003	 19.00	
 20.394	-77.868	  8.83448	  4.39805	  1.39852	 -2.43054	  9.94834	 -0.26325	 11.06661	708.77002	 19.00	
 20.398	-72.996	  8.84301	  4.98990	  0.88938	 -2.33664	  9.77827	 -0.27557	 11.07449	708.73999	 19.00	
 20.413	-68.100	  8.84706	  5.57744	  0.40055	 -2.21064	  9.53701	 -0.27960	 11.06798	708.71002	 19.00	
 20.403	-63.259	  8.85783	  6.15519	 -0.05303	 -2.05610	  9.24400	 -0.28178	 11.06859	708.64001	 19.00	
 20.400	-58.396	  8.86552	  6.71043	 -0.45533	 -1.86024	  8.90374	 -0.29532	 11.06692	708.72998	 19.00	
 20.410	-53.489	  8.87132	  7.24859	 -0.82392	 -1.64105	  8.51088	 -0.31162	 11.06766	708.70001	 19.00	
 20.408	-48.628	  8.86946	  7.75272	 -1.16493	 -1.37615	  8.07029	 -0.32406	 11.06286	708.69000	 19.00	
 20.396	-43.773	  8.87871	  8.22243	 -1.46145	 -1.08671	  7.60093	 -0.33481	 11.07185	708.66998	 19.00	
 20.392	-38.938	  8.88312	  8.65006	 -1.72588	 -0.75748	  7.08649	 -0.35594	 11.06813	708.59998	 19.00	
 20.397	-34.097	  8.88307	  9.03399	 -1.94282	 -0.38842	  6.54411	 -0.37530	 11.06556	708.64001	 19.00	
 20.405	-29.165	  8.87602	  9.37188	 -2.14130	  0.00340	  5.97153	 -0.39935	 11.06536	708.62000	 19.00	
 20.401	-24.295	  8.86749	  9.65259	 -2.29981	  0.42737	  5.39351	 -0.42400	 11.05878	708.65997	 19.00	
 20.392	-19.504	  8.86937	  9.87964	 -2.42169	  0.89191	  4.80687	 -0.44442	 11.06287	708.65002	 19.00	
 20.410	-14.577	  8.85559	 10.05445	 -2.53135	  1.38215	  4.19740	 -0.46189	 11.06375	708.63000	 19.00	
 20.407	 -9.736	  8.84991	 10.16999	 -2.60276	  1.89029	  3.60978	 -0.49526	 11.06564	708.64001	 19.00	
 20.401	 -4.847	  8.83630	 10.22513	 -2.64550	  2.43432	  3.00893	 -0.51006	 11.06666	708.75000	 19.00	
 20.400	  0.000	  8.82335	 10.22727	 -2.67133	  2.98391	  2.43742	 -0.53805	 11.06651	708.67999	 19.00	
 20.401	  4.847	  8.80590	 10.16865	 -2.64804	  3.55255	  1.88104	 -0.55595	 11.05853	708.63000	 19.00	
 20.407	  9.736	  8.78798	 10.06169	 -2.60961	  4.16046	  1.32783	 -0.58286	 11.06206	708.69000	 19.00	
 20.410	 14.577	  8.77487	  9.90114	 -2.54540	  4.74428	  0.82187	 -0.60632	 11.06110	708.69000	 19.00	
 20.392	 19.504	  8.76122	  9.67115	 -2.44744	  5.34858	  0.31232	 -0.62906	 11.06231	708.70001	 19.00	
 20.401	 24.295	  8.74342	  9.39867	 -2.32272	  5.92610	 -0.14597	 -0.64441	 11.06602	708.67999	 19.00	
 20.405	 29.165	  8.73035	  9.06547	 -2.15398	  6.48575	 -0.55776	 -0.67153	 11.06134	708.71997	 19.00	
 20.397	 34.097	  8.71833	  8.67729	 -1.95129	  7.04164	 -0.94546	 -0.69763	 11.06656	708.65997	 19.00	
 20.392	 38.938	  8.70317	  8.24891	 -1.71788	  7.56091	 -1.29040	 -0.72407	 11.06209	708.71002	 19.00	
 20.396	 43.773	  8.68550	  7.78020	 -1.45391	  8.03887	 -1.60445	 -0.75040	 11.06007	708.77002	 19.00	
 20.408	 48.628	  8.68113	  7.28580	 -1.16095	  8.48298	 -1.88032	 -0.77200	 11.06565	708.64001	 19.00	
 20.410	 53.489	  8.66834	  6.74077	 -0.82243	  8.89468	 -2.12810	 -0.80446	 11.06327	708.59003	 19.00	
 20.400	 58.396	  8.66333	  6.17716	 -0.44349	  9.26881	 -2.34593	 -0.81520	 11.06375	708.64001	 19.00	
 20.403	 63.259	  8.65365	  5.60539	 -0.04454	  9.58381	 -2.52003	 -0.82047	 11.06659	708.71997	 19.00	
 20.413	 68.100	  8.64216	  5.00696	  0.39790	  9.84449	 -2.67104	 -0.82046	 11.05960	708.71997	 19.00	
 20.398	 72.996	  8.64639	  4.41465	  0.88087	 10.05673	 -2.78044	 -0.82354	 11.06630	708.65002	 19.00	
 20.394	 77.868	  8.64115	  3.82559	  1.38731	 10.19967	 -2.86273	 -0.82958	 11.06726	708.66998	 19.10	
 20.403	 82.668	  8.63039	  3.24276	  1.90730	 10.28914	 -2.91256	 -0.84150	 11.06106	708.56000	 19.00	
 20.392	 87.560	  8.62327	  2.66563	  2.45904	 10.32614	 -2.93880	 -0.84779	 11.05713	708.64001	 19.00	
 20.392	 92.440	  8.61809	  2.11173	  3.02157	 10.32019	 -2.94084	 -0.85198	 11.06463	708.71002	 19.00	
 20.403	 97.332	  8.60128	  1.56041	  3.60448	 10.25222	 -2.91940	 -0.84955	 11.06243	708.69000	 19.00	
 20.394	102.132	  8.58746	  1.04579	  4.18420	 10.12798	 -2.87231	 -0.84299	 11.05930	708.66998	 19.00	
 20.398	107.004	  8.57633	  0.56427	  4.76947	  9.94597	 -2.79083	 -0.83436	 11.06030	708.78003	 19.00	
 20.413	111.900	  8.56757	  0.09775	  5.37075	  9.71598	 -2.67503	 -0.82203	 11.06619	708.69000	 19.10	
 20.403	116.741	  8.55598	 -0.31828	  5.94342	  9.41587	 -2.51719	 -0.80853	 11.05420	708.71002	 19.00	
 20.400	121.604	  8.56152	 -0.71032	  6.51436	  9.07528	 -2.33091	 -0.78586	 11.06249	708.64001	 19.10	
 20.410	126.511	  8.55451	 -1.07025	  7.06197	  8.67843	 -2.10745	 -0.77765	 11.05682	708.65002	 19.10	
 20.408	131.372	  8.54932	 -1.39340	  7.58046	  8.24570	 -1.85351	 -0.76006	 11.05102	708.64001	 19.10	
 20.396	136.227	  8.54622	 -1.67688	  8.05897	  7.78645	 -1.57784	 -0.74279	 11.05268	708.66998	 19.10	
 20.392	141.062	  8.55103	 -1.92754	  8.50210	  7.29102	 -1.26493	 -0.72819	 11.05549	708.78003	 19.10	
 20.397	145.903	  8.55552	 -2.14115	  8.90764	  6.76324	 -0.90768	 -0.69810	 11.05872	708.77002	 19.10	
 20.405	150.835	  8.56018	 -2.32985	  9.27258	  6.20126	 -0.51458	 -0.67793	 11.06252	708.65002	 19.10	
 20.401	155.705	  8.56524	 -2.48389	  9.57545	  5.63702	 -0.09679	 -0.63976	 11.06310	708.72998	 19.10	
 20.392	160.496	  8.57951	 -2.59345	  9.82759	  5.06163	  0.35324	 -0.60645	 11.06108	708.54999	 19.10	
 20.410	165.423	  8.58533	 -2.69274	 10.02726	  4.46287	  0.84535	 -0.56988	 11.06452	708.70001	 19.10	
 20.407	170.264	  8.59482	 -2.75291	 10.15740	  3.86633	  1.35129	 -0.54061	 11.05941	708.53998	 19.10	
 20.401	175.153	  8.61001	 -2.78074	 10.24426	  3.28107	  1.89633	 -0.49425	 11.05970	708.59003	 19.10	
  0.141	 45.000	 11.06022	  4.68803	  4.71240	  4.95482	  4.41788	  0.25868	 11.06396	708.59003	 19.10	
  4.001	128.691	 11.00761	  3.70670	  5.51856	  5.92341	  3.33022	  0.17793	 11.06435	708.56000	 19.10	
  4.002	 76.995	 11.01926	  4.80621	  4.37242	  6.21189	  3.09084	  0.21534	 11.06551	708.59003	 19.10	
  4.002	 25.892	 11.03412	  5.83491	  3.48087	  5.45382	  3.78631	  0.24661	 11.07055	708.50000	 19.10	
  4.002	-25.892	 11.04912	  5.87507	  3.49494	  4.28344	  4.94892	  0.22900	 11.06964	708.52002	 19.10	
  4.002	-76.995	 11.05002	  4.91757	  4.38665	  3.55010	  5.78217	  0.19545	 11.06556	708.53998	 19.10	
  4.001	-128.691	 11.03488	  3.79115	  5.53888	  3.77875	  5.47962	  0.15958	 11.06261	708.59998	 19.10	
  4.000	180.000	 11.02678	  3.26436	  6.07945	  4.78208	  4.37381	  0.14587	 11.07137	708.58002	 19.10	
  8.000	180.000	 10.77816	  1.70510	  7.38519	  4.51099	  4.12152	 -0.05984	 11.06134	708.56000	 19.10	
  7.991	-152.370	 10.80807	  2.04181	  7.03380	  3.27502	  5.46540	 -0.05764	 11.06342	708.66998	 19.10	
  7.997	-124.550	 10.83380	  2.88133	  6.06504	  2.38256	  6.56239	 -0.05135	 11.06354	708.66998	 19.10	
  8.006	-96.837	 10.84776	  4.10019	  4.74682	  1.99850	  7.09641	 -0.03472	 11.05936	708.64001	 19.10	
  7.988	-69.228	 10.86166	  5.44666	  3.46537	  2.17123	  6.90608	 -0.00878	 11.06388	708.59003	 19.10	
  7.997	-41.563	 10.86375	  6.59700	  2.45768	  2.84677	  6.05986	  0.02947	 11.06714	708.53003	 19.10	
  8.008	-13.821	 10.84267	  7.23919	  1.90493	  3.96098	  4.78322	  0.07214	 11.06226	708.54999	 19.10	
  8.008	 13.821	 10.82053	  7.18123	  1.90199	  5.29673	  3.44821	  0.08582	 11.06649	708.64001	 19.10	
  7.997	 41.563	 10.79678	  6.43628	  2.43304	  6.53307	  2.34660	  0.07372	 11.06524	708.63000	 19.10	
  7.988	 69.228	 10.78115	  5.22563	  3.44226	  7.33777	  1.67016	  0.04239	 11.06956	708.58002	 19.10	
  8.006	 96.837	 10.75484	  3.85964	  4.73536	  7.49625	  1.50721	 -0.01329	 11.06763	708.65002	 19.10	
  7.997	124.550	 10.73541	  2.68699	  6.04021	  6.94176	  1.92753	 -0.02104	 11.06024	708.59998	 19.10	
  7.991	152.370	 10.75430	  1.94221	  7.01813	  5.85290	  2.84868	 -0.05509	 11.06621	708.57001	 19.10	
 12.009	161.059	 10.27495	  0.28858	  8.26523	  5.47642	  2.39529	 -0.29796	 11.06287	708.51001	 19.10	
 12.013	142.081	 10.25207	  0.77950	  7.52289	  6.77941	  1.29769	 -0.29047	 11.06139	708.64001	 19.10	
 12.006	123.113	 10.25965	  1.62468	  6.40210	  7.83157	  0.50865	 -0.27007	 11.06901	708.65997	 19.10	
 12.007	104.200	 10.26904	  2.75457	  5.06129	  8.47036	  0.06171	 -0.28399	 11.06808	708.67999	 19.10	
 11.989	 85.301	 10.29449	  4.09543	  3.66725	  8.62551	 -0.02286	 -0.24905	 11.06844	708.67999	 19.10	
 12.013	 66.294	 10.31242	  5.50937	  2.39377	  8.28790	  0.24133	 -0.22713	 11.07121	708.71997	 19.10	
 12.012	 47.388	 10.32597	  6.79581	  1.37028	  7.48649	  0.84351	 -0.18868	 11.07152	708.65997	 19.10	
 11.990	 28.440	 10.35112	  7.78459	  0.66888	  6.30464	  1.80422	 -0.13506	 11.05966	708.64001	 19.10	
 11.991	  9.464	 10.38615	  8.34359	  0.32882	  4.95012	  3.02394	 -0.15306	 11.05975	708.71997	 19.10	
 11.991	 -9.464	 10.42059	  8.41046	  0.32549	  3.57467	  4.40044	 -0.15933	 11.06246	708.52002	 19.10	
 11.990	-28.440	 10.44340	  7.96728	  0.68407	  2.35004	  5.79490	 -0.21137	 11.06573	708.66998	 19.10	
 12.012	-47.388	 10.44597	  7.06896	  1.38468	  1.37057	  7.01673	 -0.23445	 11.06945	708.65002	 19.10	
 12.013	-66.294	 10.44725	  5.84702	  2.40588	  0.73983	  7.88043	 -0.25531	 11.06960	708.65002	 19.10	
 11.989	-85.301	 10.42974	  4.45238	  3.67805	  0.46121	  8.26916	 -0.25454	 11.06471	708.59003	 19.10	
 12.007	-104.200	 10.41033	  3.08353	  5.07621	  0.50963	  8.14948	 -0.25353	 11.06641	708.63000	 19.10	
 12.006	-123.113	 10.39140	  1.89000	  6.42103	  0.92762	  7.52096	 -0.27052	 11.06202	708.63000	 19.10	
 12.013	-142.081	 10.37343	  0.97365	  7.54188	  1.70913	  6.47164	 -0.26261	 11.07301	708.52002	 19.10	
 12.009	-161.059	 10.33372	  0.38769	  8.26994	  2.78657	  5.14631	 -0.29217	 11.05842	708.59003	 19.10	
 16.000	180.000	  9.62480	 -1.29438	  9.47273	  3.50491	  3.19740	 -0.44543	 11.06831	708.62000	 19.10	
 15.990	-165.604	  9.64881	 -1.13868	  9.27695	  2.21503	  4.60597	 -0.41963	 11.06209	708.58002	 19.10	
 16.002	-151.165	  9.67584	 -0.72802	  8.70247	  1.08445	  6.00704	 -0.35927	 11.06005	708.64001	 19.10	
 16.002	-136.836	  9.71368	 -0.06146	  7.79255	  0.19124	  7.26477	 -0.32579	 11.06875	708.71002	 19.10	
 15.995	-122.439	  9.72865	  0.83237	  6.60023	 -0.47511	  8.28722	 -0.31434	 11.06446	708.75000	 19.10	
 15.993	-107.966	  9.74836	  1.97710	  5.23240	 -0.87830	  8.97469	 -0.29693	 11.06515	708.57001	 19.10	
 16.005	-93.629	  9.76809	  3.27463	  3.83110	 -1.03112	  9.26878	 -0.29689	 11.06700	708.59003	 19.10	
 15.992	-79.234	  9.78908	  4.66270	  2.48463	 -0.95668	  9.16387	 -0.31527	 11.06907	708.70001	 19.10	
 16.009	-64.774	  9.80351	  6.04938	  1.26829	 -0.65216	  8.66386	 -0.33057	 11.07254	708.56000	 19.10	
 15.997	-50.364	  9.80618	  7.31280	  0.29433	 -0.07551	  7.77544	 -0.35187	 11.06067	708.64001	 19.10	
 15.997	-36.045	  9.80652	  8.34331	 -0.43619	  0.73111	  6.62754	 -0.38730	 11.06068	708.52002	 19.10	
 16.000	-21.597	  9.79984	  9.05999	 -0.91070	  1.79946	  5.26907	 -0.38716	 11.06499	708.54999	 19.10	
 16.003	 -7.169	  9.77073	  9.38647	 -1.15289	  3.04615	  3.85122	 -0.38532	 11.06045	708.66998	 19.10	
 16.003	  7.169	  9.74837	  9.33425	 -1.15628	  4.40881	  2.48592	 -0.40433	 11.07081	708.56000	 19.10	
 16.000	 21.597	  9.70614	  8.87385	 -0.92875	  5.80125	  1.23776	 -0.39906	 11.06395	708.59003	 19.10	
 15.997	 36.045	  9.67249	  8.05486	 -0.44062	  7.11761	  0.19101	 -0.41564	 11.06710	708.60999	 19.10	
 15.997	 50.364	  9.64640	  6.94296	  0.28488	  8.21393	 -0.58456	 -0.48102	 11.06422	708.54999	 19.10	
 16.009	 64.774	  9.62693	  5.61349	  1.26481	  9.03088	 -1.13235	 -0.52663	 11.06387	708.69000	 19.10	
 15.992	 79.234	  9.61451	  4.20900	  2.47299	  9.47040	 -1.40564	 -0.53180	 11.06024	708.59003	 19.10	
 16.005	 93.629	  9.59398	  2.82646	  3.81190	  9.54211	 -1.47878	 -0.56273	 11.06683	708.65997	 19.10	
 15.993	107.966	  9.57360	  1.56747	  5.21656	  9.22136	 -1.30041	 -0.56947	 11.06864	708.67999	 19.10	
 15.995	122.439	  9.56010	  0.49482	  6.57731	  8.52367	 -0.87714	 -0.53039	 11.07150	708.70001	 19.10	
 16.002	136.836	  9.56019	 -0.32564	  7.77180	  7.49966	 -0.19771	 -0.53649	 11.06886	708.71002	 19.10	
 16.002	151.165	  9.55820	 -0.89843	  8.68704	  6.25021	  0.71111	 -0.54291	 11.06102	708.67999	 19.10	
 15.990	165.604	  9.58746	 -1.21251	  9.26834	  4.88386	  1.86874	 -0.48705	 11.05942	708.53003	 19.10	
 20.003	168.362	  8.70100	 -2.59587	 10.05969	  4.14957	  1.24019	 -0.54584	 11.06915	708.63000	 19.10	
 20.008	156.764	  8.67165	 -2.38455	  9.58977	  5.53830	  0.10612	 -0.63180	 11.06463	708.52002	 19.10	
 20.000	145.147	  8.66146	 -1.97530	  8.81111	  6.85524	 -0.84646	 -0.70028	 11.05962	708.62000	 19.10	
 19.995	133.545	  8.66342	 -1.40156	  7.79339	  8.03616	 -1.60997	 -0.74283	 11.06565	708.59003	 19.10	
 20.009	121.926	  8.65615	 -0.62011	  6.55685	  9.01232	 -2.19545	 -0.77233	 11.05930	708.57001	 19.10	
 20.005	110.327	  8.67207	  0.34729	  5.21252	  9.74810	 -2.58197	 -0.80600	 11.06677	708.64001	 19.10	
 19.989	 98.733	  8.70117	  1.50245	  3.83907	 10.17040	 -2.77615	 -0.83603	 11.07005	708.54999	 19.20	
 19.999	 87.075	  8.72348	  2.78881	  2.48356	 10.27308	 -2.81430	 -0.82536	 11.06183	708.58002	 19.10	
 19.992	 75.457	  8.73944	  4.16385	  1.22471	 10.08205	 -2.70352	 -0.81060	 11.06675	708.67999	 19.10	
 20.009	 63.844	  8.74625	  5.54871	  0.11487	  9.57460	 -2.42026	 -0.79933	 11.06484	708.57001	 19.10	
 19.989	 52.269	  8.77545	  6.87755	 -0.78478	  8.77078	 -1.93891	 -0.77117	 11.06560	708.54999	 19.20	
 19.999	 40.602	  8.79959	  8.07242	 -1.50499	  7.72654	 -1.28502	 -0.71387	 11.06858	708.51001	 19.20	
 20.004	 29.051	  8.82928	  9.02733	 -2.02618	  6.49323	 -0.44371	 -0.65598	 11.06486	708.59003	 19.20	
 20.005	 17.433	  8.87171	  9.72379	 -2.36262	  5.13589	  0.61922	 -0.61497	 11.06937	708.65997	 19.20	
 20.006	  5.780	  8.90025	 10.09153	 -2.51500	  3.73039	  1.85027	 -0.55748	 11.06172	708.54999	 19.20	
 20.006	 -5.780	  8.93752	 10.15974	 -2.50766	  2.41918	  3.18446	 -0.50631	 11.06815	708.64001	 19.20	
 20.005	-17.433	  8.96255	  9.90457	 -2.33974	  1.19723	  4.58478	 -0.45376	 11.06100	708.60999	 19.20	
 20.004	-29.051	  8.97819	  9.33258	 -2.00749	  0.13364	  5.97105	 -0.41601	 11.06943	708.50000	 19.20	
 19.999	-40.602	  8.97708	  8.47463	 -1.50887	 -0.74782	  7.24783	 -0.36954	 11.06355	708.52002	 19.20	
 19.989	-52.269	  8.98152	  7.36928	 -0.78138	 -1.42946	  8.36618	 -0.32369	 11.06976	708.52002	 19.20	
 20.009	-63.844	  8.95306	  6.09703	  0.11809	 -1.93873	  9.22925	 -0.28613	 11.06175	708.50000	 19.20	
 19.992	-75.457	  8.93449	  4.72668	  1.23983	 -2.24931	  9.80250	 -0.27125	 11.06195	708.56000	 19.20	
 19.999	-87.075	  8.91800	  3.34737	  2.50226	 -2.38981	 10.06118	 -0.26277	 11.07217	708.46002	 19.20	
 19.989	-98.733	  8.89528	  2.02329	  3.86725	 -2.35431	  9.98112	 -0.26552	 11.06904	708.47998	 19.20	
 20.005	-110.327	  8.88119	  0.82269	  5.24063	 -2.16275	  9.58562	 -0.26516	 11.06571	708.53003	 19.20	
 20.009	-121.926	  8.86389	 -0.21307	  6.57871	 -1.79796	  8.87359	 -0.27680	 11.06202	708.52002	 19.20	
 19.995	-133.545	  8.84636	 -1.06756	  7.80187	 -1.24725	  7.88288	 -0.29320	 11.06389	708.53998	 19.20	
 20.000	-145.147	  8.82732	 -1.73478	  8.82667	 -0.49761	  6.68073	 -0.33109	 11.06293	708.54999	 19.20	
 20.008	-156.764	  8.78629	 -2.23209	  9.59947	  0.43135	  5.32894	 -0.35243	 11.06279	708.53998	 19.20	
 20.003	-168.362	  8.76227	 -2.53676	 10.06638	  1.54767	  3.92239	 -0.40140	 11.06980	708.52002	 19.20	
 20.000	180.000	  8.72599	 -2.64118	 10.20706	  2.80483	  2.53210	 -0.47975	 11.06290	708.58002	 19.20	
