FileType=PCF
NHL=14
Date=03/18/19	12:33:24
Facility=APL
Serial=16071-8
Customer=NASA
NP=6
Mach=0.150000
Calibration=1:1
CalPts=490
TstPts=95
PortNumbering=AP Standard
Units=Torr C m/s kg/m^3 deg mm 
Theta[deg]	Phi[deg]	P1[Torr]	P2[Torr]	P3[Torr]	P4[Torr]	P5[Torr]	P6[Torr]	Pt[Torr]	Ps[Abs,Torr]	Ts[C]	
  0.000	  0.000	 10.83511	  4.68258	  4.53468	  4.66728	  4.40570	  0.27672	 10.87195	709.95001	 26.00	
  1.691	128.401	 10.82711	  4.30922	  4.87815	  5.09321	  3.96085	  0.26592	 10.86790	709.91998	 26.00	
  1.692	 77.194	 10.83074	  4.76752	  4.41103	  5.22162	  3.83641	  0.28401	 10.86888	709.96997	 25.90	
  1.699	 26.182	 10.82566	  5.16466	  4.02238	  4.91631	  4.12025	  0.29554	 10.86288	709.98999	 25.90	
  1.699	-26.182	 10.82727	  5.19199	  4.00497	  4.41583	  4.62752	  0.28444	 10.86411	709.94000	 25.90	
  1.692	-77.194	 10.83404	  4.81992	  4.38193	  4.12064	  4.94641	  0.26727	 10.87166	709.95001	 25.90	
  1.691	-128.401	 10.82641	  4.34301	  4.86399	  4.21311	  4.84791	  0.25107	 10.86747	709.92999	 25.90	
  1.700	180.000	 10.82442	  4.11650	  5.09702	  4.63242	  4.41269	  0.24941	 10.86515	709.95001	 25.90	
  3.400	180.000	 10.81254	  3.54768	  5.65206	  4.56426	  4.39254	  0.20203	 10.86784	710.00000	 25.90	
  3.388	-152.325	 10.80986	  3.68102	  5.50518	  4.06704	  4.90425	  0.20393	 10.86142	709.96997	 25.90	
  3.397	-124.529	 10.81284	  4.04638	  5.10171	  3.70605	  5.30847	  0.20152	 10.86205	710.04999	 25.90	
  3.399	-96.763	 10.81697	  4.54068	  4.58026	  3.53778	  5.50048	  0.21252	 10.86562	709.84003	 25.80	
  3.394	-69.283	 10.81776	  5.06605	  4.05384	  3.60506	  5.42900	  0.23708	 10.86250	709.85999	 25.80	
  3.400	-41.398	 10.81373	  5.49787	  3.63702	  3.90893	  5.06499	  0.23808	 10.86538	709.96002	 25.80	
  3.401	-14.021	 10.81160	  5.75342	  3.39545	  4.35733	  4.57757	  0.25804	 10.86514	709.92999	 25.80	
  3.401	 14.021	 10.80972	  5.73535	  3.40526	  4.91040	  4.02259	  0.27986	 10.86822	709.88000	 25.80	
  3.400	 41.398	 10.79795	  5.44219	  3.64785	  5.37393	  3.57544	  0.26433	 10.85936	709.92999	 25.80	
  3.394	 69.283	 10.79694	  4.94860	  4.10198	  5.71234	  3.29208	  0.25426	 10.86145	709.94000	 25.80	
  3.399	 96.763	 10.80077	  4.43702	  4.62311	  5.78271	  3.25105	  0.25152	 10.86592	709.95001	 25.80	
  3.397	124.529	 10.80109	  3.96767	  5.12421	  5.55354	  3.43939	  0.21584	 10.86563	709.96002	 25.80	
  3.388	152.325	 10.80244	  3.64460	  5.50781	  5.08885	  3.86086	  0.19957	 10.86498	709.84003	 25.80	
  5.099	161.165	 10.74724	  2.98371	  6.11497	  5.02423	  3.76811	  0.13296	 10.86255	709.87000	 25.70	
  5.109	142.013	 10.73459	  3.20002	  5.82148	  5.56728	  3.26070	  0.14097	 10.85531	709.88000	 25.70	
  5.095	123.033	 10.73928	  3.58236	  5.37567	  5.99559	  2.90129	  0.15877	 10.86458	709.82001	 25.70	
  5.105	104.191	 10.73403	  4.06074	  4.83429	  6.26352	  2.67845	  0.18415	 10.86276	709.88000	 25.70	
  5.093	 85.207	 10.73623	  4.60268	  4.27226	  6.32043	  2.62817	  0.19426	 10.86343	709.84003	 25.70	
  5.104	 66.290	 10.73519	  5.16408	  3.72736	  6.19028	  2.72273	  0.22417	 10.86284	709.78998	 25.70	
  5.094	 47.331	 10.73404	  5.67695	  3.26335	  5.86459	  2.98218	  0.22735	 10.85787	709.78003	 25.70	
  5.089	 28.397	 10.73929	  6.07419	  2.93580	  5.39351	  3.39105	  0.23423	 10.86043	709.76001	 25.70	
  5.096	  9.576	 10.74433	  6.29413	  2.77753	  4.84352	  3.89658	  0.22976	 10.85967	709.96997	 25.70	
  5.096	 -9.576	 10.74905	  6.31976	  2.76708	  4.26993	  4.47200	  0.22050	 10.85802	709.77002	 25.70	
  5.089	-28.397	 10.76434	  6.14707	  2.92545	  3.76586	  5.02626	  0.21195	 10.86339	709.88000	 25.70	
  5.094	-47.331	 10.76893	  5.77894	  3.24562	  3.33537	  5.53322	  0.18140	 10.86611	709.92999	 25.70	
  5.104	-66.290	 10.76999	  5.30655	  3.67710	  3.05232	  5.90816	  0.18582	 10.86301	709.87000	 25.70	
  5.093	-85.207	 10.77788	  4.75734	  4.20040	  2.92502	  6.05595	  0.14426	 10.86140	709.96002	 25.60	
  5.105	-104.191	 10.77357	  4.19172	  4.77778	  2.94843	  6.03136	  0.12962	 10.86030	709.84998	 25.60	
  5.095	-123.033	 10.76735	  3.69135	  5.31819	  3.14383	  5.79492	  0.12620	 10.85713	709.83002	 25.60	
  5.109	-142.013	 10.76758	  3.28622	  5.79294	  3.49373	  5.38824	  0.12776	 10.86107	709.88000	 25.60	
  5.099	-161.165	 10.75995	  3.03586	  6.08395	  3.92972	  4.89298	  0.12751	 10.85903	709.84998	 25.60	
  5.100	180.000	 10.75425	  2.92687	  6.19914	  4.45882	  4.32700	  0.12422	 10.85858	709.89001	 25.60	
  6.800	180.000	 10.66553	  2.27715	  6.74588	  4.33591	  4.22529	  0.03748	 10.86013	709.81000	 25.60	
  6.796	-166.229	 10.67213	  2.35187	  6.65685	  3.80603	  4.78353	  0.04108	 10.85937	709.78003	 25.60	
  6.808	-152.311	 10.68067	  2.54329	  6.42893	  3.31416	  5.33200	  0.04520	 10.86055	709.88000	 25.60	
  6.795	-138.383	 10.68795	  2.85076	  6.06480	  2.91086	  5.81979	  0.04580	 10.86619	709.90997	 25.60	
  6.792	-124.591	 10.68714	  3.24142	  5.59876	  2.59500	  6.20512	  0.04321	 10.85691	709.84998	 25.50	
  6.787	-110.754	 10.69135	  3.72126	  5.06919	  2.39142	  6.47215	  0.04507	 10.85731	709.85999	 25.50	
  6.800	-96.985	 10.68779	  4.24810	  4.50345	  2.29285	  6.60302	  0.05302	 10.85491	710.00000	 25.50	
  6.800	-83.015	 10.69168	  4.80698	  3.94641	  2.30735	  6.58805	  0.06437	 10.86067	709.92999	 25.50	
  6.787	-69.246	 10.68468	  5.34599	  3.42701	  2.43371	  6.41565	  0.08067	 10.85654	709.89001	 25.50	
  6.792	-55.409	 10.67200	  5.85451	  2.97149	  2.66125	  6.11348	  0.09496	 10.85371	709.91998	 25.50	
  6.795	-41.617	 10.67462	  6.29350	  2.60448	  2.99885	  5.69805	  0.11551	 10.85986	709.89001	 25.50	
  6.808	-27.689	 10.66135	  6.62523	  2.32633	  3.42895	  5.18042	  0.13527	 10.85747	709.88000	 25.50	
  6.796	-13.771	 10.65714	  6.82156	  2.16849	  3.93532	  4.62121	  0.15692	 10.86073	710.00000	 25.50	
  6.800	  0.000	 10.65289	  6.87428	  2.11648	  4.47174	  4.06367	  0.16627	 10.86015	709.88000	 25.50	
  6.796	 13.771	 10.64496	  6.77606	  2.18130	  5.03500	  3.51549	  0.17768	 10.86150	709.87000	 25.50	
  6.808	 27.689	 10.63909	  6.53434	  2.35385	  5.58398	  3.01500	  0.17983	 10.86175	709.91998	 25.50	
  6.795	 41.617	 10.63010	  6.16064	  2.64095	  6.05840	  2.60587	  0.16503	 10.85490	709.94000	 25.50	
  6.792	 55.409	 10.62661	  5.69904	  3.02458	  6.44818	  2.29065	  0.15227	 10.85491	709.95001	 25.50	
  6.787	 69.246	 10.63006	  5.16623	  3.50391	  6.72371	  2.08184	  0.14243	 10.86119	710.03998	 25.40	
  6.800	 83.015	 10.61490	  4.60129	  4.03102	  6.85172	  1.97680	  0.11516	 10.84881	709.82001	 25.40	
  6.800	 96.985	 10.62287	  4.05017	  4.59640	  6.83862	  1.98998	  0.09363	 10.85504	709.94000	 25.40	
  6.787	110.754	 10.62579	  3.53580	  5.15792	  6.66884	  2.12126	  0.08783	 10.85286	709.85999	 25.40	
  6.792	124.591	 10.62633	  3.08238	  5.67810	  6.36282	  2.36445	  0.07304	 10.84899	709.97998	 25.40	
  6.795	138.383	 10.63240	  2.72598	  6.12558	  5.95389	  2.71085	  0.05244	 10.85126	709.91998	 25.40	
  6.808	152.311	 10.64495	  2.45637	  6.47569	  5.46423	  3.14253	  0.05068	 10.85691	709.94000	 25.40	
  6.796	166.229	 10.65258	  2.30726	  6.68192	  4.90006	  3.66664	  0.05037	 10.85405	710.01001	 25.40	
  8.491	168.704	 10.51452	  1.62347	  7.21741	  4.76051	  3.52606	 -0.05064	 10.85096	709.95001	 25.40	
  8.502	157.493	 10.50970	  1.74466	  7.04792	  5.34319	  2.98732	 -0.04633	 10.85484	709.94000	 25.40	
  8.494	146.194	 10.50323	  1.96283	  6.74886	  5.87678	  2.51222	 -0.05276	 10.85138	709.82001	 25.40	
  8.495	135.039	 10.49776	  2.26079	  6.36024	  6.36765	  2.09895	 -0.04911	 10.85143	709.92999	 25.40	
  8.487	123.723	 10.49170	  2.64845	  5.87782	  6.78643	  1.76131	 -0.02622	 10.85469	709.91998	 25.40	
  8.492	112.575	 10.49099	  3.09017	  5.35011	  7.10313	  1.51613	 -0.01372	 10.85815	709.92999	 25.40	
  8.510	101.220	 10.47703	  3.60744	  4.76333	  7.31069	  1.35675	 -0.01866	 10.85026	709.94000	 25.30	
  8.500	 90.000	 10.48598	  4.16463	  4.18437	  7.39552	  1.29839	 -0.00365	 10.85917	709.90997	 25.30	
  8.510	 78.780	 10.47427	  4.72895	  3.61902	  7.35017	  1.32406	  0.02407	 10.85348	709.90002	 25.30	
  8.492	 67.425	 10.47684	  5.31298	  3.07985	  7.17396	  1.45694	  0.05023	 10.85320	710.00000	 25.30	
  8.487	 56.277	 10.48040	  5.85519	  2.61442	  6.88655	  1.67561	  0.05745	 10.85283	710.04999	 25.30	
  8.495	 44.961	 10.49062	  6.35481	  2.20921	  6.50424	  1.98028	  0.06609	 10.85927	709.95001	 25.30	
  8.494	 33.806	 10.48971	  6.76690	  1.88861	  6.03152	  2.36388	  0.09085	 10.85475	710.00000	 25.30	
  8.502	 22.507	 10.49133	  7.09027	  1.64736	  5.50569	  2.81134	  0.10593	 10.85491	710.02002	 25.30	
  8.491	 11.296	 10.49885	  7.30160	  1.50480	  4.93874	  3.33238	  0.09937	 10.85029	709.94000	 25.30	
  8.500	  0.000	 10.50816	  7.39379	  1.45206	  4.35074	  3.90223	  0.08568	 10.85604	709.98999	 25.30	
  8.491	-11.296	 10.51310	  7.35301	  1.49005	  3.79701	  4.47461	  0.07582	 10.85096	709.92999	 25.30	
  8.502	-22.507	 10.52416	  7.19403	  1.61572	  3.26793	  5.05995	  0.06057	 10.85535	709.87000	 25.30	
  8.494	-33.806	 10.53405	  6.90997	  1.84022	  2.79254	  5.61997	  0.04103	 10.85535	709.91998	 25.30	
  8.495	-44.961	 10.54224	  6.53173	  2.14693	  2.39680	  6.11032	  0.02009	 10.85866	709.84998	 25.30	
  8.487	-56.277	 10.54810	  6.06458	  2.53735	  2.07072	  6.52678	  0.00714	 10.85576	709.88000	 25.20	
  8.492	-67.425	 10.55070	  5.54411	  2.98540	  1.82727	  6.84893	 -0.00921	 10.85217	709.90997	 25.20	
  8.510	-78.780	 10.55405	  4.97517	  3.50683	  1.66331	  7.07015	 -0.02683	 10.85434	709.89001	 25.20	
  8.500	-90.000	 10.56327	  4.40743	  4.06480	  1.61204	  7.15145	 -0.03717	 10.85639	709.91998	 25.20	
  8.510	-101.220	 10.55082	  3.83996	  4.63913	  1.63319	  7.10495	 -0.04049	 10.84879	709.84003	 25.20	
  8.492	-112.575	 10.55702	  3.30534	  5.22908	  1.76518	  6.93323	 -0.04859	 10.85223	709.98999	 25.20	
  8.487	-123.723	 10.56251	  2.83526	  5.77200	  1.98128	  6.65211	 -0.04935	 10.85904	709.79999	 25.20	
  8.495	-135.039	 10.54928	  2.41690	  6.25626	  2.27772	  6.25685	 -0.04979	 10.84966	709.78998	 25.20	
  8.494	-146.194	 10.54513	  2.08211	  6.66973	  2.65294	  5.79279	 -0.04543	 10.84682	709.84998	 25.20	
  8.502	-157.493	 10.54498	  1.82400	  6.99491	  3.11615	  5.25381	 -0.04566	 10.85768	709.92999	 25.20	
  8.491	-168.704	 10.54091	  1.67057	  7.19413	  3.63693	  4.68068	 -0.05925	 10.85518	709.95001	 25.20	
  8.500	180.000	 10.52817	  1.59584	  7.27154	  4.17877	  4.10327	 -0.06248	 10.85476	709.87000	 25.20	
 10.200	180.000	 10.35761	  0.95084	  7.76311	  4.00565	  3.96710	 -0.16576	 10.85099	709.89001	 25.20	
 10.191	-170.497	 10.36982	  1.01039	  7.69492	  3.45495	  4.54904	 -0.16423	 10.85553	709.83002	 25.20	
 10.210	-161.034	 10.36699	  1.13986	  7.51664	  2.91675	  5.13680	 -0.14899	 10.84757	709.84003	 25.10	
 10.194	-151.526	 10.38605	  1.35492	  7.24515	  2.43493	  5.71049	 -0.13462	 10.86319	709.84003	 25.10	
 10.190	-142.105	 10.38001	  1.64233	  6.87173	  2.02340	  6.21104	 -0.13293	 10.84659	709.82001	 25.10	
 10.215	-132.646	 10.38615	  1.99358	  6.42388	  1.65768	  6.67957	 -0.13898	 10.85270	709.90002	 25.10	
 10.203	-123.092	 10.38970	  2.42074	  5.90772	  1.36640	  7.07172	 -0.14269	 10.85185	709.88000	 25.10	
 10.192	-113.678	 10.38933	  2.89102	  5.35675	  1.15106	  7.36544	 -0.13635	 10.85129	709.87000	 25.10	
 10.208	-104.249	 10.38545	  3.40862	  4.77725	  1.00729	  7.56410	 -0.12927	 10.85057	709.82001	 25.10	
 10.210	-94.801	 10.38324	  3.96791	  4.18213	  0.94299	  7.65203	 -0.12823	 10.84798	709.85999	 25.10	
 10.210	-85.199	 10.38829	  4.55932	  3.59820	  0.96331	  7.63535	 -0.12415	 10.85549	709.91998	 25.10	
 10.208	-75.751	 10.38169	  5.14061	  3.04380	  1.05131	  7.50049	 -0.11611	 10.85099	709.89001	 25.10	
 10.192	-66.322	 10.37321	  5.70526	  2.53786	  1.21971	  7.26056	 -0.10389	 10.85017	709.89001	 25.10	
 10.203	-56.908	 10.36638	  6.23339	  2.08638	  1.45613	  6.93167	 -0.09858	 10.84889	709.96002	 25.10	
 10.215	-47.354	 10.36289	  6.72462	  1.68322	  1.77641	  6.50836	 -0.08401	 10.84891	709.85999	 25.10	
 10.190	-37.895	 10.36122	  7.14335	  1.35801	  2.16183	  6.01909	 -0.06421	 10.85358	709.95001	 25.10	
 10.194	-28.474	 10.35419	  7.48009	  1.10357	  2.60448	  5.48604	 -0.03904	 10.85798	709.96997	 25.10	
 10.210	-18.966	 10.33953	  7.72098	  0.91993	  3.10050	  4.89703	 -0.02148	 10.85229	709.92999	 25.10	
 10.191	 -9.503	 10.33829	  7.85116	  0.82479	  3.64814	  4.30407	 -0.00892	 10.85349	709.95001	 25.10	
 10.200	  0.000	 10.32569	  7.87929	  0.79385	  4.21132	  3.71938	 -0.00027	 10.84886	709.96997	 25.10	
 10.191	  9.503	 10.32003	  7.79829	  0.84598	  4.80303	  3.14522	  0.01024	 10.85083	709.95001	 25.10	
 10.210	 18.966	 10.30903	  7.61588	  0.95561	  5.38557	  2.60594	  0.02216	 10.85248	709.91998	 25.10	
 10.194	 28.474	 10.31061	  7.33486	  1.15523	  5.94164	  2.13216	  0.01518	 10.85866	709.84998	 25.00	
 10.190	 37.895	 10.30516	  6.95598	  1.43151	  6.45608	  1.71154	 -0.00762	 10.85737	709.97998	 25.00	
 10.215	 47.354	 10.29830	  6.50067	  1.76979	  6.91975	  1.34150	 -0.04261	 10.85225	709.83002	 25.00	
 10.203	 56.908	 10.29202	  5.98239	  2.18456	  7.30555	  1.05145	 -0.05574	 10.85217	709.79999	 25.00	
 10.192	 66.322	 10.29398	  5.43175	  2.65770	  7.58635	  0.85299	 -0.05598	 10.85184	709.78998	 25.00	
 10.208	 75.751	 10.30135	  4.85654	  3.18375	  7.78112	  0.72186	 -0.06947	 10.85905	709.90997	 25.00	
 10.210	 85.199	 10.30247	  4.27144	  3.74701	  7.87305	  0.65772	 -0.10077	 10.86058	709.87000	 25.00	
 10.210	 94.801	 10.30130	  3.69235	  4.33315	  7.84941	  0.67404	 -0.12213	 10.85459	709.83002	 25.00	
 10.208	104.249	 10.30770	  3.14842	  4.92787	  7.72500	  0.76259	 -0.12709	 10.85822	709.90002	 25.00	
 10.192	113.678	 10.30572	  2.64782	  5.50143	  7.49325	  0.93045	 -0.12546	 10.84905	709.98999	 25.00	
 10.203	123.092	 10.30818	  2.19493	  6.04178	  7.17661	  1.15712	 -0.13641	 10.85328	709.96002	 25.00	
 10.215	132.646	 10.31560	  1.80101	  6.54618	  6.76976	  1.47712	 -0.15936	 10.85588	710.00000	 25.00	
 10.190	142.105	 10.32555	  1.48305	  6.97764	  6.27989	  1.87932	 -0.16270	 10.85687	709.87000	 25.00	
 10.194	151.526	 10.33091	  1.23417	  7.31947	  5.74581	  2.32918	 -0.15654	 10.84989	710.04999	 25.00	
 10.210	161.034	 10.34051	  1.06250	  7.57685	  5.19003	  2.82408	 -0.15106	 10.85786	709.89001	 25.00	
 10.191	170.497	 10.35006	  0.97042	  7.72341	  4.59667	  3.38344	 -0.15605	 10.85424	709.90997	 25.00	
 11.899	171.783	 10.14252	  0.32696	  8.19243	  4.39804	  3.21325	 -0.25441	 10.85599	709.96002	 25.00	
 11.890	163.610	 10.13307	  0.40422	  8.06231	  4.99137	  2.65772	 -0.24639	 10.85427	709.88000	 25.00	
 11.889	155.445	 10.12424	  0.54830	  7.84143	  5.55954	  2.15289	 -0.25320	 10.85391	709.95001	 24.90	
 11.909	147.299	 10.10989	  0.74029	  7.53573	  6.12160	  1.66859	 -0.26942	 10.84827	709.90997	 24.90	
 11.902	139.148	 10.10855	  1.01007	  7.15649	  6.64452	  1.24682	 -0.27214	 10.85537	709.85999	 24.90	
 11.894	130.867	 10.10395	  1.34781	  6.69673	  7.11565	  0.88533	 -0.26381	 10.85564	710.02002	 24.90	
 11.897	122.732	 10.09640	  1.74358	  6.18438	  7.51130	  0.59523	 -0.24613	 10.85140	709.97998	 24.90	
 11.903	114.597	 10.09169	  2.17698	  5.64055	  7.84628	  0.35117	 -0.23951	 10.85180	709.96002	 24.90	
 11.893	106.346	 10.08828	  2.66860	  5.05678	  8.09645	  0.18189	 -0.24139	 10.85465	709.95001	 24.90	
 11.892	 98.155	 10.08475	  3.20739	  4.45641	  8.25832	  0.07344	 -0.24210	 10.85153	710.03003	 24.90	
 11.900	 90.000	 10.08513	  3.76625	  3.87022	  8.33197	  0.02306	 -0.23192	 10.86017	710.04999	 24.90	
 11.892	 81.845	 10.08126	  4.34484	  3.29261	  8.30048	  0.04334	 -0.20952	 10.85318	710.00000	 24.90	
 11.893	 73.654	 10.08223	  4.93739	  2.73882	  8.18162	  0.12473	 -0.18500	 10.85632	709.90997	 24.90	
 11.903	 65.403	 10.07859	  5.52556	  2.21575	  7.96896	  0.25974	 -0.16949	 10.85978	710.00000	 24.90	
 11.897	 57.268	 10.07720	  6.08217	  1.75745	  7.66517	  0.46607	 -0.16620	 10.85001	709.91998	 24.90	
 11.894	 49.133	 10.07240	  6.60240	  1.33602	  7.29479	  0.72168	 -0.15408	 10.84666	709.95001	 24.90	
 11.902	 40.852	 10.07616	  7.08853	  0.97836	  6.85096	  1.05259	 -0.12545	 10.85484	709.90002	 24.90	
 11.909	 32.701	 10.08438	  7.50733	  0.68559	  6.34686	  1.44715	 -0.08916	 10.85543	709.90002	 24.90	
 11.889	 24.555	 10.09366	  7.83828	  0.46395	  5.79379	  1.90436	 -0.06831	 10.85220	709.92999	 24.90	
 11.890	 16.390	 10.09105	  8.08720	  0.30375	  5.22964	  2.39527	 -0.07176	 10.84633	709.92999	 24.90	
 11.899	  8.217	 10.10207	  8.25958	  0.19768	  4.63459	  2.93672	 -0.08202	 10.85265	710.02002	 24.90	
 11.900	  0.000	 10.10622	  8.33019	  0.15268	  4.03936	  3.50997	 -0.09383	 10.84670	709.97998	 24.80	
 11.899	 -8.217	 10.12038	  8.31479	  0.17775	  3.47621	  4.09909	 -0.10141	 10.85646	709.94000	 24.80	
 11.890	-16.390	 10.12654	  8.19317	  0.26687	  2.92021	  4.70033	 -0.11183	 10.85194	709.96997	 24.80	
 11.889	-24.555	 10.13247	  7.98975	  0.40839	  2.40811	  5.29137	 -0.12839	 10.85297	709.96002	 24.80	
 11.909	-32.701	 10.14124	  7.70362	  0.61433	  1.94797	  5.85332	 -0.14612	 10.85180	709.94000	 24.80	
 11.902	-40.852	 10.14645	  7.33598	  0.88529	  1.53323	  6.38565	 -0.16229	 10.85372	710.04999	 24.80	
 11.894	-49.133	 10.15209	  6.88092	  1.23618	  1.16765	  6.87773	 -0.17309	 10.84768	709.96997	 24.80	
 11.897	-57.268	 10.15681	  6.38144	  1.63053	  0.86839	  7.29019	 -0.17969	 10.84670	710.03998	 24.80	
 11.903	-65.403	 10.16510	  5.84761	  2.07678	  0.63890	  7.63065	 -0.18148	 10.84985	710.03998	 24.80	
 11.893	-73.654	 10.17532	  5.27481	  2.58297	  0.47695	  7.88334	 -0.18900	 10.85235	709.95001	 24.80	
 11.892	-81.845	 10.17594	  4.68172	  3.12792	  0.36888	  8.04369	 -0.19212	 10.84662	709.94000	 24.80	
 11.900	-90.000	 10.18499	  4.10130	  3.69372	  0.31973	  8.12132	 -0.19593	 10.85481	710.03998	 24.80	
 11.892	-98.155	 10.18199	  3.52967	  4.27523	  0.34191	  8.08675	 -0.19167	 10.84813	710.02002	 24.80	
 11.893	-106.346	 10.18478	  2.97174	  4.87657	  0.42253	  7.96674	 -0.19539	 10.85014	709.96997	 24.80	
 11.903	-114.597	 10.18212	  2.45576	  5.45987	  0.55884	  7.75280	 -0.20415	 10.84620	710.10999	 24.80	
 11.897	-122.732	 10.18218	  1.99151	  6.02237	  0.76461	  7.46170	 -0.21338	 10.85317	710.03998	 24.80	
 11.894	-130.867	 10.18337	  1.57061	  6.54222	  1.03827	  7.07774	 -0.21545	 10.85306	710.04999	 24.80	
 11.902	-139.148	 10.18645	  1.20071	  7.02421	  1.38243	  6.61851	 -0.21611	 10.85429	709.92999	 24.80	
 11.909	-147.299	 10.17676	  0.89670	  7.42724	  1.76960	  6.11317	 -0.21376	 10.84962	709.96997	 24.80	
 11.889	-155.445	 10.17799	  0.66763	  7.74965	  2.21084	  5.57285	 -0.21926	 10.85004	709.94000	 24.80	
 11.890	-163.610	 10.16868	  0.48779	  8.00038	  2.71397	  4.98999	 -0.23950	 10.85266	709.90997	 24.80	
 11.899	-171.783	 10.16221	  0.36634	  8.16131	  3.24947	  4.39030	 -0.25739	 10.85301	709.90002	 24.80	
 11.900	180.000	 10.14717	  0.31595	  8.21968	  3.80501	  3.80154	 -0.26186	 10.84959	709.96997	 24.80	
 13.600	180.000	  9.90659	 -0.31137	  8.65237	  3.57856	  3.61127	 -0.34543	 10.85172	709.96002	 24.70	
 13.608	-172.853	  9.91428	 -0.27274	  8.60554	  3.02713	  4.18857	 -0.33699	 10.85730	709.96997	 24.70	
 13.611	-165.583	  9.91854	 -0.17651	  8.45970	  2.48028	  4.79381	 -0.31876	 10.84970	709.96002	 24.70	
 13.601	-158.353	  9.92998	 -0.01528	  8.23323	  1.96692	  5.39523	 -0.29222	 10.85108	709.90002	 24.70	
 13.609	-151.210	  9.93137	  0.19073	  7.92878	  1.51977	  5.95025	 -0.27565	 10.84631	709.91998	 24.70	
 13.611	-143.999	  9.93982	  0.45571	  7.56043	  1.10274	  6.49392	 -0.26661	 10.85294	709.84998	 24.70	
 13.601	-136.825	  9.93983	  0.76488	  7.12712	  0.73689	  6.98715	 -0.26047	 10.85202	709.91998	 24.70	
 13.596	-129.640	  9.94764	  1.12979	  6.64492	  0.43284	  7.43205	 -0.25570	 10.85881	709.95001	 24.70	
 13.611	-122.431	  9.94361	  1.54437	  6.10820	  0.18021	  7.80619	 -0.24845	 10.85380	710.00000	 24.70	
 13.604	-115.211	  9.94094	  2.00700	  5.53931	 -0.02557	  8.11420	 -0.23555	 10.85089	709.95001	 24.70	
 13.595	-108.042	  9.93946	  2.50734	  4.95605	 -0.17510	  8.34460	 -0.22700	 10.85072	709.96002	 24.70	
 13.607	-100.793	  9.93843	  3.04613	  4.35701	 -0.27519	  8.50025	 -0.22704	 10.85443	709.91998	 24.70	
 13.601	-93.617	  9.93094	  3.61108	  3.76053	 -0.31011	  8.55955	 -0.23060	 10.84922	709.96002	 24.70	
 13.601	-86.383	  9.92794	  4.19689	  3.17805	 -0.30003	  8.53866	 -0.23082	 10.85126	709.97998	 24.70	
 13.607	-79.207	  9.92102	  4.78418	  2.61778	 -0.23671	  8.43045	 -0.23532	 10.84725	709.90997	 24.70	
 13.595	-71.958	  9.92294	  5.38437	  2.09142	 -0.11885	  8.24008	 -0.23429	 10.85548	709.89001	 24.70	
 13.604	-64.789	  9.91553	  5.94864	  1.60768	  0.05587	  7.96837	 -0.23463	 10.84941	710.00000	 24.70	
 13.611	-57.569	  9.90455	  6.49631	  1.16099	  0.27789	  7.62198	 -0.23538	 10.85261	709.95001	 24.70	
 13.596	-50.360	  9.89981	  7.00644	  0.76412	  0.55508	  7.20657	 -0.24128	 10.84767	709.96997	 24.70	
 13.601	-43.175	  9.89333	  7.47002	  0.41954	  0.88542	  6.73844	 -0.24351	 10.85222	709.90997	 24.70	
 13.611	-36.001	  9.88985	  7.87157	  0.13554	  1.27585	  6.21671	 -0.23340	 10.85423	709.94000	 24.70	
 13.609	-28.790	  9.88324	  8.20586	 -0.09324	  1.71578	  5.65274	 -0.22255	 10.85279	709.92999	 24.70	
 13.601	-21.647	  9.87557	  8.46176	 -0.27081	  2.18896	  5.07555	 -0.21112	 10.85392	709.89001	 24.60	
 13.611	-14.417	  9.86585	  8.65015	 -0.39859	  2.71806	  4.46538	 -0.19966	 10.85441	709.89001	 24.60	
 13.608	 -7.147	  9.86246	  8.75326	 -0.46315	  3.27885	  3.85788	 -0.19370	 10.85486	709.92999	 24.60	
 13.600	  0.000	  9.85072	  8.76159	 -0.48078	  3.84343	  3.27889	 -0.18626	 10.85043	709.85999	 24.60	
 13.608	  7.147	  9.84493	  8.69393	 -0.44630	  4.43130	  2.70668	 -0.18204	 10.85328	709.96002	 24.60	
 13.611	 14.417	  9.83791	  8.54228	 -0.35865	  5.03630	  2.15589	 -0.17449	 10.85588	709.91998	 24.60	
 13.601	 21.647	  9.83268	  8.30603	 -0.21301	  5.61603	  1.65703	 -0.16901	 10.85412	709.89001	 24.60	
 13.609	 28.790	  9.83278	  8.00308	 -0.01573	  6.18276	  1.19366	 -0.17559	 10.85779	709.90002	 24.60	
 13.611	 36.001	  9.82516	  7.61859	  0.22891	  6.72044	  0.77590	 -0.20655	 10.85750	709.91998	 24.60	
 13.601	 43.175	  9.81740	  7.17653	  0.53348	  7.19596	  0.42629	 -0.24302	 10.85447	709.81000	 24.60	
 13.596	 50.360	  9.81976	  6.68814	  0.89106	  7.62830	  0.12418	 -0.27230	 10.85194	709.96997	 24.60	
 13.611	 57.569	  9.81002	  6.14417	  1.29820	  8.00603	 -0.13778	 -0.28789	 10.84863	709.88000	 24.60	
 13.604	 64.789	  9.81462	  5.57644	  1.75771	  8.31330	 -0.33631	 -0.29291	 10.85329	709.78998	 24.60	
 13.595	 71.958	  9.81160	  4.99442	  2.25445	  8.53834	 -0.47738	 -0.30977	 10.85003	709.90997	 24.60	
 13.607	 79.207	  9.81439	  4.39833	  2.79873	  8.68686	 -0.56860	 -0.33117	 10.84720	709.98999	 24.60	
 13.601	 86.383	  9.82497	  3.81590	  3.37026	  8.75327	 -0.60434	 -0.34777	 10.85243	709.88000	 24.60	
 13.601	 93.617	  9.83086	  3.24338	  3.95609	  8.73142	 -0.58840	 -0.36032	 10.85692	709.89001	 24.60	
 13.607	100.793	  9.83151	  2.69388	  4.55140	  8.63628	 -0.52817	 -0.36597	 10.85421	709.94000	 24.60	
 13.595	108.042	  9.83306	  2.17363	  5.15454	  8.44006	 -0.39988	 -0.35815	 10.84921	709.91998	 24.60	
 13.604	115.211	  9.83688	  1.69847	  5.73048	  8.17861	 -0.23173	 -0.35500	 10.84750	709.90002	 24.60	
 13.611	122.431	  9.84424	  1.26024	  6.29522	  7.83958	 -0.00151	 -0.36376	 10.85463	709.89001	 24.60	
 13.596	129.640	  9.84835	  0.87757	  6.81337	  7.43438	  0.29097	 -0.37704	 10.85306	709.92999	 24.60	
 13.601	136.825	  9.85638	  0.54626	  7.28532	  6.97553	  0.62514	 -0.38306	 10.85262	709.91998	 24.60	
 13.611	143.999	  9.85904	  0.26317	  7.69398	  6.47407	  1.00935	 -0.38638	 10.85301	709.97998	 24.60	
 13.609	151.210	  9.86519	  0.03781	  8.04593	  5.91796	  1.45622	 -0.36963	 10.85086	709.91998	 24.60	
 13.601	158.353	  9.88105	 -0.12671	  8.32087	  5.34641	  1.94369	 -0.34893	 10.85684	709.94000	 24.50	
 13.611	165.583	  9.88375	 -0.24568	  8.51676	  4.76417	  2.45745	 -0.33775	 10.85229	709.96997	 24.50	
 13.608	172.853	  9.89108	 -0.30871	  8.62588	  4.16072	  3.02186	 -0.34289	 10.84945	710.07001	 24.50	
 15.298	173.587	  9.61581	 -0.91311	  9.02392	  3.91736	  2.81163	 -0.41028	 10.85355	709.94000	 24.50	
 15.291	167.167	  9.60716	 -0.86301	  8.92141	  4.50358	  2.25841	 -0.41478	 10.85247	709.96997	 24.50	
 15.307	160.676	  9.59826	 -0.77126	  8.75111	  5.09164	  1.73198	 -0.42837	 10.85338	709.82001	 24.50	
 15.300	154.261	  9.58823	 -0.63182	  8.50362	  5.67567	  1.24016	 -0.45388	 10.85290	709.95001	 24.50	
 15.288	147.854	  9.58219	 -0.43779	  8.18760	  6.23914	  0.78646	 -0.47821	 10.85380	709.98999	 24.50	
 15.293	141.428	  9.57994	 -0.19789	  7.81089	  6.77094	  0.38431	 -0.49474	 10.85392	709.96997	 24.50	
 15.299	134.985	  9.57283	  0.08239	  7.37694	  7.27258	  0.01727	 -0.48945	 10.85650	709.88000	 24.50	
 15.305	128.583	  9.56510	  0.41312	  6.89269	  7.72918	 -0.30178	 -0.48321	 10.85644	709.87000	 24.50	
 15.309	122.142	  9.55514	  0.78574	  6.36495	  8.12963	 -0.57661	 -0.47233	 10.85722	709.98999	 24.50	
 15.304	115.711	  9.55236	  1.21348	  5.80069	  8.46964	 -0.79266	 -0.46983	 10.85404	709.90002	 24.50	
 15.297	109.291	  9.55601	  1.67856	  5.22352	  8.74074	 -0.96044	 -0.47443	 10.85607	709.78003	 24.50	
 15.293	102.897	  9.55246	  2.17309	  4.64100	  8.94144	 -1.07963	 -0.48559	 10.85580	710.03998	 24.50	
 15.293	 96.458	  9.54680	  2.71209	  4.03238	  9.07497	 -1.16469	 -0.48994	 10.85450	710.02002	 24.50	
 15.300	 90.000	  9.54616	  3.27230	  3.44369	  9.13348	 -1.19320	 -0.48438	 10.85492	709.96002	 24.50	
 15.293	 83.542	  9.54054	  3.84599	  2.86741	  9.11590	 -1.18898	 -0.46891	 10.85626	709.96002	 24.50	
 15.293	 77.103	  9.52885	  4.43273	  2.31062	  9.01693	 -1.13619	 -0.44929	 10.84909	709.92999	 24.50	
 15.297	 70.709	  9.53040	  5.02253	  1.78753	  8.86201	 -1.04500	 -0.43575	 10.85581	709.90002	 24.50	
 15.304	 64.289	  9.52577	  5.60608	  1.29942	  8.63385	 -0.91097	 -0.42259	 10.85672	709.85999	 24.50	
 15.309	 57.858	  9.51630	  6.17343	  0.84694	  8.32102	 -0.72429	 -0.40999	 10.84819	709.84998	 24.50	
 15.305	 51.417	  9.52263	  6.71708	  0.44184	  7.95011	 -0.49183	 -0.39275	 10.85105	709.87000	 24.50	
 15.299	 45.015	  9.52970	  7.22717	  0.08701	  7.52568	 -0.20036	 -0.36834	 10.85922	709.97998	 24.50	
 15.293	 38.572	  9.52732	  7.68152	 -0.21475	  7.04019	  0.13621	 -0.32500	 10.84952	709.90002	 24.50	
 15.288	 32.146	  9.53237	  8.09237	 -0.47824	  6.53045	  0.50194	 -0.29128	 10.84979	709.87000	 24.50	
 15.300	 25.739	  9.53336	  8.44468	 -0.69852	  5.97721	  0.92652	 -0.27242	 10.84993	709.89001	 24.50	
 15.307	 19.324	  9.54002	  8.72890	 -0.86395	  5.40042	  1.39868	 -0.26901	 10.85249	709.96002	 24.50	
 15.291	 12.833	  9.55072	  8.94333	 -0.98092	  4.81402	  1.90803	 -0.27124	 10.85614	709.96997	 24.50	
 15.298	  6.413	  9.55552	  9.07890	 -1.06079	  4.21685	  2.44891	 -0.27922	 10.85322	709.89001	 24.50	
 15.300	  0.000	  9.56209	  9.14561	 -1.08933	  3.62115	  3.02514	 -0.27729	 10.85080	709.91998	 24.40	
 15.298	 -6.413	  9.57126	  9.13634	 -1.07420	  3.06451	  3.60065	 -0.27403	 10.85563	709.96997	 24.40	
 15.291	-12.833	  9.57940	  9.04906	 -1.01273	  2.50741	  4.20595	 -0.27399	 10.85441	709.97998	 24.40	
 15.307	-19.324	  9.58763	  8.89618	 -0.91999	  1.96864	  4.81831	 -0.27615	 10.85892	709.90997	 24.40	
 15.300	-25.739	  9.59594	  8.66579	 -0.77237	  1.49145	  5.40022	 -0.28057	 10.86005	709.90997	 24.40	
 15.288	-32.146	  9.60098	  8.35270	 -0.57327	  1.03820	  5.98245	 -0.28832	 10.85725	710.00000	 24.40	
 15.293	-38.572	  9.60523	  7.98414	 -0.32835	  0.62637	  6.53667	 -0.28655	 10.85205	709.92999	 24.40	
 15.299	-45.015	  9.61325	  7.56339	 -0.03245	  0.27542	  7.04378	 -0.28573	 10.85311	709.87000	 24.40	
 15.305	-51.417	  9.61510	  7.09258	  0.30270	 -0.03553	  7.50392	 -0.27233	 10.85034	710.00000	 24.40	
 15.309	-57.858	  9.62244	  6.58169	  0.68717	 -0.30697	  7.92617	 -0.26248	 10.85725	709.85999	 24.40	
 15.304	-64.289	  9.62747	  6.02761	  1.12346	 -0.52543	  8.27549	 -0.25075	 10.85095	709.95001	 24.40	
 15.297	-70.709	  9.63718	  5.45709	  1.59861	 -0.69162	  8.56349	 -0.24450	 10.86055	709.89001	 24.40	
 15.293	-77.103	  9.63878	  4.87132	  2.10334	 -0.81458	  8.77103	 -0.23928	 10.85389	709.95001	 24.40	
 15.293	-83.542	  9.64107	  4.27420	  2.65236	 -0.89359	  8.90434	 -0.23845	 10.85329	709.96002	 24.40	
 15.300	-90.000	  9.65033	  3.68713	  3.22176	 -0.92765	  8.96812	 -0.23294	 10.85657	709.88000	 24.40	
 15.293	-96.458	  9.64978	  3.10917	  3.80811	 -0.91345	  8.94783	 -0.23118	 10.85254	709.95001	 24.40	
 15.293	-102.897	  9.65772	  2.55613	  4.40917	 -0.85756	  8.85886	 -0.22462	 10.85783	709.91998	 24.40	
 15.297	-109.291	  9.65956	  2.03824	  4.99974	 -0.75672	  8.69054	 -0.22088	 10.85787	709.97998	 24.40	
 15.304	-115.711	  9.65607	  1.54969	  5.57823	 -0.61425	  8.44597	 -0.23199	 10.85198	709.81000	 24.40	
 15.309	-122.142	  9.66072	  1.09394	  6.15649	 -0.41692	  8.13534	 -0.24388	 10.85454	709.84998	 24.40	
 15.305	-128.583	  9.66542	  0.68781	  6.69156	 -0.17079	  7.75538	 -0.25325	 10.85287	709.81000	 24.40	
 15.299	-134.985	  9.66346	  0.33115	  7.18968	  0.11558	  7.32494	 -0.26887	 10.85253	709.88000	 24.40	
 15.293	-141.428	  9.66781	  0.01844	  7.64486	  0.45651	  6.84406	 -0.28558	 10.85593	709.82001	 24.40	
 15.288	-147.854	  9.66683	 -0.25422	  8.04891	  0.84313	  6.31399	 -0.29616	 10.85520	709.79999	 24.40	
 15.300	-154.261	  9.65191	 -0.48525	  8.38585	  1.26026	  5.75814	 -0.31448	 10.85012	709.79999	 24.40	
 15.307	-160.676	  9.65348	 -0.66290	  8.66206	  1.72224	  5.19631	 -0.33577	 10.85688	709.90002	 24.40	
 15.291	-167.167	  9.64845	 -0.79235	  8.86228	  2.24209	  4.58813	 -0.36272	 10.85351	709.89001	 24.30	
 15.298	-173.587	  9.63784	 -0.87613	  8.99437	  2.78003	  3.98417	 -0.38815	 10.85811	709.85999	 24.30	
 15.300	180.000	  9.63344	 -0.91792	  9.04922	  3.33044	  3.40395	 -0.40142	 10.85635	709.71997	 24.30	
 17.000	180.000	  9.31217	 -1.50091	  9.40306	  3.06354	  3.17328	 -0.43631	 10.85227	709.82001	 24.40	
 16.990	-174.179	  9.32016	 -1.47030	  9.34907	  2.51316	  3.74836	 -0.41351	 10.84987	709.91998	 24.30	
 17.009	-168.383	  9.32842	 -1.39909	  9.23351	  1.97891	  4.34956	 -0.38210	 10.84987	709.91998	 24.30	
 17.000	-162.596	  9.33455	 -1.28302	  9.04710	  1.47146	  4.95064	 -0.35664	 10.85231	709.85999	 24.30	
 16.990	-156.759	  9.34832	 -1.12758	  8.80468	  1.00985	  5.53208	 -0.32702	 10.85652	709.91998	 24.30	
 16.995	-150.919	  9.34762	 -0.93474	  8.48826	  0.56768	  6.10555	 -0.30792	 10.85340	709.88000	 24.30	
 16.988	-145.161	  9.35100	 -0.70205	  8.12314	  0.17624	  6.64693	 -0.28780	 10.85600	709.95001	 24.30	
 17.014	-139.343	  9.34697	 -0.42859	  7.70161	 -0.17200	  7.15101	 -0.27046	 10.85034	709.91998	 24.30	
 17.007	-133.546	  9.35631	 -0.10947	  7.23318	 -0.48657	  7.62728	 -0.25212	 10.85764	709.84998	 24.30	
 17.001	-127.699	  9.34081	  0.25180	  6.70664	 -0.76067	  8.05078	 -0.24076	 10.84628	709.85999	 24.30	
 17.006	-121.937	  9.34752	  0.64373	  6.17481	 -0.98814	  8.42238	 -0.22660	 10.85681	709.87000	 24.30	
 17.002	-116.134	  9.33867	  1.08618	  5.60105	 -1.16771	  8.73389	 -0.21988	 10.85086	709.84998	 24.30	
 17.001	-110.310	  9.33719	  1.56575	  5.01549	 -1.30961	  8.98127	 -0.21520	 10.84755	709.90002	 24.30	
 16.988	-104.517	  9.34244	  2.07157	  4.42890	 -1.40563	  9.16252	 -0.20886	 10.85675	709.92999	 24.30	
 17.008	-98.662	  9.33413	  2.60826	  3.82516	 -1.47934	  9.28309	 -0.21196	 10.85461	709.87000	 24.30	
 16.996	-92.909	  9.33101	  3.17003	  3.24017	 -1.50581	  9.32971	 -0.21225	 10.85615	709.87000	 24.30	
 16.996	-87.091	  9.32887	  3.74513	  2.66944	 -1.49705	  9.30604	 -0.21814	 10.85345	709.88000	 24.30	
 17.012	-81.253	  9.31586	  4.33315	  2.11105	 -1.45485	  9.21514	 -0.21993	 10.85271	709.84998	 24.30	
 16.988	-75.483	  9.31938	  4.92711	  1.59122	 -1.36406	  9.05835	 -0.22840	 10.85465	709.84998	 24.30	
 17.001	-69.690	  9.31318	  5.50630	  1.09746	 -1.24808	  8.83690	 -0.23811	 10.85875	709.94000	 24.30	
 17.002	-63.866	  9.30297	  6.07841	  0.63212	 -1.08975	  8.55052	 -0.24541	 10.85769	709.94000	 24.30	
 17.006	-58.063	  9.29277	  6.63126	  0.20697	 -0.88786	  8.19406	 -0.25394	 10.85555	709.84998	 24.30	
 17.001	-52.301	  9.28612	  7.14617	 -0.16693	 -0.63494	  7.78152	 -0.26600	 10.85312	709.96997	 24.30	
 17.007	-46.454	  9.28876	  7.63914	 -0.50626	 -0.34122	  7.32189	 -0.28641	 10.86223	709.92999	 24.30	
 17.014	-40.657	  9.26652	  8.06767	 -0.80280	 -0.01438	  6.81316	 -0.30168	 10.84244	710.00000	 24.30	
 16.988	-34.839	  9.26561	  8.45447	 -1.04748	  0.36745	  6.28770	 -0.31210	 10.84955	709.96002	 24.30	
 16.995	-29.081	  9.26701	  8.79030	 -1.25292	  0.78023	  5.72704	 -0.31770	 10.85295	709.91998	 24.30	
 16.990	-23.241	  9.26027	  9.06305	 -1.41455	  1.24787	  5.13412	 -0.31951	 10.85330	709.85999	 24.30	
 17.000	-17.404	  9.25554	  9.27497	 -1.53923	  1.73786	  4.54661	 -0.32713	 10.85950	710.00000	 24.30	
 17.009	-11.617	  9.24800	  9.41401	 -1.62446	  2.26297	  3.93818	 -0.33664	 10.85279	710.07001	 24.20	
 16.990	 -5.821	  9.24748	  9.48466	 -1.66352	  2.82081	  3.34336	 -0.34411	 10.85548	710.04999	 24.20	
 17.000	  0.000	  9.23641	  9.49566	 -1.68024	  3.37831	  2.75288	 -0.35488	 10.85512	710.01001	 24.20	
 16.990	  5.821	  9.23365	  9.43367	 -1.64590	  3.97381	  2.18377	 -0.36298	 10.85658	709.95001	 24.20	
 17.009	 11.617	  9.22370	  9.30787	 -1.59119	  4.56541	  1.64180	 -0.36818	 10.85481	709.90997	 24.20	
 17.000	 17.404	  9.22321	  9.11661	 -1.48446	  5.14819	  1.14500	 -0.37238	 10.85839	709.83002	 24.20	
 16.990	 23.241	  9.20972	  8.85102	 -1.34077	  5.73785	  0.66098	 -0.37605	 10.85340	709.92999	 24.20	
 16.995	 29.081	  9.20796	  8.52577	 -1.16051	  6.31091	  0.22194	 -0.39543	 10.85846	710.00000	 24.20	
 16.988	 34.839	  9.20455	  8.14861	 -0.93006	  6.83253	 -0.14998	 -0.42507	 10.85527	709.94000	 24.20	
 17.014	 40.657	  9.19387	  7.71883	 -0.67400	  7.34615	 -0.51142	 -0.46392	 10.85462	710.01001	 24.20	
 17.007	 46.454	  9.19906	  7.24331	 -0.35578	  7.81663	 -0.81308	 -0.49267	 10.85747	709.94000	 24.20	
 17.001	 52.301	  9.19529	  6.72468	 -0.00215	  8.23291	 -1.07776	 -0.51666	 10.85676	709.89001	 24.20	
 17.006	 58.063	  9.19644	  6.18828	  0.38775	  8.59427	 -1.29011	 -0.53509	 10.85619	709.90997	 24.20	
 17.002	 63.866	  9.20122	  5.62113	  0.82692	  8.89911	 -1.46329	 -0.54798	 10.85696	709.90997	 24.20	
 17.001	 69.690	  9.20010	  5.03556	  1.30216	  9.14550	 -1.60432	 -0.56682	 10.85664	709.88000	 24.20	
 16.988	 75.483	  9.20438	  4.44877	  1.80510	  9.32313	 -1.69839	 -0.57672	 10.85385	709.94000	 24.20	
 17.012	 81.253	  9.20419	  3.85809	  2.33826	  9.44270	 -1.76895	 -0.59512	 10.85456	709.96002	 24.20	
 16.996	 87.091	  9.21164	  3.27640	  2.90419	  9.48355	 -1.78331	 -0.60740	 10.85251	709.82001	 24.20	
 16.996	 92.909	  9.21956	  2.71272	  3.48067	  9.46666	 -1.77348	 -0.62116	 10.85392	709.88000	 24.20	
 17.008	 98.662	  9.21808	  2.16892	  4.06856	  9.37868	 -1.72841	 -0.62107	 10.85164	709.98999	 24.20	
 16.988	104.517	  9.22509	  1.65332	  4.67433	  9.21635	 -1.63547	 -0.61679	 10.85019	709.90997	 24.20	
 17.001	110.310	  9.23326	  1.17566	  5.26154	  9.00798	 -1.50815	 -0.59956	 10.85971	709.81000	 24.20	
 17.002	116.134	  9.23838	  0.72445	  5.84486	  8.72246	 -1.33361	 -0.58960	 10.85521	709.90002	 24.20	
 17.006	121.937	  9.24478	  0.31592	  6.41026	  8.38481	 -1.12748	 -0.59176	 10.86366	709.92999	 24.20	
 17.001	127.699	  9.24156	 -0.04640	  6.92668	  7.99335	 -0.88177	 -0.59017	 10.85627	709.82001	 24.20	
 17.007	133.546	  9.24650	 -0.37908	  7.42692	  7.54511	 -0.58647	 -0.59250	 10.85496	709.81000	 24.20	
 17.014	139.343	  9.24701	 -0.66801	  7.88357	  7.04400	 -0.24423	 -0.58504	 10.85139	709.81000	 24.20	
 16.988	145.161	  9.26009	 -0.90545	  8.28691	  6.51813	  0.14042	 -0.57215	 10.85161	709.77002	 24.20	
 16.995	150.919	  9.26632	 -1.10932	  8.63105	  5.98283	  0.54512	 -0.54596	 10.85748	709.88000	 24.20	
 16.990	156.759	  9.27706	 -1.25483	  8.91206	  5.40176	  1.01905	 -0.51637	 10.85551	709.88000	 24.20	
 17.000	162.596	  9.28812	 -1.37819	  9.13991	  4.81141	  1.51767	 -0.49031	 10.85863	709.96002	 24.20	
 17.009	168.383	  9.29178	 -1.46187	  9.29602	  4.23025	  2.03093	 -0.46986	 10.85586	709.91998	 24.20	
 16.990	174.179	  9.30677	 -1.49611	  9.38211	  3.64673	  2.59165	 -0.45413	 10.85601	709.95001	 24.20	
 18.709	174.675	  8.95088	 -2.07793	  9.70737	  3.34897	  2.34293	 -0.46943	 10.85585	709.89001	 24.20	
 18.703	169.441	  8.94269	 -2.04142	  9.63016	  3.92349	  1.80089	 -0.50441	 10.85687	709.91998	 24.20	
 18.691	164.085	  8.93638	 -1.96452	  9.48233	  4.51239	  1.27994	 -0.54353	 10.85606	709.85999	 24.10	
 18.706	158.818	  8.92745	 -1.86640	  9.28518	  5.09444	  0.78182	 -0.56897	 10.85256	709.87000	 24.20	
 18.695	153.537	  8.92502	 -1.73100	  9.02359	  5.67588	  0.32110	 -0.59568	 10.85654	709.91998	 24.10	
 18.704	148.255	  8.91971	 -1.55944	  8.71123	  6.23000	 -0.09525	 -0.62434	 10.85685	709.96997	 24.10	
 18.698	142.952	  8.90857	 -1.35210	  8.33473	  6.77310	 -0.48747	 -0.64845	 10.85553	709.97998	 24.10	
 18.699	137.625	  8.89801	 -1.11251	  7.91010	  7.28686	 -0.84742	 -0.66964	 10.85304	709.96002	 24.10	
 18.705	132.343	  8.89457	 -0.82951	  7.45004	  7.76688	 -1.15804	 -0.67870	 10.85284	709.96997	 24.10	
 18.713	127.067	  8.88600	 -0.51079	  6.94930	  8.19924	 -1.43063	 -0.68564	 10.84543	710.00000	 24.10	
 18.700	121.794	  8.88589	 -0.15995	  6.42307	  8.59335	 -1.66949	 -0.69592	 10.85124	709.96002	 24.10	
 18.698	116.504	  8.88242	  0.23639	  5.86628	  8.94360	 -1.87397	 -0.70901	 10.85533	710.04999	 24.10	
 18.707	111.165	  8.86951	  0.66851	  5.27694	  9.23076	 -2.03882	 -0.71931	 10.84735	710.06000	 24.10	
 18.690	105.863	  8.86959	  1.13403	  4.68740	  9.46109	 -2.16679	 -0.73335	 10.84671	710.01001	 24.10	
 18.696	100.583	  8.87128	  1.62999	  4.10125	  9.63544	 -2.26024	 -0.73990	 10.85236	709.98999	 24.10	
 18.700	 95.309	  8.86552	  2.15727	  3.50399	  9.74544	 -2.32235	 -0.74310	 10.85069	710.08002	 24.10	
 18.700	 90.000	  8.85532	  2.70477	  2.92170	  9.79084	 -2.35042	 -0.73690	 10.85047	710.01001	 24.10	
 18.700	 84.691	  8.85442	  3.27225	  2.36287	  9.78717	 -2.34799	 -0.73218	 10.85477	710.07001	 24.10	
 18.696	 79.417	  8.84571	  3.84558	  1.81636	  9.71200	 -2.31513	 -0.71930	 10.85123	710.03003	 24.10	
 18.690	 74.137	  8.84296	  4.42894	  1.30331	  9.57957	 -2.24266	 -0.70239	 10.84778	710.01001	 24.10	
 18.707	 68.835	  8.83261	  5.01159	  0.81332	  9.39178	 -2.14760	 -0.69148	 10.84581	710.03998	 24.10	
 18.698	 63.496	  8.83656	  5.60220	  0.35630	  9.13614	 -2.00958	 -0.67555	 10.84876	710.02002	 24.10	
 18.700	 58.206	  8.83438	  6.17212	 -0.06496	  8.82766	 -1.83700	 -0.65976	 10.84852	710.02002	 24.10	
 18.713	 52.933	  8.83847	  6.71385	 -0.44657	  8.47014	 -1.63587	 -0.64248	 10.85134	709.95001	 24.10	
 18.705	 47.657	  8.83503	  7.22715	 -0.79199	  8.06333	 -1.40175	 -0.61785	 10.85102	710.04999	 24.10	
 18.699	 42.375	  8.83830	  7.71660	 -1.10652	  7.61169	 -1.12833	 -0.59398	 10.85527	710.12000	 24.10	
 18.698	 37.048	  8.83826	  8.16302	 -1.37439	  7.11011	 -0.80430	 -0.55217	 10.85213	709.96997	 24.10	
 18.704	 31.745	  8.84360	  8.56698	 -1.60919	  6.58171	 -0.44223	 -0.52464	 10.85542	710.03003	 24.10	
 18.695	 26.463	  8.85158	  8.91100	 -1.80546	  6.03978	 -0.05409	 -0.49654	 10.86105	709.97998	 24.10	
 18.706	 21.182	  8.85643	  9.21568	 -1.96024	  5.46854	  0.38299	 -0.47641	 10.86322	710.07001	 24.10	
 18.691	 15.915	  8.86410	  9.45894	 -2.08196	  4.88228	  0.86040	 -0.46244	 10.86030	710.08002	 24.10	
 18.703	 10.559	  8.86541	  9.64193	 -2.18005	  4.29032	  1.36276	 -0.45080	 10.85987	710.00000	 24.10	
 18.709	  5.325	  8.86821	  9.75887	 -2.23541	  3.70583	  1.89276	 -0.43558	 10.85289	709.98999	 24.10	
 18.700	  0.000	  8.87374	  9.80904	 -2.25752	  3.11652	  2.45573	 -0.41160	 10.85403	710.12000	 24.10	
 18.709	 -5.325	  8.88384	  9.81463	 -2.25294	  2.55929	  3.04166	 -0.39805	 10.85934	710.01001	 24.10	
 18.703	-10.559	  8.88142	  9.73999	 -2.20932	  2.01352	  3.63253	 -0.37386	 10.84887	710.10999	 24.10	
 18.691	-15.915	  8.89637	  9.61643	 -2.13358	  1.48837	  4.24058	 -0.36022	 10.85612	710.03003	 24.10	
 18.706	-21.182	  8.90177	  9.43275	 -2.02953	  1.00766	  4.82662	 -0.34638	 10.85662	710.00000	 24.00	
 18.695	-26.463	  8.90631	  9.17723	 -1.88597	  0.54314	  5.42057	 -0.33834	 10.85038	710.15002	 24.00	
 18.704	-31.745	  8.91516	  8.88196	 -1.72052	  0.11233	  6.00437	 -0.32126	 10.86019	710.04999	 24.00	
 18.698	-37.048	  8.92167	  8.52710	 -1.50196	 -0.25965	  6.54714	 -0.30067	 10.85537	710.00000	 24.00	
 18.699	-42.375	  8.92385	  8.11478	 -1.24693	 -0.60741	  7.07482	 -0.29243	 10.85077	710.02002	 24.00	
 18.705	-47.657	  8.92792	  7.66118	 -0.95808	 -0.92872	  7.56885	 -0.27427	 10.85307	710.09998	 24.00	
 18.713	-52.933	  8.92874	  7.16700	 -0.62880	 -1.20349	  8.01477	 -0.25359	 10.85254	710.03003	 24.00	
 18.700	-58.206	  8.94118	  6.65254	 -0.26101	 -1.41876	  8.41099	 -0.23825	 10.85178	709.98999	 24.00	
 18.698	-63.496	  8.95007	  6.11037	  0.14137	 -1.61784	  8.76981	 -0.23341	 10.85454	710.02002	 24.00	
 18.707	-68.835	  8.95378	  5.52795	  0.59414	 -1.78121	  9.07411	 -0.21819	 10.85185	710.09998	 24.00	
 18.690	-74.137	  8.96448	  4.94807	  1.07375	 -1.90507	  9.31215	 -0.20891	 10.85687	710.12000	 24.00	
 18.696	-79.417	  8.96105	  4.36193	  1.57410	 -1.99457	  9.48631	 -0.20534	 10.85026	710.03998	 24.00	
 18.700	-84.691	  8.96754	  3.77629	  2.10925	 -2.05736	  9.60839	 -0.19154	 10.85340	710.07001	 24.00	
 18.700	-90.000	  8.96546	  3.19387	  2.66780	 -2.08115	  9.65244	 -0.19754	 10.84609	710.14001	 24.00	
 18.700	-95.309	  8.97057	  2.62950	  3.24212	 -2.06875	  9.64132	 -0.18851	 10.84627	710.03003	 24.00	
 18.696	-100.583	  8.97700	  2.08877	  3.83123	 -2.02760	  9.57088	 -0.19408	 10.85001	710.09003	 24.00	
 18.690	-105.863	  8.98985	  1.57568	  4.42275	 -1.95761	  9.44017	 -0.19170	 10.85534	709.96997	 24.00	
 18.707	-111.165	  8.98102	  1.08091	  5.01028	 -1.85213	  9.23607	 -0.20037	 10.84301	710.02002	 24.00	
 18.698	-116.504	  8.98945	  0.61755	  5.60245	 -1.70900	  8.98078	 -0.20089	 10.85134	710.08002	 24.00	
 18.700	-121.794	  8.99249	  0.19833	  6.16372	 -1.53304	  8.67000	 -0.20516	 10.85178	710.06000	 24.00	
 18.713	-127.067	  8.98876	 -0.19114	  6.69978	 -1.33254	  8.31044	 -0.21612	 10.84605	710.13000	 24.00	
 18.705	-132.343	  8.99572	 -0.53792	  7.21711	 -1.08002	  7.89246	 -0.23837	 10.84736	710.10999	 24.00	
 18.699	-137.625	  9.00330	 -0.85295	  7.70171	 -0.78580	  7.43466	 -0.24762	 10.85179	710.01001	 24.00	
 18.698	-142.952	  8.99934	 -1.13362	  8.14364	 -0.45942	  6.92870	 -0.25969	 10.84611	710.12000	 24.00	
 18.704	-148.255	  8.99290	 -1.37721	  8.53380	 -0.10331	  6.40000	 -0.28521	 10.84651	709.96997	 24.00	
 18.695	-153.537	  8.99398	 -1.57870	  8.87471	  0.29943	  5.84703	 -0.30531	 10.84690	709.96002	 24.00	
 18.706	-158.818	  8.98233	 -1.74865	  9.16358	  0.73695	  5.26429	 -0.32868	 10.84556	709.96997	 24.00	
 18.691	-164.085	  8.98330	 -1.88217	  9.39463	  1.19877	  4.69063	 -0.35631	 10.84888	710.04999	 24.00	
 18.703	-169.441	  8.97189	 -1.98240	  9.55620	  1.70962	  4.07943	 -0.38737	 10.84431	710.01001	 24.00	
 18.709	-174.675	  8.97049	 -2.04505	  9.67420	  2.23302	  3.49834	 -0.41587	 10.85277	710.12000	 24.00	
 18.700	180.000	  8.96328	 -2.07413	  9.71832	  2.77258	  2.91880	 -0.43931	 10.85199	710.17999	 24.00	
 20.400	180.000	  8.57512	 -2.62448	  9.98789	  2.47091	  2.65063	 -0.41794	 10.84427	710.02002	 24.00	
 20.401	-175.153	  8.58764	 -2.60049	  9.95485	  1.94351	  3.21092	 -0.39082	 10.85033	710.13000	 24.00	
 20.407	-170.264	  8.59022	 -2.54578	  9.85711	  1.41055	  3.80346	 -0.36981	 10.84938	710.09003	 24.00	
 20.410	-165.423	  8.60043	 -2.46263	  9.70687	  0.92605	  4.38598	 -0.34341	 10.85130	710.14001	 24.00	
 20.392	-160.496	  8.61105	 -2.34134	  9.49613	  0.45840	  4.97854	 -0.31986	 10.85357	710.12000	 24.00	
 20.401	-155.705	  8.60705	 -2.19861	  9.22741	  0.02623	  5.54756	 -0.30079	 10.84729	710.03003	 24.00	
 20.405	-150.835	  8.61335	 -2.01745	  8.91335	 -0.38107	  6.12163	 -0.28351	 10.85039	710.03003	 24.00	
 20.397	-145.903	  8.62249	 -1.79381	  8.54134	 -0.74382	  6.66458	 -0.26215	 10.84964	710.13000	 24.00	
 20.392	-141.062	  8.62530	 -1.54986	  8.13333	 -1.07447	  7.18725	 -0.24040	 10.85150	710.02002	 24.00	
 20.396	-136.227	  8.62168	 -1.28074	  7.68169	 -1.37482	  7.67339	 -0.22800	 10.85441	710.03998	 24.00	
 20.408	-131.372	  8.61547	 -0.97807	  7.19895	 -1.64046	  8.11949	 -0.21549	 10.85210	710.07001	 24.00	
 20.410	-126.511	  8.61717	 -0.62939	  6.67989	 -1.87104	  8.52981	 -0.19854	 10.85597	710.01001	 24.00	
 20.400	-121.604	  8.61147	 -0.24722	  6.12661	 -2.06557	  8.89034	 -0.19823	 10.85144	710.08002	 24.00	
 20.403	-116.741	  8.59987	  0.15655	  5.56190	 -2.24112	  9.20152	 -0.18911	 10.84967	710.06000	 24.00	
 20.413	-111.900	  8.59990	  0.59715	  4.98601	 -2.38555	  9.47344	 -0.18718	 10.85661	710.01001	 23.90	
 20.398	-107.004	  8.59351	  1.07924	  4.39144	 -2.48044	  9.67007	 -0.18367	 10.84335	710.14001	 24.00	
 20.394	-102.132	  8.58881	  1.57338	  3.80319	 -2.56662	  9.82280	 -0.18437	 10.84830	709.96997	 24.00	
 20.403	-97.332	  8.58471	  2.08689	  3.22884	 -2.61030	  9.91297	 -0.18099	 10.85162	709.98999	 24.00	
 20.392	-92.440	  8.58292	  2.64144	  2.65005	 -2.62450	  9.94758	 -0.17723	 10.85331	710.02002	 23.90	
 20.392	-87.560	  8.57427	  3.20220	  2.09370	 -2.62099	  9.92382	 -0.18422	 10.84943	710.07001	 24.00	
 20.403	-82.668	  8.56791	  3.78248	  1.53879	 -2.59458	  9.85036	 -0.17946	 10.85045	710.09003	 23.90	
 20.394	-77.868	  8.56120	  4.35548	  1.03374	 -2.53178	  9.72012	 -0.18973	 10.84973	710.02002	 23.90	
 20.398	-72.996	  8.55922	  4.93603	  0.54565	 -2.42750	  9.52628	 -0.19850	 10.84926	709.98999	 23.90	
 20.413	-68.100	  8.54832	  5.51559	  0.07885	 -2.31570	  9.27573	 -0.19985	 10.84850	710.02002	 23.90	
 20.403	-63.259	  8.54959	  6.08252	 -0.34423	 -2.15435	  8.97108	 -0.21428	 10.85361	710.12000	 23.90	
 20.400	-58.396	  8.54081	  6.62581	 -0.72831	 -1.97311	  8.61532	 -0.22495	 10.84781	710.03003	 23.90	
 20.410	-53.489	  8.52953	  7.15398	 -1.09369	 -1.75204	  8.20911	 -0.23831	 10.84155	710.01001	 23.90	
 20.408	-48.628	  8.52692	  7.65621	 -1.42100	 -1.50279	  7.76970	 -0.24582	 10.85488	710.10999	 23.90	
 20.396	-43.773	  8.52748	  8.11706	 -1.70272	 -1.21644	  7.29160	 -0.26159	 10.85590	710.08002	 23.90	
 20.392	-38.938	  8.52554	  8.53398	 -1.94731	 -0.88778	  6.77373	 -0.27702	 10.85451	710.03998	 23.90	
 20.397	-34.097	  8.51570	  8.90821	 -2.15772	 -0.53016	  6.23159	 -0.29461	 10.84605	710.10999	 23.90	
 20.405	-29.165	  8.50804	  9.24347	 -2.35630	 -0.14723	  5.66546	 -0.31772	 10.84893	710.08002	 23.90	
 20.401	-24.295	  8.50426	  9.52380	 -2.50726	  0.28098	  5.07992	 -0.33701	 10.85485	710.20001	 23.90	
 20.392	-19.504	  8.50256	  9.74725	 -2.61970	  0.73708	  4.50011	 -0.35454	 10.85685	710.17999	 23.90	
 20.410	-14.577	  8.48751	  9.91544	 -2.71589	  1.22241	  3.90133	 -0.37964	 10.85202	710.13000	 23.90	
 20.407	 -9.736	  8.48214	 10.01989	 -2.77337	  1.74371	  3.30666	 -0.40158	 10.84600	710.08002	 23.90	
 20.401	 -4.847	  8.48318	 10.08253	 -2.80571	  2.28828	  2.71608	 -0.41892	 10.85253	710.08002	 23.90	
 20.400	  0.000	  8.48132	 10.08180	 -2.80746	  2.83923	  2.16342	 -0.44749	 10.85206	710.07001	 23.90	
 20.401	  4.847	  8.47143	 10.02667	 -2.78498	  3.40358	  1.61394	 -0.46870	 10.84926	710.09003	 23.90	
 20.407	  9.736	  8.46058	  9.91248	 -2.73982	  3.99150	  1.07736	 -0.49925	 10.84392	710.09998	 23.90	
 20.410	 14.577	  8.45932	  9.75748	 -2.66271	  4.56870	  0.57708	 -0.52562	 10.85220	710.09998	 23.90	
 20.392	 19.504	  8.45819	  9.52719	 -2.55097	  5.16651	  0.09790	 -0.55592	 10.85176	710.12000	 23.90	
 20.401	 24.295	  8.44995	  9.25047	 -2.41477	  5.73128	 -0.33355	 -0.57855	 10.85077	710.06000	 23.90	
 20.405	 29.165	  8.44589	  8.92526	 -2.24395	  6.28447	 -0.72633	 -0.61046	 10.84809	710.03003	 23.90	
 20.397	 34.097	  8.44583	  8.54412	 -2.03724	  6.83954	 -1.09911	 -0.64279	 10.85048	710.09998	 23.90	
 20.392	 38.938	  8.44404	  8.13067	 -1.80351	  7.35249	 -1.42837	 -0.67540	 10.84929	710.06000	 23.90	
 20.396	 43.773	  8.44359	  7.68089	 -1.54073	  7.82587	 -1.71215	 -0.70320	 10.85230	710.13000	 23.90	
 20.408	 48.628	  8.43577	  7.18620	 -1.24389	  8.26833	 -1.97323	 -0.72933	 10.84666	710.06000	 23.90	
 20.410	 53.489	  8.44041	  6.65945	 -0.89783	  8.68445	 -2.19657	 -0.75264	 10.85320	710.12000	 23.90	
 20.400	 58.396	  8.44231	  6.11098	 -0.52111	  9.04163	 -2.38464	 -0.77089	 10.85287	710.04999	 23.90	
 20.403	 63.259	  8.44221	  5.55193	 -0.12302	  9.34720	 -2.54437	 -0.79106	 10.85482	710.09003	 23.90	
 20.413	 68.100	  8.44185	  4.97566	  0.31990	  9.60003	 -2.67467	 -0.80505	 10.85084	709.98999	 23.90	
 20.398	 72.996	  8.44915	  4.39296	  0.79510	  9.79163	 -2.76355	 -0.81211	 10.84739	709.96002	 23.90	
 20.394	 77.868	  8.46096	  3.81484	  1.29736	  9.93919	 -2.83320	 -0.82012	 10.85150	710.06000	 23.90	
 20.403	 82.668	  8.46322	  3.24514	  1.81164	 10.02948	 -2.87473	 -0.83011	 10.84990	710.03003	 23.90	
 20.392	 87.560	  8.47650	  2.67763	  2.36921	 10.06613	 -2.88825	 -0.83370	 10.85432	710.15997	 23.90	
 20.392	 92.440	  8.47950	  2.13006	  2.93255	 10.04577	 -2.88110	 -0.84261	 10.85258	710.04999	 23.90	
 20.403	 97.332	  8.48184	  1.59297	  3.51876	  9.97201	 -2.84354	 -0.83689	 10.85320	710.04999	 23.90	
 20.394	102.132	  8.48525	  1.09760	  4.09276	  9.84267	 -2.78185	 -0.83601	 10.85142	710.07001	 23.90	
 20.398	107.004	  8.48552	  0.61890	  4.68093	  9.65743	 -2.68142	 -0.82692	 10.84600	710.08002	 23.90	
 20.413	111.900	  8.48060	  0.16070	  5.26353	  9.41693	 -2.56316	 -0.81926	 10.84459	710.07001	 23.90	
 20.403	116.741	  8.48836	 -0.25345	  5.83788	  9.13119	 -2.40902	 -0.80917	 10.85303	710.10999	 23.90	
 20.400	121.604	  8.49085	 -0.62458	  6.38746	  8.78877	 -2.21903	 -0.79434	 10.84564	710.03003	 23.90	
 20.410	126.511	  8.49388	 -0.97846	  6.92881	  8.38749	 -1.98565	 -0.77342	 10.84295	710.01001	 23.90	
 20.408	131.372	  8.50240	 -1.28415	  7.44230	  7.95693	 -1.72150	 -0.75474	 10.85142	710.08002	 23.90	
 20.396	136.227	  8.50979	 -1.55851	  7.90845	  7.48435	 -1.42850	 -0.72947	 10.84944	710.15002	 23.90	
 20.392	141.062	  8.51331	 -1.79952	  8.33637	  6.98998	 -1.10751	 -0.70131	 10.84832	710.10999	 23.90	
 20.397	145.903	  8.51765	 -2.00280	  8.71856	  6.45810	 -0.74083	 -0.67201	 10.83962	710.09998	 23.90	
 20.405	150.835	  8.52619	 -2.19064	  9.07635	  5.89907	 -0.34227	 -0.65229	 10.84927	710.08002	 23.90	
 20.401	155.705	  8.53811	 -2.34179	  9.37022	  5.34162	  0.07118	 -0.61188	 10.85533	710.15002	 23.90	
 20.392	160.496	  8.54908	 -2.44796	  9.60809	  4.77578	  0.53135	 -0.57888	 10.85745	710.10999	 23.90	
 20.410	165.423	  8.54938	 -2.54442	  9.78814	  4.17711	  1.02739	 -0.54236	 10.84971	710.04999	 23.90	
 20.407	170.264	  8.55510	 -2.59468	  9.90555	  3.60671	  1.53629	 -0.49992	 10.84376	710.09003	 23.90	
 20.401	175.153	  8.56993	 -2.62703	  9.98193	  3.03520	  2.08193	 -0.45963	 10.84976	709.94000	 23.90	
  0.141	 45.000	 10.82252	  4.71088	  4.49393	  4.70186	  4.36152	  0.28266	 10.85420	709.98999	 23.90	
  4.001	128.691	 10.76909	  3.74630	  5.30679	  5.63501	  3.30981	  0.19658	 10.85012	710.03998	 23.90	
  4.002	 76.995	 10.77185	  4.81718	  4.16568	  5.95665	  3.03281	  0.24124	 10.85388	709.96997	 23.90	
  4.002	 25.892	 10.78555	  5.82333	  3.26716	  5.18769	  3.69140	  0.26703	 10.86059	709.98999	 23.80	
  4.002	-25.892	 10.78583	  5.85741	  3.25920	  4.04190	  4.84241	  0.25869	 10.84627	710.03998	 23.80	
  4.002	-76.995	 10.79299	  4.94982	  4.10492	  3.36647	  5.63867	  0.20100	 10.84688	710.15002	 23.80	
  4.001	-128.691	 10.79598	  3.83589	  5.27676	  3.58174	  5.40323	  0.17238	 10.85198	709.98999	 23.80	
  4.000	180.000	 10.78243	  3.33076	  5.82979	  4.53042	  4.36286	  0.16904	 10.84709	710.07001	 23.80	
  8.000	180.000	 10.57114	  1.79331	  7.11903	  4.23029	  4.13558	 -0.03051	 10.85271	710.03998	 23.80	
  7.991	-152.370	 10.59216	  2.11230	  6.73495	  3.02915	  5.45314	 -0.01302	 10.85200	710.02002	 23.80	
  7.997	-124.550	 10.60015	  2.93317	  5.74853	  2.18100	  6.49661	 -0.02008	 10.85053	710.06000	 23.80	
  8.006	-96.837	 10.60211	  4.11942	  4.44092	  1.81988	  6.98364	 -0.01177	 10.85243	710.09003	 23.80	
  7.988	-69.228	 10.59359	  5.42504	  3.17059	  1.99344	  6.74779	  0.01619	 10.85210	710.13000	 23.80	
  7.997	-41.563	 10.58354	  6.55223	  2.20949	  2.65574	  5.89156	  0.05142	 10.85517	709.98999	 23.80	
  8.008	-13.821	 10.56325	  7.18894	  1.70058	  3.75667	  4.60999	  0.09808	 10.85245	710.09998	 23.80	
  8.008	 13.821	 10.54300	  7.12836	  1.71540	  5.06492	  3.29903	  0.12767	 10.85037	710.20001	 23.80	
  7.997	 41.563	 10.52924	  6.39317	  2.25927	  6.27984	  2.24052	  0.10271	 10.84911	710.12000	 23.80	
  7.988	 69.228	 10.52427	  5.20919	  3.26101	  7.07396	  1.61848	  0.07786	 10.85007	710.09003	 23.80	
  8.006	 96.837	 10.52285	  3.89220	  4.55055	  7.21375	  1.51441	  0.01811	 10.85019	710.10999	 23.80	
  7.997	124.550	 10.53319	  2.75497	  5.84312	  6.65206	  1.94664	  0.00214	 10.84764	710.02002	 23.80	
  7.991	152.370	 10.55144	  2.01791	  6.78961	  5.56203	  2.87084	 -0.01600	 10.85215	710.06000	 23.80	
 12.009	161.059	 10.11234	  0.40188	  8.02283	  5.17389	  2.46621	 -0.25217	 10.84698	710.02002	 23.80	
 12.013	142.081	 10.09558	  0.87385	  7.31932	  6.47441	  1.35956	 -0.28054	 10.85295	710.03003	 23.80	
 12.006	123.113	 10.08852	  1.69287	  6.22066	  7.52431	  0.56507	 -0.25618	 10.85664	710.09003	 23.80	
 12.007	104.200	 10.06943	  2.78173	  4.89102	  8.17892	  0.09754	 -0.25224	 10.85064	710.00000	 23.80	
 11.989	 85.301	 10.06114	  4.08350	  3.51769	  8.34498	 -0.01412	 -0.22639	 10.84583	710.02002	 23.80	
 12.013	 66.294	 10.06045	  5.46108	  2.24269	  8.02292	  0.19369	 -0.18162	 10.85430	710.01001	 23.80	
 12.012	 47.388	 10.05941	  6.72214	  1.22340	  7.22660	  0.74885	 -0.15945	 10.85124	710.15002	 23.80	
 11.990	 28.440	 10.07447	  7.70538	  0.53192	  6.07170	  1.65281	 -0.07889	 10.85512	710.00000	 23.80	
 11.991	  9.464	 10.08965	  8.25870	  0.17494	  4.73033	  2.83064	 -0.08516	 10.85224	710.04999	 23.80	
 11.991	 -9.464	 10.11138	  8.32549	  0.15874	  3.37937	  4.18174	 -0.10705	 10.85137	709.97998	 23.80	
 11.990	-28.440	 10.13485	  7.89011	  0.46743	  2.16601	  5.56975	 -0.13989	 10.85605	710.09003	 23.80	
 12.012	-47.388	 10.13897	  6.99921	  1.11729	  1.20470	  6.79457	 -0.17616	 10.84967	709.90002	 23.80	
 12.013	-66.294	 10.15656	  5.79716	  2.10191	  0.58470	  7.68370	 -0.18613	 10.85256	709.94000	 23.80	
 11.989	-85.301	 10.17656	  4.43386	  3.34982	  0.31503	  8.11234	 -0.19549	 10.85177	710.04999	 23.80	
 12.007	-104.200	 10.17845	  3.10003	  4.71693	  0.35763	  8.03939	 -0.19516	 10.85412	709.96997	 23.80	
 12.006	-123.113	 10.17313	  1.94017	  6.05517	  0.74255	  7.46281	 -0.21636	 10.85402	709.96002	 23.80	
 12.013	-142.081	 10.17270	  1.05301	  7.19852	  1.48429	  6.45532	 -0.22060	 10.85489	709.91998	 23.80	
 12.009	-161.059	 10.15584	  0.49498	  7.95780	  2.53073	  5.16584	 -0.23438	 10.84954	709.97998	 23.80	
 16.000	180.000	  9.50122	 -1.15720	  9.18944	  3.22699	  3.30770	 -0.42176	 10.84962	709.92999	 23.80	
 15.990	-165.604	  9.52206	 -1.00443	  8.95804	  1.95856	  4.69487	 -0.36709	 10.85282	709.96997	 23.80	
 16.002	-151.165	  9.53363	 -0.61644	  8.34632	  0.86396	  6.05196	 -0.30827	 10.85069	709.90002	 23.80	
 16.002	-136.836	  9.54243	  0.01735	  7.40052	 -0.00376	  7.25970	 -0.27335	 10.84903	710.03998	 23.80	
 15.995	-122.439	  9.54337	  0.88904	  6.19833	 -0.63100	  8.22800	 -0.24273	 10.85479	709.97998	 23.80	
 15.993	-107.966	  9.53637	  1.99208	  4.83615	 -1.02083	  8.87362	 -0.22173	 10.85755	710.01001	 23.80	
 16.005	-93.629	  9.52525	  3.26159	  3.44791	 -1.15970	  9.11232	 -0.22157	 10.85039	709.97998	 23.80	
 15.992	-79.234	  9.51673	  4.63337	  2.12962	 -1.08236	  8.96468	 -0.22843	 10.85208	710.03998	 23.80	
 16.009	-64.774	  9.50333	  5.99552	  0.96478	 -0.77705	  8.42951	 -0.24224	 10.85591	710.06000	 23.80	
 15.997	-50.364	  9.48148	  7.23664	  0.02160	 -0.21450	  7.51529	 -0.27831	 10.84970	709.97998	 23.80	
 15.997	-36.045	  9.46470	  8.24398	 -0.67649	  0.57203	  6.35222	 -0.29706	 10.85146	710.03003	 23.80	
 16.000	-21.597	  9.45274	  8.95447	 -1.12087	  1.62491	  4.99244	 -0.29646	 10.85098	710.07001	 23.80	
 16.003	 -7.169	  9.43542	  9.27695	 -1.32334	  2.86842	  3.58478	 -0.30341	 10.84772	710.03998	 23.80	
 16.003	  7.169	  9.42635	  9.22117	 -1.30521	  4.22060	  2.24690	 -0.31730	 10.85508	709.94000	 23.80	
 16.000	 21.597	  9.40653	  8.76398	 -1.05534	  5.59870	  1.04370	 -0.31690	 10.85075	709.90997	 23.80	
 15.997	 36.045	  9.39474	  7.94296	 -0.56086	  6.88842	  0.06193	 -0.35792	 10.84772	710.03003	 23.80	
 15.997	 50.364	  9.39146	  6.84623	  0.17136	  7.97593	 -0.67521	 -0.43693	 10.84988	710.13000	 23.80	
 16.009	 64.774	  9.39274	  5.55548	  1.14647	  8.77255	 -1.15790	 -0.47311	 10.85004	710.01001	 23.80	
 15.992	 79.234	  9.39935	  4.17114	  2.34505	  9.20155	 -1.40408	 -0.51122	 10.84680	710.00000	 23.80	
 16.005	 93.629	  9.41092	  2.83083	  3.67837	  9.25684	 -1.43492	 -0.54273	 10.84722	710.07001	 23.80	
 15.993	107.966	  9.42481	  1.61118	  5.06609	  8.91881	 -1.23000	 -0.52939	 10.85105	709.95001	 23.80	
 15.995	122.439	  9.42728	  0.57176	  6.40983	  8.21662	 -0.79179	 -0.52203	 10.84677	710.01001	 23.80	
 16.002	136.836	  9.44486	 -0.22667	  7.58374	  7.19567	 -0.09855	 -0.53651	 10.85481	710.02002	 23.80	
 16.002	151.165	  9.45858	 -0.78179	  8.48064	  5.95882	  0.82434	 -0.49623	 10.85276	710.08002	 23.80	
 15.990	165.604	  9.48713	 -1.07605	  9.02901	  4.59494	  1.98780	 -0.44194	 10.85530	710.02002	 23.80	
 20.003	168.362	  8.64555	 -2.44792	  9.80592	  3.88189	  1.42273	 -0.51095	 10.84461	710.03998	 23.80	
 20.008	156.764	  8.63046	 -2.24123	  9.37481	  5.24303	  0.27144	 -0.60320	 10.85437	709.92999	 23.80	
 20.000	145.147	  8.62151	 -1.85162	  8.63430	  6.55484	 -0.68834	 -0.67442	 10.85716	709.94000	 23.70	
 19.995	133.545	  8.60507	 -1.28813	  7.64019	  7.73375	 -1.47147	 -0.72841	 10.85695	710.02002	 23.80	
 20.009	121.926	  8.58540	 -0.53390	  6.43074	  8.72514	 -2.07768	 -0.77372	 10.84866	710.01001	 23.80	
 20.005	110.327	  8.58154	  0.40991	  5.10452	  9.45971	 -2.47911	 -0.80147	 10.85473	710.09998	 23.70	
 19.989	 98.733	  8.57850	  1.53418	  3.73494	  9.88015	 -2.70173	 -0.81537	 10.85268	709.97998	 23.70	
 19.999	 87.075	  8.56508	  2.80093	  2.38058	 10.00348	 -2.76914	 -0.81500	 10.85221	709.95001	 23.80	
 19.992	 75.457	  8.55000	  4.14689	  1.13538	  9.81995	 -2.67199	 -0.79305	 10.85175	709.98999	 23.70	
 20.009	 63.844	  8.52838	  5.49866	  0.03588	  9.32917	 -2.43941	 -0.77073	 10.84753	709.96997	 23.70	
 19.989	 52.269	  8.54012	  6.79531	 -0.85836	  8.54578	 -2.00821	 -0.72641	 10.85202	709.97998	 23.70	
 19.999	 40.602	  8.53814	  7.95494	 -1.59705	  7.50938	 -1.41814	 -0.66565	 10.85417	709.92999	 23.70	
 20.004	 29.051	  8.54669	  8.89251	 -2.12149	  6.28880	 -0.60639	 -0.59146	 10.85344	710.00000	 23.70	
 20.005	 17.433	  8.54836	  9.56979	 -2.47360	  4.94746	  0.38849	 -0.52628	 10.84607	709.97998	 23.70	
 20.006	  5.780	  8.56526	  9.94923	 -2.65028	  3.58181	  1.58567	 -0.47543	 10.84933	709.96002	 23.70	
 20.006	 -5.780	  8.58293	 10.01746	 -2.67386	  2.26827	  2.89023	 -0.41366	 10.85536	710.03003	 23.70	
 20.005	-17.433	  8.59040	  9.76183	 -2.53477	  1.04205	  4.28437	 -0.36822	 10.84615	710.08002	 23.70	
 20.004	-29.051	  8.61004	  9.20606	 -2.22778	 -0.02135	  5.67301	 -0.32641	 10.85436	710.06000	 23.70	
 19.999	-40.602	  8.62245	  8.36632	 -1.74432	 -0.87900	  6.93960	 -0.27486	 10.85091	710.04999	 23.70	
 19.989	-52.269	  8.64014	  7.27940	 -1.05215	 -1.55512	  8.07399	 -0.24029	 10.85080	710.02002	 23.70	
 20.009	-63.844	  8.64691	  6.03301	 -0.18280	 -2.04756	  8.96058	 -0.21681	 10.85373	709.95001	 23.70	
 19.992	-75.457	  8.66439	  4.69088	  0.88653	 -2.35099	  9.56815	 -0.19621	 10.84916	710.15997	 23.70	
 19.999	-87.075	  8.67165	  3.32047	  2.11148	 -2.49682	  9.85836	 -0.18726	 10.85363	710.17999	 23.70	
 19.989	-98.733	  8.68171	  2.01999	  3.45166	 -2.46546	  9.82575	 -0.17489	 10.84850	710.08002	 23.70	
 20.005	-110.327	  8.69233	  0.84770	  4.82516	 -2.28719	  9.48416	 -0.18827	 10.85084	709.96002	 23.70	
 20.009	-121.926	  8.70406	 -0.16078	  6.16525	 -1.92858	  8.82290	 -0.19948	 10.84876	710.03003	 23.70	
 19.995	-133.545	  8.71347	 -0.99756	  7.40067	 -1.40640	  7.89949	 -0.22661	 10.85382	709.97998	 23.70	
 20.000	-145.147	  8.71496	 -1.63776	  8.44542	 -0.68039	  6.74460	 -0.25913	 10.84983	709.97998	 23.70	
 20.008	-156.764	  8.70069	 -2.10330	  9.24305	  0.22031	  5.44629	 -0.31655	 10.85133	710.02002	 23.70	
 20.003	-168.362	  8.69003	 -2.38198	  9.74076	  1.30976	  4.07833	 -0.36041	 10.84880	710.06000	 23.70	
 20.000	180.000	  8.67505	 -2.49716	  9.93394	  2.54116	  2.71188	 -0.43332	 10.85402	710.03003	 23.70	
