FileType=PCF
NHL=14
Date=03/18/19	13:14:01
Facility=APL
Serial=16071-8
Customer=NASA
NP=6
Mach=0.080000
Calibration=1:1
CalPts=490
TstPts=95
PortNumbering=AP Standard
Units=Torr C m/s kg/m^3 deg mm 
Theta[deg]	Phi[deg]	P1[Torr]	P2[Torr]	P3[Torr]	P4[Torr]	P5[Torr]	P6[Torr]	Pt[Torr]	Ps[Abs,Torr]	Ts[C]	
  0.000	  0.000	  3.18162	  1.42831	  1.36326	  1.39644	  1.36087	  0.08675	  3.18060	710.15002	 23.00	
  1.691	128.401	  3.18000	  1.32556	  1.44013	  1.49190	  1.24057	  0.07592	  3.18126	710.02002	 23.00	
  1.692	 77.194	  3.18205	  1.43744	  1.32976	  1.52098	  1.21524	  0.08244	  3.18312	710.04999	 23.00	
  1.699	 26.182	  3.17917	  1.54572	  1.22883	  1.44400	  1.29010	  0.08549	  3.17986	710.15997	 23.00	
  1.699	-26.182	  3.18243	  1.54110	  1.22983	  1.32655	  1.41165	  0.07905	  3.18358	710.19000	 23.00	
  1.692	-77.194	  3.17972	  1.45692	  1.31423	  1.25187	  1.48755	  0.07755	  3.18145	710.23999	 23.00	
  1.691	-128.401	  3.17971	  1.33128	  1.44193	  1.27558	  1.46215	  0.07277	  3.18124	710.25000	 23.00	
  1.700	180.000	  3.18035	  1.27499	  1.49805	  1.36973	  1.36144	  0.07361	  3.18213	710.13000	 23.00	
  3.400	180.000	  3.17507	  1.09426	  1.66513	  1.34679	  1.34197	  0.05627	  3.18023	710.20001	 23.00	
  3.388	-152.325	  3.17756	  1.13347	  1.62292	  1.21047	  1.49037	  0.05477	  3.18093	710.12000	 23.00	
  3.397	-124.529	  3.18065	  1.23220	  1.51086	  1.11520	  1.60276	  0.05397	  3.18392	710.08002	 23.00	
  3.399	-96.763	  3.17878	  1.37055	  1.35637	  1.07416	  1.65192	  0.05567	  3.18234	710.10999	 23.00	
  3.394	-69.283	  3.17640	  1.51241	  1.21508	  1.08835	  1.63390	  0.06061	  3.18129	710.12000	 22.90	
  3.400	-41.398	  3.17692	  1.63835	  1.10187	  1.16856	  1.53282	  0.06822	  3.18104	710.08002	 22.90	
  3.401	-14.021	  3.17665	  1.71152	  1.04395	  1.28812	  1.39761	  0.07589	  3.18019	709.96002	 22.90	
  3.401	 14.021	  3.17368	  1.70584	  1.04267	  1.43982	  1.24322	  0.07876	  3.17986	710.12000	 22.90	
  3.400	 41.398	  3.17164	  1.62559	  1.10621	  1.57743	  1.11895	  0.08124	  3.17833	710.04999	 22.90	
  3.394	 69.283	  3.17350	  1.48937	  1.23158	  1.67118	  1.04637	  0.07935	  3.17899	709.98999	 22.90	
  3.399	 96.763	  3.17150	  1.33901	  1.37747	  1.68842	  1.03074	  0.07289	  3.17905	710.07001	 22.90	
  3.397	124.529	  3.17129	  1.20653	  1.52182	  1.62479	  1.08212	  0.06574	  3.17856	710.15997	 22.90	
  3.388	152.325	  3.17235	  1.11975	  1.62833	  1.49827	  1.19559	  0.05923	  3.17848	710.13000	 22.90	
  5.099	161.165	  3.16040	  0.92581	  1.80474	  1.48375	  1.16335	  0.04077	  3.18087	710.15002	 22.90	
  5.109	142.013	  3.15614	  0.98665	  1.72415	  1.63717	  1.02273	  0.04506	  3.17780	710.04999	 22.90	
  5.095	123.033	  3.15911	  1.09502	  1.59788	  1.75958	  0.92231	  0.05080	  3.17953	710.08002	 22.90	
  5.105	104.191	  3.15608	  1.23195	  1.43932	  1.83300	  0.85987	  0.05605	  3.17963	710.09998	 22.90	
  5.093	 85.207	  3.15624	  1.39017	  1.27703	  1.85339	  0.84506	  0.06228	  3.18069	710.09003	 22.90	
  5.104	 66.290	  3.15480	  1.54802	  1.12484	  1.81343	  0.87559	  0.06679	  3.17819	710.17999	 22.90	
  5.094	 47.331	  3.15578	  1.69548	  0.99531	  1.72177	  0.94692	  0.06961	  3.18128	710.14001	 22.90	
  5.089	 28.397	  3.15532	  1.80655	  0.90632	  1.58788	  1.06002	  0.07146	  3.17851	710.19000	 22.90	
  5.096	  9.576	  3.15658	  1.87030	  0.85820	  1.42955	  1.20646	  0.06985	  3.17740	710.20001	 22.90	
  5.096	 -9.576	  3.15767	  1.87648	  0.85605	  1.26822	  1.36866	  0.06509	  3.17839	710.13000	 22.90	
  5.089	-28.397	  3.16019	  1.82426	  0.89690	  1.12392	  1.52691	  0.05723	  3.18072	710.09003	 22.90	
  5.094	-47.331	  3.15891	  1.71942	  0.97849	  1.00470	  1.66482	  0.04964	  3.17677	710.17999	 22.90	
  5.104	-66.290	  3.16394	  1.58299	  1.10400	  0.92391	  1.77265	  0.04250	  3.18192	710.16998	 22.90	
  5.093	-85.207	  3.16439	  1.42444	  1.25325	  0.88520	  1.82135	  0.03647	  3.18058	710.06000	 22.90	
  5.105	-104.191	  3.16289	  1.26394	  1.41451	  0.88819	  1.81343	  0.03310	  3.17814	710.20001	 22.90	
  5.095	-123.033	  3.16017	  1.12253	  1.56960	  0.94222	  1.74434	  0.03271	  3.17618	710.19000	 22.90	
  5.109	-142.013	  3.16220	  1.00678	  1.70654	  1.03228	  1.63462	  0.03217	  3.17795	710.13000	 22.80	
  5.099	-161.165	  3.16398	  0.93739	  1.79671	  1.16794	  1.48503	  0.03625	  3.17970	710.10999	 22.80	
  5.100	180.000	  3.16039	  0.90659	  1.83073	  1.31903	  1.32237	  0.03576	  3.17874	710.10999	 22.80	
  6.800	180.000	  3.13184	  0.71434	  1.98822	  1.28182	  1.29388	  0.01102	  3.17581	710.19000	 22.80	
  6.796	-166.229	  3.13674	  0.73709	  1.96532	  1.13069	  1.45673	  0.01038	  3.17953	710.07001	 22.80	
  6.808	-152.311	  3.13729	  0.78873	  1.89493	  0.98669	  1.61388	  0.00913	  3.17937	710.20001	 22.80	
  6.795	-138.383	  3.13929	  0.87839	  1.78892	  0.86957	  1.75711	  0.00750	  3.18071	710.21002	 22.80	
  6.792	-124.591	  3.14008	  0.99008	  1.65599	  0.78088	  1.86871	  0.00676	  3.18106	710.16998	 22.80	
  6.787	-110.754	  3.14051	  1.12539	  1.50172	  0.72232	  1.94534	  0.00851	  3.17971	710.13000	 22.80	
  6.800	-96.985	  3.13792	  1.27700	  1.33788	  0.69357	  1.98057	  0.01032	  3.17893	710.16998	 22.80	
  6.800	-83.015	  3.13975	  1.43893	  1.17805	  0.69944	  1.97738	  0.01415	  3.17960	710.21002	 22.80	
  6.787	-69.246	  3.13743	  1.59635	  1.02967	  0.73602	  1.92677	  0.01958	  3.17989	710.15002	 22.80	
  6.792	-55.409	  3.13403	  1.74574	  0.89585	  0.80026	  1.83910	  0.02554	  3.17789	710.29999	 22.80	
  6.795	-41.617	  3.13506	  1.87060	  0.79310	  0.89801	  1.71920	  0.03048	  3.18004	710.13000	 22.80	
  6.808	-27.689	  3.13089	  1.96680	  0.71567	  1.02209	  1.56908	  0.03781	  3.17762	710.15997	 22.80	
  6.796	-13.771	  3.12809	  2.02163	  0.67342	  1.16621	  1.40843	  0.04527	  3.17521	710.13000	 22.80	
  6.800	  0.000	  3.13099	  2.03712	  0.66403	  1.32131	  1.25035	  0.05118	  3.17966	710.15997	 22.80	
  6.796	 13.771	  3.12813	  2.00929	  0.68236	  1.48381	  1.09247	  0.05474	  3.18002	710.15997	 22.80	
  6.808	 27.689	  3.12517	  1.94040	  0.73182	  1.64164	  0.94967	  0.05478	  3.17699	710.15997	 22.80	
  6.795	 41.617	  3.12696	  1.83839	  0.81265	  1.77944	  0.83578	  0.05460	  3.17870	710.15002	 22.80	
  6.792	 55.409	  3.12712	  1.70596	  0.92486	  1.89373	  0.74754	  0.05166	  3.17870	710.15002	 22.80	
  6.787	 69.246	  3.12601	  1.55189	  1.05962	  1.97018	  0.68881	  0.04895	  3.17937	710.09003	 22.80	
  6.800	 83.015	  3.12595	  1.39266	  1.21038	  2.01249	  0.65456	  0.04205	  3.17816	710.07001	 22.80	
  6.800	 96.985	  3.12724	  1.23452	  1.37265	  2.00645	  0.66213	  0.03686	  3.17939	710.13000	 22.80	
  6.787	110.754	  3.12855	  1.08502	  1.53486	  1.95793	  0.69814	  0.03192	  3.18064	710.12000	 22.80	
  6.792	124.591	  3.13057	  0.95361	  1.68797	  1.87017	  0.76872	  0.02687	  3.17935	710.21002	 22.80	
  6.795	138.383	  3.13051	  0.84772	  1.81463	  1.75171	  0.86255	  0.02066	  3.17849	710.13000	 22.80	
  6.808	152.311	  3.12868	  0.76757	  1.91526	  1.60925	  0.98350	  0.01892	  3.17744	710.08002	 22.70	
  6.796	166.229	  3.13201	  0.72541	  1.97323	  1.44430	  1.13487	  0.01421	  3.17711	710.15002	 22.80	
  8.491	168.704	  3.09400	  0.53067	  2.13131	  1.40764	  1.09829	 -0.01332	  3.17826	710.00000	 22.70	
  8.502	157.493	  3.09245	  0.56546	  2.08156	  1.57655	  0.94034	 -0.01030	  3.17896	710.07001	 22.70	
  8.494	146.194	  3.09197	  0.62526	  1.99770	  1.73241	  0.80330	 -0.01041	  3.17794	710.01001	 22.70	
  8.495	135.039	  3.09114	  0.71326	  1.88584	  1.87437	  0.68829	 -0.00694	  3.17871	710.10999	 22.70	
  8.487	123.723	  3.08700	  0.82469	  1.74650	  1.99196	  0.59445	 -0.00006	  3.17599	710.08002	 22.70	
  8.492	112.575	  3.08899	  0.95597	  1.59492	  2.08496	  0.52623	  0.00702	  3.18002	710.07001	 22.70	
  8.510	101.220	  3.08870	  1.10744	  1.42626	  2.14536	  0.48162	  0.00797	  3.18000	710.04999	 22.70	
  8.500	 90.000	  3.08564	  1.26317	  1.25845	  2.16575	  0.46309	  0.01073	  3.17779	710.09003	 22.70	
  8.510	 78.780	  3.08278	  1.42607	  1.09540	  2.15295	  0.47034	  0.02004	  3.17526	710.16998	 22.70	
  8.492	 67.425	  3.08502	  1.59551	  0.94234	  2.10439	  0.50792	  0.02513	  3.17891	710.19000	 22.70	
  8.487	 56.277	  3.08363	  1.74793	  0.81181	  2.01770	  0.57364	  0.02765	  3.17579	710.15002	 22.70	
  8.495	 44.961	  3.08376	  1.89145	  0.69134	  1.90629	  0.65857	  0.02873	  3.17667	710.10999	 22.70	
  8.494	 33.806	  3.08834	  2.01078	  0.60023	  1.77162	  0.76910	  0.03415	  3.18071	710.17999	 22.70	
  8.502	 22.507	  3.08619	  2.10425	  0.52868	  1.61853	  0.89495	  0.03624	  3.17771	710.12000	 22.70	
  8.491	 11.296	  3.08811	  2.16455	  0.48632	  1.45563	  1.04233	  0.03173	  3.17906	710.20001	 22.70	
  8.500	  0.000	  3.08817	  2.19231	  0.46327	  1.28478	  1.20384	  0.02535	  3.17949	710.15997	 22.70	
  8.491	-11.296	  3.08930	  2.17870	  0.47581	  1.12765	  1.36837	  0.02257	  3.17870	710.07001	 22.70	
  8.502	-22.507	  3.09072	  2.13112	  0.50969	  0.97606	  1.53293	  0.01651	  3.17903	710.10999	 22.70	
  8.494	-33.806	  3.09448	  2.04901	  0.57334	  0.83841	  1.69679	  0.01077	  3.17876	710.26001	 22.70	
  8.495	-44.961	  3.09628	  1.93943	  0.66258	  0.72493	  1.84010	  0.00455	  3.17796	710.17999	 22.70	
  8.487	-56.277	  3.09873	  1.80431	  0.77405	  0.63320	  1.96103	  0.00178	  3.17864	710.19000	 22.70	
  8.492	-67.425	  3.09807	  1.65138	  0.90245	  0.56168	  2.05181	 -0.00545	  3.17652	710.19000	 22.70	
  8.510	-78.780	  3.10192	  1.48985	  1.05365	  0.51621	  2.11847	 -0.00917	  3.18163	710.23999	 22.70	
  8.500	-90.000	  3.10282	  1.32421	  1.21235	  0.50010	  2.14011	 -0.01363	  3.18053	710.16998	 22.70	
  8.510	-101.220	  3.09945	  1.16173	  1.37574	  0.50584	  2.12743	 -0.01636	  3.17722	710.20001	 22.70	
  8.492	-112.575	  3.10297	  1.00896	  1.54820	  0.54499	  2.07881	 -0.01701	  3.17809	710.28003	 22.70	
  8.487	-123.723	  3.10139	  0.87356	  1.70400	  0.60736	  1.99664	 -0.01832	  3.17629	710.17999	 22.70	
  8.495	-135.039	  3.10335	  0.75612	  1.84786	  0.69310	  1.88550	 -0.01723	  3.17821	710.23999	 22.70	
  8.494	-146.194	  3.10156	  0.65871	  1.96769	  0.79996	  1.75352	 -0.01575	  3.17754	710.10999	 22.70	
  8.502	-157.493	  3.10040	  0.58602	  2.06145	  0.93410	  1.59387	 -0.01442	  3.17802	710.22998	 22.70	
  8.491	-168.704	  3.09698	  0.54068	  2.11767	  1.08020	  1.42956	 -0.01637	  3.17530	710.27002	 22.70	
  8.500	180.000	  3.09533	  0.52185	  2.14376	  1.23565	  1.26564	 -0.01891	  3.17724	710.21997	 22.70	
 10.200	180.000	  3.04679	  0.33760	  2.28338	  1.18933	  1.22687	 -0.04354	  3.17534	710.09998	 22.70	
 10.191	-170.497	  3.05126	  0.35022	  2.26529	  1.03006	  1.39268	 -0.04754	  3.17949	710.15002	 22.60	
 10.210	-161.034	  3.04974	  0.38680	  2.21414	  0.87464	  1.56334	 -0.04303	  3.17746	710.21997	 22.60	
 10.194	-151.526	  3.05485	  0.45100	  2.13244	  0.73865	  1.72882	 -0.04002	  3.18048	710.23999	 22.70	
 10.190	-142.105	  3.05504	  0.53281	  2.02476	  0.61997	  1.87388	 -0.04052	  3.17922	710.21002	 22.60	
 10.215	-132.646	  3.05210	  0.63013	  1.89567	  0.51069	  2.00976	 -0.04186	  3.17746	710.28003	 22.60	
 10.203	-123.092	  3.05488	  0.75260	  1.74735	  0.42786	  2.12232	 -0.04119	  3.18087	710.16998	 22.60	
 10.192	-113.678	  3.05293	  0.88966	  1.58545	  0.36968	  2.20313	 -0.03961	  3.17764	710.23999	 22.60	
 10.208	-104.249	  3.04999	  1.03740	  1.41694	  0.32572	  2.25976	 -0.04012	  3.17740	710.21997	 22.60	
 10.210	-94.801	  3.04794	  1.19917	  1.24368	  0.30614	  2.28531	 -0.03995	  3.17729	710.14001	 22.60	
 10.210	-85.199	  3.04729	  1.36773	  1.07517	  0.31254	  2.27665	 -0.03632	  3.17719	710.13000	 22.60	
 10.208	-75.751	  3.04565	  1.53145	  0.91922	  0.33499	  2.23974	 -0.03341	  3.17649	710.13000	 22.60	
 10.192	-66.322	  3.04701	  1.69950	  0.77097	  0.38497	  2.17217	 -0.03075	  3.17854	710.15997	 22.60	
 10.203	-56.908	  3.04454	  1.85158	  0.64330	  0.45268	  2.07830	 -0.02875	  3.17912	710.22998	 22.60	
 10.215	-47.354	  3.04237	  1.99627	  0.52789	  0.54709	  1.95232	 -0.02428	  3.17769	710.12000	 22.60	
 10.190	-37.895	  3.04311	  2.11577	  0.43648	  0.65737	  1.81131	 -0.02016	  3.17915	710.14001	 22.60	
 10.194	-28.474	  3.04106	  2.21445	  0.36175	  0.78073	  1.65764	 -0.01476	  3.18129	710.09003	 22.60	
 10.210	-18.966	  3.03708	  2.28321	  0.30951	  0.92603	  1.48742	 -0.00737	  3.17819	710.15997	 22.60	
 10.191	 -9.503	  3.03505	  2.32139	  0.28353	  1.08354	  1.31632	 -0.00232	  3.17542	710.09998	 22.60	
 10.200	  0.000	  3.03642	  2.33306	  0.27798	  1.24662	  1.15271	  0.00102	  3.17980	710.16998	 22.60	
 10.191	  9.503	  3.03293	  2.30910	  0.28967	  1.41734	  0.98290	  0.00610	  3.17692	710.09998	 22.60	
 10.210	 18.966	  3.03300	  2.25827	  0.32420	  1.58601	  0.83006	  0.00918	  3.17931	710.02002	 22.60	
 10.194	 28.474	  3.03222	  2.17541	  0.38396	  1.74610	  0.69462	  0.01047	  3.17788	710.07001	 22.60	
 10.190	 37.895	  3.03181	  2.06721	  0.46635	  1.89463	  0.57727	  0.00784	  3.17672	710.12000	 22.60	
 10.215	 47.354	  3.02882	  1.93606	  0.56368	  2.02854	  0.47175	  0.00205	  3.17475	710.02002	 22.60	
 10.203	 56.908	  3.02971	  1.78903	  0.68334	  2.13993	  0.39008	 -0.00209	  3.17597	710.03003	 22.60	
 10.192	 66.322	  3.03437	  1.63337	  0.82382	  2.22472	  0.33677	 -0.00226	  3.17834	710.08002	 22.60	
 10.208	 75.751	  3.03375	  1.46594	  0.97249	  2.28103	  0.29562	 -0.00612	  3.17740	710.09998	 22.60	
 10.210	 85.199	  3.03384	  1.29743	  1.13284	  2.30600	  0.27787	 -0.01264	  3.17565	709.97998	 22.60	
 10.210	 94.801	  3.03389	  1.13002	  1.30436	  2.30208	  0.28039	 -0.01935	  3.17616	710.00000	 22.60	
 10.208	104.249	  3.03567	  0.97258	  1.47239	  2.26594	  0.30525	 -0.02157	  3.17738	710.08002	 22.60	
 10.192	113.678	  3.03852	  0.82837	  1.63975	  2.19976	  0.35486	 -0.02289	  3.17659	710.08002	 22.60	
 10.203	123.092	  3.03897	  0.70209	  1.79533	  2.10843	  0.42369	 -0.02732	  3.17729	710.14001	 22.60	
 10.215	132.646	  3.04241	  0.58516	  1.94199	  1.99089	  0.51349	 -0.03457	  3.17890	710.10999	 22.60	
 10.190	142.105	  3.04089	  0.49349	  2.06383	  1.84606	  0.62821	 -0.03793	  3.17589	710.02002	 22.60	
 10.194	151.526	  3.04298	  0.41967	  2.16259	  1.69209	  0.75707	 -0.03765	  3.17769	710.06000	 22.60	
 10.210	161.034	  3.04428	  0.36743	  2.23672	  1.52954	  0.90092	 -0.03825	  3.17672	710.08002	 22.60	
 10.191	170.497	  3.04798	  0.34319	  2.27654	  1.36047	  1.06033	 -0.04097	  3.17788	710.15002	 22.60	
 11.899	171.783	  2.98716	  0.15445	  2.41172	  1.30279	  1.01486	 -0.06846	  3.17591	710.14001	 22.60	
 11.890	163.610	  2.98413	  0.17721	  2.37347	  1.47345	  0.85092	 -0.06763	  3.17645	710.04999	 22.60	
 11.889	155.445	  2.98372	  0.22120	  2.31217	  1.63992	  0.70464	 -0.06795	  3.17597	710.19000	 22.60	
 11.909	147.299	  2.97922	  0.27887	  2.22500	  1.80257	  0.56611	 -0.06855	  3.17525	710.10999	 22.60	
 11.902	139.148	  2.97810	  0.35487	  2.11577	  1.95415	  0.44259	 -0.06935	  3.17680	710.15002	 22.60	
 11.894	130.867	  2.97775	  0.45513	  1.98229	  2.09175	  0.33952	 -0.06700	  3.17609	710.06000	 22.60	
 11.897	122.732	  2.97778	  0.56821	  1.83693	  2.20571	  0.25678	 -0.06093	  3.17787	710.07001	 22.60	
 11.903	114.597	  2.97603	  0.69528	  1.67940	  2.30348	  0.18567	 -0.05656	  3.17728	710.10999	 22.60	
 11.893	106.346	  2.97739	  0.83796	  1.51266	  2.37685	  0.13660	 -0.05530	  3.17872	710.04999	 22.60	
 11.892	 98.155	  2.97400	  0.99297	  1.33676	  2.42032	  0.10488	 -0.05159	  3.17584	710.03003	 22.60	
 11.900	 90.000	  2.96937	  1.15194	  1.16691	  2.44047	  0.08788	 -0.05199	  3.17370	710.03998	 22.60	
 11.892	 81.845	  2.97018	  1.32077	  1.00252	  2.43088	  0.09574	 -0.04698	  3.17526	709.96002	 22.60	
 11.893	 73.654	  2.96991	  1.49291	  0.84012	  2.39786	  0.11527	 -0.04007	  3.17808	709.98999	 22.60	
 11.903	 65.403	  2.96836	  1.65846	  0.69342	  2.33560	  0.15537	 -0.03538	  3.17634	709.96002	 22.60	
 11.897	 57.268	  2.97034	  1.82041	  0.56235	  2.24777	  0.21914	 -0.03411	  3.17767	710.06000	 22.50	
 11.894	 49.133	  2.97001	  1.96725	  0.44638	  2.14065	  0.29716	 -0.02891	  3.17739	709.92999	 22.50	
 11.902	 40.852	  2.96686	  2.10750	  0.33520	  2.01084	  0.38638	 -0.02568	  3.17765	710.10999	 22.50	
 11.909	 32.701	  2.96666	  2.22819	  0.24593	  1.86246	  0.50076	 -0.01925	  3.17708	709.96002	 22.50	
 11.889	 24.555	  2.96934	  2.32165	  0.18369	  1.70365	  0.63127	 -0.01501	  3.17685	710.03998	 22.50	
 11.890	 16.390	  2.97053	  2.39638	  0.13252	  1.54083	  0.76914	 -0.02007	  3.17802	710.02002	 22.50	
 11.899	  8.217	  2.96926	  2.43806	  0.10440	  1.37067	  0.92171	 -0.02314	  3.17538	710.09003	 22.50	
 11.900	  0.000	  2.96930	  2.46002	  0.08791	  1.19593	  1.08794	 -0.02480	  3.17578	709.96997	 22.50	
 11.899	 -8.217	  2.96891	  2.45150	  0.09472	  1.03244	  1.25544	 -0.02766	  3.17256	710.00000	 22.50	
 11.890	-16.390	  2.97184	  2.41780	  0.12021	  0.87445	  1.43173	 -0.03233	  3.17591	710.03003	 22.50	
 11.889	-24.555	  2.97397	  2.35696	  0.16111	  0.72449	  1.60187	 -0.03795	  3.17546	710.01001	 22.50	
 11.909	-32.701	  2.97544	  2.27452	  0.21931	  0.59113	  1.76310	 -0.04343	  3.17598	710.04999	 22.50	
 11.902	-40.852	  2.97784	  2.16782	  0.29953	  0.47216	  1.91898	 -0.05016	  3.17686	709.96997	 22.50	
 11.894	-49.133	  2.97907	  2.03542	  0.39801	  0.36816	  2.05940	 -0.05032	  3.17417	710.00000	 22.50	
 11.897	-57.268	  2.97953	  1.89129	  0.51128	  0.28254	  2.17799	 -0.05049	  3.17482	710.12000	 22.50	
 11.903	-65.403	  2.98183	  1.73676	  0.63833	  0.21530	  2.27498	 -0.05052	  3.17350	710.09998	 22.50	
 11.893	-73.654	  2.98436	  1.57018	  0.78513	  0.16667	  2.34982	 -0.05384	  3.17610	710.00000	 22.50	
 11.892	-81.845	  2.98693	  1.40055	  0.94250	  0.13491	  2.39937	 -0.05389	  3.17792	710.03003	 22.50	
 11.900	-90.000	  2.98907	  1.23509	  1.10422	  0.12332	  2.42044	 -0.05292	  3.17747	710.09003	 22.50	
 11.892	-98.155	  2.98851	  1.06997	  1.27120	  0.13019	  2.40928	 -0.05521	  3.17540	710.03003	 22.50	
 11.893	-106.346	  2.98915	  0.91120	  1.44521	  0.15187	  2.37656	 -0.05692	  3.17593	710.06000	 22.50	
 11.903	-114.597	  2.98975	  0.76032	  1.61742	  0.19194	  2.31872	 -0.05857	  3.17706	710.12000	 22.50	
 11.897	-122.732	  2.98693	  0.62587	  1.77610	  0.25008	  2.23244	 -0.06170	  3.17488	710.06000	 22.50	
 11.894	-130.867	  2.99106	  0.50645	  1.92949	  0.33083	  2.12142	 -0.06250	  3.17732	710.04999	 22.50	
 11.902	-139.148	  2.99186	  0.40078	  2.07076	  0.43082	  1.99145	 -0.06132	  3.17847	710.10999	 22.50	
 11.909	-147.299	  2.99050	  0.31395	  2.18723	  0.54394	  1.84351	 -0.06059	  3.17789	709.98999	 22.50	
 11.889	-155.445	  2.98982	  0.24611	  2.28202	  0.67108	  1.68852	 -0.06622	  3.17529	710.06000	 22.50	
 11.890	-163.610	  2.98961	  0.19451	  2.35492	  0.81528	  1.52061	 -0.06849	  3.17638	710.10999	 22.50	
 11.899	-171.783	  2.98983	  0.16187	  2.40281	  0.96843	  1.35059	 -0.07436	  3.17823	710.03998	 22.50	
 11.900	180.000	  2.98742	  0.14788	  2.42044	  1.12988	  1.18218	 -0.07635	  3.17757	710.08002	 22.50	
 13.600	180.000	  2.91619	 -0.03478	  2.54544	  1.06675	  1.12663	 -0.09763	  3.17564	710.04999	 22.50	
 13.608	-172.853	  2.91649	 -0.02732	  2.53081	  0.90479	  1.29202	 -0.09743	  3.17708	710.06000	 22.50	
 13.611	-165.583	  2.91663	  0.00357	  2.48680	  0.74669	  1.46793	 -0.09196	  3.17513	710.09003	 22.50	
 13.601	-158.353	  2.91852	  0.04747	  2.42009	  0.60105	  1.63812	 -0.08643	  3.17560	710.09003	 22.50	
 13.609	-151.210	  2.91747	  0.10730	  2.33187	  0.47168	  1.79745	 -0.08061	  3.17440	710.10999	 22.50	
 13.611	-143.999	  2.91972	  0.18248	  2.22593	  0.35092	  1.95574	 -0.07987	  3.17648	710.13000	 22.50	
 13.601	-136.825	  2.91734	  0.27273	  2.09685	  0.24468	  2.09504	 -0.07602	  3.17387	710.02002	 22.50	
 13.596	-129.640	  2.91760	  0.37926	  1.95670	  0.15833	  2.22110	 -0.07409	  3.17429	710.03003	 22.50	
 13.611	-122.431	  2.91744	  0.49835	  1.80259	  0.08156	  2.33178	 -0.07076	  3.17711	709.96997	 22.50	
 13.604	-115.211	  2.91936	  0.63366	  1.63919	  0.02210	  2.42112	 -0.07092	  3.17883	710.08002	 22.50	
 13.595	-108.042	  2.91571	  0.77591	  1.46816	 -0.02131	  2.48444	 -0.06906	  3.17641	710.03998	 22.50	
 13.607	-100.793	  2.91515	  0.93108	  1.29378	 -0.04877	  2.52629	 -0.06866	  3.17556	710.07001	 22.50	
 13.601	-93.617	  2.91310	  1.09355	  1.12089	 -0.06243	  2.54504	 -0.06704	  3.17575	710.20001	 22.50	
 13.601	-86.383	  2.91091	  1.25927	  0.95502	 -0.05920	  2.53770	 -0.06702	  3.17372	709.96002	 22.50	
 13.607	-79.207	  2.91075	  1.43096	  0.79333	 -0.04012	  2.50691	 -0.06630	  3.17568	709.96002	 22.50	
 13.595	-71.958	  2.90973	  1.59991	  0.64461	 -0.00379	  2.45009	 -0.06825	  3.17526	710.01001	 22.50	
 13.604	-64.789	  2.91079	  1.76588	  0.50701	  0.04668	  2.37631	 -0.06688	  3.17709	710.03003	 22.50	
 13.611	-57.569	  2.90854	  1.92255	  0.37984	  0.11052	  2.27685	 -0.06822	  3.17682	710.01001	 22.50	
 13.596	-50.360	  2.90617	  2.07177	  0.26619	  0.19268	  2.15657	 -0.06822	  3.17620	709.95001	 22.50	
 13.601	-43.175	  2.90251	  2.20469	  0.16676	  0.28935	  2.01862	 -0.06782	  3.17467	710.00000	 22.50	
 13.611	-36.001	  2.90303	  2.32171	  0.08384	  0.40271	  1.86848	 -0.06556	  3.17788	710.10999	 22.50	
 13.609	-28.790	  2.90180	  2.41847	  0.01846	  0.52924	  1.70820	 -0.06502	  3.17603	710.09998	 22.50	
 13.601	-21.647	  2.89729	  2.49234	 -0.03412	  0.66489	  1.53806	 -0.05987	  3.17489	710.01001	 22.50	
 13.611	-14.417	  2.89753	  2.54838	 -0.07280	  0.81710	  1.36313	 -0.05753	  3.17538	710.10999	 22.50	
 13.608	 -7.147	  2.89449	  2.57700	 -0.09241	  0.97596	  1.18922	 -0.05647	  3.17461	709.95001	 22.50	
 13.600	  0.000	  2.89382	  2.58364	 -0.09714	  1.13906	  1.02371	 -0.05274	  3.17402	710.04999	 22.50	
 13.608	  7.147	  2.89367	  2.56320	 -0.08202	  1.30845	  0.86242	 -0.05272	  3.17564	710.02002	 22.50	
 13.611	 14.417	  2.89422	  2.52154	 -0.05563	  1.48276	  0.70381	 -0.04974	  3.17647	710.03003	 22.50	
 13.601	 21.647	  2.89303	  2.45445	 -0.01291	  1.65077	  0.56008	 -0.04850	  3.17544	710.00000	 22.50	
 13.609	 28.790	  2.89539	  2.36663	  0.04817	  1.81626	  0.42944	 -0.05029	  3.17757	709.96002	 22.50	
 13.611	 36.001	  2.89212	  2.26177	  0.11664	  1.97109	  0.30797	 -0.05347	  3.17557	710.01001	 22.50	
 13.601	 43.175	  2.89325	  2.13788	  0.20983	  2.10784	  0.21264	 -0.05815	  3.17502	710.14001	 22.50	
 13.596	 50.360	  2.89498	  1.99412	  0.31404	  2.23745	  0.11856	 -0.06727	  3.17748	710.02002	 22.50	
 13.611	 57.569	  2.89312	  1.84348	  0.42785	  2.34461	  0.04374	 -0.06845	  3.17568	709.87000	 22.50	
 13.604	 64.789	  2.89400	  1.67546	  0.56656	  2.43577	 -0.01373	 -0.07189	  3.17577	709.85999	 22.50	
 13.595	 71.958	  2.89747	  1.50860	  0.70864	  2.50660	 -0.05968	 -0.07564	  3.17994	709.91998	 22.50	
 13.607	 79.207	  2.89800	  1.33983	  0.86276	  2.55078	 -0.08700	 -0.07997	  3.17810	709.98999	 22.50	
 13.601	 86.383	  2.90080	  1.16997	  1.02615	  2.57113	 -0.09880	 -0.08486	  3.17911	710.09003	 22.50	
 13.601	 93.617	  2.90059	  1.00518	  1.19805	  2.56252	 -0.08972	 -0.08609	  3.17730	710.14001	 22.50	
 13.607	100.793	  2.90024	  0.84390	  1.36869	  2.53392	 -0.07413	 -0.08959	  3.17728	710.02002	 22.50	
 13.595	108.042	  2.90094	  0.69677	  1.54109	  2.47583	 -0.03262	 -0.08966	  3.17575	710.09003	 22.40	
 13.604	115.211	  2.90005	  0.55912	  1.70426	  2.39954	  0.01565	 -0.09120	  3.17414	710.04999	 22.50	
 13.611	122.431	  2.90268	  0.43170	  1.86786	  2.30264	  0.08325	 -0.09695	  3.17672	710.06000	 22.50	
 13.596	129.640	  2.90133	  0.31769	  2.01760	  2.18129	  0.16581	 -0.10128	  3.17327	710.01001	 22.40	
 13.601	136.825	  2.90830	  0.22237	  2.15582	  2.05233	  0.26373	 -0.10274	  3.17734	710.09003	 22.50	
 13.611	143.999	  2.90650	  0.13871	  2.27418	  1.90558	  0.37534	 -0.10157	  3.17513	710.09003	 22.50	
 13.609	151.210	  2.90894	  0.07322	  2.37219	  1.74600	  0.50413	 -0.10044	  3.17714	710.12000	 22.50	
 13.601	158.353	  2.90886	  0.02052	  2.45096	  1.57777	  0.64548	 -0.09708	  3.17555	710.13000	 22.40	
 13.611	165.583	  2.90968	 -0.01420	  2.50654	  1.40773	  0.79453	 -0.09814	  3.17471	710.01001	 22.50	
 13.608	172.853	  2.91279	 -0.02982	  2.53736	  1.23411	  0.95881	 -0.09772	  3.17536	710.08002	 22.40	
 15.298	173.587	  2.83297	 -0.20852	  2.65177	  1.16459	  0.89836	 -0.11714	  3.17534	710.08002	 22.40	
 15.291	167.167	  2.83193	 -0.18966	  2.62416	  1.33623	  0.74113	 -0.11850	  3.17677	709.96002	 22.40	
 15.307	160.676	  2.83236	 -0.16273	  2.57758	  1.50745	  0.58731	 -0.12438	  3.17818	709.96997	 22.40	
 15.300	154.261	  2.82598	 -0.12178	  2.50662	  1.67465	  0.44363	 -0.12898	  3.17638	710.08002	 22.40	
 15.288	147.854	  2.82454	 -0.06397	  2.41493	  1.83992	  0.31163	 -0.13243	  3.17513	709.98999	 22.40	
 15.293	141.428	  2.82363	  0.00669	  2.30548	  1.99184	  0.19533	 -0.13509	  3.17432	710.03998	 22.40	
 15.299	134.985	  2.82173	  0.09110	  2.17904	  2.13872	  0.08830	 -0.13524	  3.17476	710.12000	 22.40	
 15.305	128.583	  2.82112	  0.18491	  2.04271	  2.27116	 -0.00560	 -0.13357	  3.17524	710.07001	 22.40	
 15.309	122.142	  2.82006	  0.29692	  1.89025	  2.38692	 -0.08297	 -0.13026	  3.17525	710.07001	 22.40	
 15.304	115.711	  2.82072	  0.41990	  1.72776	  2.48723	 -0.14854	 -0.12787	  3.17720	710.00000	 22.40	
 15.297	109.291	  2.81895	  0.55519	  1.56106	  2.56501	 -0.19781	 -0.12517	  3.17708	709.95001	 22.40	
 15.293	102.897	  2.81595	  0.69902	  1.39014	  2.61990	 -0.23337	 -0.12607	  3.17358	710.02002	 22.40	
 15.293	 96.458	  2.81762	  0.85274	  1.22058	  2.65950	 -0.25496	 -0.12529	  3.17564	709.96997	 22.40	
 15.300	 90.000	  2.81535	  1.01435	  1.04860	  2.67785	 -0.26932	 -0.12657	  3.17652	709.94000	 22.40	
 15.293	 83.542	  2.81578	  1.18149	  0.88480	  2.67284	 -0.26364	 -0.11916	  3.17807	709.98999	 22.40	
 15.293	 77.103	  2.81367	  1.35227	  0.72265	  2.64500	 -0.25168	 -0.11741	  3.17689	710.04999	 22.40	
 15.297	 70.709	  2.81024	  1.52056	  0.57382	  2.59502	 -0.22186	 -0.11052	  3.17404	709.96997	 22.50	
 15.304	 64.289	  2.80813	  1.68598	  0.43256	  2.52831	 -0.18212	 -0.10961	  3.17552	710.00000	 22.40	
 15.309	 57.858	  2.80505	  1.84772	  0.30285	  2.43780	 -0.12712	 -0.10583	  3.17357	709.94000	 22.40	
 15.305	 51.417	  2.80663	  2.00546	  0.18502	  2.33124	 -0.05737	 -0.10132	  3.17408	710.07001	 22.40	
 15.299	 45.015	  2.80938	  2.15119	  0.08257	  2.20595	  0.02918	 -0.09579	  3.17719	710.00000	 22.40	
 15.293	 38.572	  2.80905	  2.27994	 -0.00564	  2.06958	  0.12412	 -0.08653	  3.17510	709.97998	 22.40	
 15.288	 32.146	  2.80747	  2.39753	 -0.08618	  1.92022	  0.22833	 -0.08407	  3.17725	710.02002	 22.40	
 15.300	 25.739	  2.80587	  2.50026	 -0.15447	  1.75923	  0.34906	 -0.07929	  3.17472	710.07001	 22.40	
 15.307	 19.324	  2.80704	  2.58144	 -0.20448	  1.59197	  0.48498	 -0.07843	  3.17693	710.01001	 22.40	
 15.291	 12.833	  2.80868	  2.63926	 -0.23810	  1.42315	  0.63181	 -0.07642	  3.17664	709.96997	 22.40	
 15.298	  6.413	  2.80732	  2.67702	 -0.26023	  1.24799	  0.78914	 -0.07994	  3.17357	710.03003	 22.40	
 15.300	  0.000	  2.80950	  2.69542	 -0.27390	  1.07723	  0.95094	 -0.07814	  3.17542	709.96997	 22.40	
 15.298	 -6.413	  2.80984	  2.69123	 -0.26938	  0.91807	  1.11389	 -0.07506	  3.17562	710.03003	 22.40	
 15.291	-12.833	  2.81409	  2.66914	 -0.25296	  0.75861	  1.29105	 -0.07849	  3.17761	710.03998	 22.40	
 15.307	-19.324	  2.81378	  2.62016	 -0.22406	  0.60165	  1.46691	 -0.07908	  3.17661	710.07001	 22.40	
 15.300	-25.739	  2.81676	  2.55268	 -0.18051	  0.46478	  1.63398	 -0.08069	  3.17748	710.14001	 22.40	
 15.288	-32.146	  2.81510	  2.46117	 -0.12313	  0.33560	  1.79858	 -0.08385	  3.17398	710.10999	 22.40	
 15.293	-38.572	  2.81561	  2.35204	 -0.04940	  0.21544	  1.95967	 -0.08465	  3.17450	710.13000	 22.40	
 15.299	-45.015	  2.81712	  2.23168	  0.03159	  0.11350	  2.10412	 -0.08374	  3.17356	710.21997	 22.40	
 15.305	-51.417	  2.82023	  2.09551	  0.13044	  0.02372	  2.23713	 -0.07920	  3.17465	710.13000	 22.40	
 15.309	-57.858	  2.82110	  1.94666	  0.24096	 -0.05680	  2.35963	 -0.08076	  3.17544	709.96997	 22.40	
 15.304	-64.289	  2.81966	  1.78326	  0.36639	 -0.12188	  2.45943	 -0.07770	  3.17133	710.16998	 22.40	
 15.297	-70.709	  2.82286	  1.61934	  0.50225	 -0.16932	  2.54086	 -0.07690	  3.17235	710.07001	 22.40	
 15.293	-77.103	  2.82690	  1.45395	  0.64899	 -0.20570	  2.60331	 -0.07711	  3.17651	710.16998	 22.40	
 15.293	-83.542	  2.82887	  1.28020	  0.80777	 -0.22772	  2.64345	 -0.07268	  3.17597	710.13000	 22.40	
 15.300	-90.000	  2.82816	  1.11354	  0.97036	 -0.23690	  2.65964	 -0.07552	  3.17444	710.08002	 22.40	
 15.293	-96.458	  2.82894	  0.94900	  1.13919	 -0.23361	  2.65356	 -0.07146	  3.17433	710.15997	 22.40	
 15.293	-102.897	  2.83137	  0.79136	  1.31055	 -0.21629	  2.62850	 -0.07274	  3.17467	710.07001	 22.40	
 15.297	-109.291	  2.83249	  0.64119	  1.48142	 -0.18986	  2.58282	 -0.07260	  3.17566	710.06000	 22.40	
 15.304	-115.711	  2.83460	  0.50252	  1.64969	 -0.14404	  2.51171	 -0.07534	  3.17561	710.10999	 22.40	
 15.309	-122.142	  2.83639	  0.37040	  1.81822	 -0.08709	  2.42566	 -0.07623	  3.17578	710.09998	 22.40	
 15.305	-128.583	  2.83640	  0.25583	  1.97285	 -0.01470	  2.31644	 -0.08176	  3.17490	710.10999	 22.40	
 15.299	-134.985	  2.83704	  0.14976	  2.11659	  0.06859	  2.19186	 -0.08249	  3.17335	710.03003	 22.40	
 15.293	-141.428	  2.83673	  0.05747	  2.24812	  0.16444	  2.05471	 -0.08529	  3.17506	709.97998	 22.40	
 15.288	-147.854	  2.83976	 -0.02141	  2.36812	  0.27769	  1.90472	 -0.08815	  3.17753	710.13000	 22.40	
 15.300	-154.261	  2.83731	 -0.08765	  2.46635	  0.40199	  1.74140	 -0.09359	  3.17477	710.10999	 22.40	
 15.307	-160.676	  2.83818	 -0.13802	  2.54544	  0.53161	  1.58152	 -0.10303	  3.17632	709.97998	 22.40	
 15.291	-167.167	  2.83975	 -0.17388	  2.60409	  0.68402	  1.40660	 -0.10835	  3.17761	710.10999	 22.40	
 15.298	-173.587	  2.83620	 -0.19836	  2.64109	  0.83770	  1.23520	 -0.11130	  3.17553	710.02002	 22.40	
 15.300	180.000	  2.83586	 -0.20896	  2.65682	  0.99724	  1.06560	 -0.11526	  3.17563	710.00000	 22.40	
 17.000	180.000	  2.74581	 -0.37414	  2.76095	  0.92638	  1.00426	 -0.12812	  3.17622	710.04999	 22.40	
 16.990	-174.179	  2.74581	 -0.36731	  2.74638	  0.76958	  1.16604	 -0.12548	  3.17530	709.95001	 22.40	
 17.009	-168.383	  2.74516	 -0.34789	  2.71267	  0.61039	  1.34023	 -0.11688	  3.17513	709.96002	 22.40	
 17.000	-162.596	  2.74941	 -0.31207	  2.65919	  0.46876	  1.51274	 -0.11451	  3.17833	709.84998	 22.40	
 16.990	-156.759	  2.74699	 -0.26900	  2.58484	  0.33310	  1.67677	 -0.10690	  3.17535	709.91998	 22.40	
 16.995	-150.919	  2.74774	 -0.21252	  2.49478	  0.20479	  1.84383	 -0.10157	  3.17556	709.96997	 22.40	
 16.988	-145.161	  2.74694	 -0.14546	  2.38722	  0.09299	  1.99830	 -0.09712	  3.17536	710.03998	 22.40	
 17.014	-139.343	  2.74910	 -0.06554	  2.26961	 -0.00643	  2.14504	 -0.09510	  3.17799	710.03998	 22.40	
 17.007	-133.546	  2.74594	  0.02681	  2.13119	 -0.09681	  2.27794	 -0.08919	  3.17461	710.03998	 22.40	
 17.001	-127.699	  2.74263	  0.12876	  1.98143	 -0.18168	  2.40148	 -0.08677	  3.17558	709.98999	 22.40	
 17.006	-121.937	  2.74131	  0.24372	  1.82626	 -0.24626	  2.50612	 -0.08225	  3.17510	709.96997	 22.40	
 17.002	-116.134	  2.74066	  0.37001	  1.66179	 -0.30148	  2.59405	 -0.07917	  3.17511	709.85999	 22.40	
 17.001	-110.310	  2.73957	  0.50989	  1.49072	 -0.34198	  2.66615	 -0.07777	  3.17556	709.85999	 22.40	
 16.988	-104.517	  2.74079	  0.65654	  1.32020	 -0.37180	  2.71595	 -0.07512	  3.17613	709.94000	 22.40	
 17.008	-98.662	  2.73720	  0.81100	  1.14773	 -0.39252	  2.74939	 -0.07768	  3.17406	710.01001	 22.40	
 16.996	-92.909	  2.73623	  0.96916	  0.97934	 -0.40166	  2.76137	 -0.07714	  3.17486	710.00000	 22.40	
 16.996	-87.091	  2.73467	  1.13369	  0.81457	 -0.39909	  2.75549	 -0.07676	  3.17488	709.96997	 22.40	
 17.012	-81.253	  2.73164	  1.30149	  0.65569	 -0.38646	  2.73033	 -0.07673	  3.17420	710.04999	 22.40	
 16.988	-75.483	  2.73228	  1.47261	  0.50474	 -0.35961	  2.68414	 -0.08171	  3.17485	710.09998	 22.40	
 17.001	-69.690	  2.73120	  1.63922	  0.36300	 -0.32568	  2.62287	 -0.08221	  3.17732	709.98999	 22.40	
 17.002	-63.866	  2.72875	  1.80141	  0.23279	 -0.27671	  2.54005	 -0.08807	  3.17609	710.00000	 22.40	
 17.006	-58.063	  2.72602	  1.96031	  0.10761	 -0.21893	  2.43780	 -0.08609	  3.17790	710.00000	 22.40	
 17.001	-52.301	  2.72576	  2.10943	  0.00311	 -0.14403	  2.31934	 -0.08887	  3.17655	709.97998	 22.40	
 17.007	-46.454	  2.72337	  2.25084	 -0.09676	 -0.05800	  2.18379	 -0.08850	  3.17682	709.95001	 22.40	
 17.014	-40.657	  2.72134	  2.37804	 -0.18195	  0.03721	  2.04227	 -0.09341	  3.17581	709.92999	 22.40	
 16.988	-34.839	  2.72148	  2.49130	 -0.25204	  0.14726	  1.88704	 -0.09403	  3.17623	709.96997	 22.40	
 16.995	-29.081	  2.71891	  2.58671	 -0.31341	  0.26794	  1.72446	 -0.09593	  3.17452	709.94000	 22.40	
 16.990	-23.241	  2.71986	  2.66753	 -0.36074	  0.40237	  1.55589	 -0.09677	  3.17677	709.91998	 22.40	
 17.000	-17.404	  2.71730	  2.72910	 -0.40190	  0.53920	  1.38378	 -0.09756	  3.17713	709.95001	 22.40	
 17.009	-11.617	  2.71790	  2.77240	 -0.42581	  0.69053	  1.21339	 -0.09983	  3.17804	709.98999	 22.40	
 16.990	 -5.821	  2.71870	  2.79585	 -0.43764	  0.84991	  1.04275	 -0.10231	  3.17910	709.96997	 22.40	
 17.000	  0.000	  2.71598	  2.79707	 -0.44079	  1.01008	  0.87817	 -0.10378	  3.17691	709.96997	 22.40	
 16.990	  5.821	  2.71701	  2.78022	 -0.42749	  1.18161	  0.71570	 -0.10395	  3.17775	710.07001	 22.40	
 17.009	 11.617	  2.71558	  2.74501	 -0.40769	  1.35319	  0.56085	 -0.10668	  3.17792	710.00000	 22.40	
 17.000	 17.404	  2.71671	  2.69200	 -0.37480	  1.52293	  0.41814	 -0.10979	  3.17960	709.97998	 22.40	
 16.990	 23.241	  2.71332	  2.61373	 -0.32910	  1.69050	  0.28168	 -0.10942	  3.17567	710.01001	 22.40	
 16.995	 29.081	  2.71323	  2.52389	 -0.27963	  1.85665	  0.15387	 -0.11696	  3.17866	710.10999	 22.40	
 16.988	 34.839	  2.71577	  2.41782	 -0.20931	  2.00847	  0.04793	 -0.12269	  3.17816	710.07001	 22.30	
 17.014	 40.657	  2.71581	  2.29428	 -0.13042	  2.15712	 -0.05677	 -0.13139	  3.17878	710.12000	 22.40	
 17.007	 46.454	  2.71476	  2.15567	 -0.03451	  2.29207	 -0.14270	 -0.13706	  3.17589	710.04999	 22.30	
 17.001	 52.301	  2.71474	  2.00829	  0.06822	  2.41389	 -0.21936	 -0.14280	  3.17623	710.06000	 22.40	
 17.006	 58.063	  2.71724	  1.85641	  0.18157	  2.51896	 -0.28187	 -0.14774	  3.17845	710.17999	 22.30	
 17.002	 63.866	  2.71567	  1.69029	  0.30593	  2.60696	 -0.33725	 -0.14975	  3.17530	710.13000	 22.30	
 17.001	 69.690	  2.72034	  1.52294	  0.44666	  2.68055	 -0.37654	 -0.15328	  3.17796	710.08002	 22.30	
 16.988	 75.483	  2.72188	  1.35629	  0.59117	  2.73112	 -0.40462	 -0.15446	  3.17750	710.07001	 22.30	
 17.012	 81.253	  2.72033	  1.18594	  0.74471	  2.76517	 -0.42575	 -0.15792	  3.17632	710.03998	 22.30	
 16.996	 87.091	  2.72073	  1.01811	  0.90684	  2.77544	 -0.43101	 -0.16201	  3.17337	709.97998	 22.30	
 16.996	 92.909	  2.72247	  0.85686	  1.07026	  2.77230	 -0.42828	 -0.16534	  3.17398	710.09003	 22.30	
 17.008	 98.662	  2.72134	  0.70220	  1.23597	  2.74905	 -0.41653	 -0.16619	  3.17398	710.06000	 22.40	
 16.988	104.517	  2.72625	  0.55182	  1.41080	  2.70262	 -0.38741	 -0.16522	  3.17554	710.09998	 22.30	
 17.001	110.310	  2.72853	  0.41417	  1.57966	  2.64277	 -0.35121	 -0.16728	  3.17653	710.13000	 22.30	
 17.002	116.134	  2.72852	  0.28515	  1.74590	  2.55851	 -0.29924	 -0.16364	  3.17594	710.14001	 22.30	
 17.006	121.937	  2.72891	  0.16385	  1.90671	  2.46129	 -0.24010	 -0.16874	  3.17794	710.07001	 22.30	
 17.001	127.699	  2.72990	  0.05914	  2.05450	  2.34863	 -0.16841	 -0.16806	  3.17667	710.19000	 22.30	
 17.007	133.546	  2.73041	 -0.03890	  2.19980	  2.21850	 -0.08117	 -0.16898	  3.17684	709.97998	 22.30	
 17.014	139.343	  2.73021	 -0.12416	  2.33057	  2.07426	  0.01899	 -0.16400	  3.17495	710.03003	 22.30	
 16.988	145.161	  2.73622	 -0.19251	  2.44847	  1.92336	  0.13265	 -0.16306	  3.17844	710.04999	 22.30	
 16.995	150.919	  2.73434	 -0.25468	  2.54367	  1.76530	  0.24994	 -0.15718	  3.17584	710.03998	 22.30	
 16.990	156.759	  2.73911	 -0.29955	  2.62742	  1.59826	  0.38731	 -0.15418	  3.17707	710.13000	 22.30	
 17.000	162.596	  2.74017	 -0.33629	  2.69008	  1.42949	  0.52870	 -0.14552	  3.17663	710.07001	 22.30	
 17.009	168.383	  2.73949	 -0.36098	  2.73215	  1.25887	  0.67779	 -0.14122	  3.17397	710.10999	 22.30	
 16.990	174.179	  2.74373	 -0.37865	  2.75728	  1.09112	  0.83423	 -0.13810	  3.17692	710.09003	 22.30	
 18.709	174.675	  2.64064	 -0.54590	  2.85222	  1.01129	  0.76613	 -0.15051	  3.17665	710.01001	 22.30	
 18.703	169.441	  2.64236	 -0.53304	  2.83120	  1.18006	  0.61067	 -0.16011	  3.17985	710.02002	 22.30	
 18.691	164.085	  2.64279	 -0.50674	  2.79174	  1.34990	  0.46242	 -0.16126	  3.17881	710.12000	 22.30	
 18.706	158.818	  2.63754	 -0.47573	  2.73390	  1.51794	  0.32028	 -0.17236	  3.17590	710.03998	 22.30	
 18.695	153.537	  2.63843	 -0.43460	  2.66128	  1.68137	  0.18664	 -0.17846	  3.17832	710.03998	 22.30	
 18.704	148.255	  2.63640	 -0.38699	  2.57193	  1.84140	  0.06063	 -0.18472	  3.17832	709.97998	 22.30	
 18.698	142.952	  2.63132	 -0.32300	  2.46255	  1.99711	 -0.05459	 -0.18721	  3.17597	710.04999	 22.30	
 18.699	137.625	  2.63213	 -0.25008	  2.34319	  2.14788	 -0.15908	 -0.19355	  3.17732	710.07001	 22.30	
 18.705	132.343	  2.62979	 -0.16617	  2.20744	  2.28672	 -0.25006	 -0.19800	  3.17671	710.10999	 22.30	
 18.713	127.067	  2.63072	 -0.07060	  2.06681	  2.41149	 -0.32677	 -0.20066	  3.17675	710.00000	 22.30	
 18.700	121.794	  2.62794	  0.03125	  1.91376	  2.52307	 -0.39706	 -0.20255	  3.17622	709.91998	 22.30	
 18.698	116.504	  2.62680	  0.14605	  1.75389	  2.62389	 -0.45840	 -0.20214	  3.17568	709.96997	 22.30	
 18.707	111.165	  2.62695	  0.27580	  1.58777	  2.70982	 -0.50593	 -0.20346	  3.17621	710.03998	 22.30	
 18.690	105.863	  2.62267	  0.40826	  1.41362	  2.77605	 -0.54800	 -0.20339	  3.17387	710.06000	 22.30	
 18.696	100.583	  2.62398	  0.55085	  1.24953	  2.82597	 -0.57293	 -0.20371	  3.17668	710.08002	 22.30	
 18.700	 95.309	  2.62217	  0.70139	  1.08100	  2.85763	 -0.59359	 -0.20358	  3.17765	709.96002	 22.30	
 18.700	 90.000	  2.61949	  0.85786	  0.91583	  2.86978	 -0.60220	 -0.20352	  3.17618	709.97998	 22.30	
 18.700	 84.691	  2.61877	  1.01996	  0.75229	  2.86738	 -0.60057	 -0.20138	  3.17596	710.03998	 22.30	
 18.696	 79.417	  2.61864	  1.18708	  0.59743	  2.84685	 -0.58875	 -0.20113	  3.17772	710.02002	 22.30	
 18.690	 74.137	  2.61559	  1.35435	  0.44966	  2.80622	 -0.56731	 -0.19917	  3.17432	709.89001	 22.30	
 18.707	 68.835	  2.61348	  1.51927	  0.30655	  2.75277	 -0.54251	 -0.19539	  3.17653	709.85999	 22.30	
 18.698	 63.496	  2.61234	  1.69020	  0.17386	  2.67945	 -0.49943	 -0.18965	  3.17625	709.96002	 22.30	
 18.700	 58.206	  2.61093	  1.85272	  0.04880	  2.58827	 -0.45036	 -0.18806	  3.17718	709.96997	 22.30	
 18.713	 52.933	  2.61084	  2.00991	 -0.05958	  2.48482	 -0.38781	 -0.18462	  3.17726	710.14001	 22.30	
 18.705	 47.657	  2.60998	  2.15635	 -0.16183	  2.36813	 -0.31819	 -0.17562	  3.17673	710.07001	 22.30	
 18.699	 42.375	  2.60821	  2.29303	 -0.25092	  2.23414	 -0.23417	 -0.17064	  3.17510	710.09998	 22.30	
 18.698	 37.048	  2.60834	  2.42124	 -0.33239	  2.09072	 -0.14232	 -0.16199	  3.17515	710.01001	 22.30	
 18.704	 31.745	  2.60977	  2.53893	 -0.40215	  1.93634	 -0.03494	 -0.15759	  3.17655	710.03998	 22.30	
 18.695	 26.463	  2.60795	  2.63546	 -0.45730	  1.78045	  0.07837	 -0.15123	  3.17487	710.15002	 22.30	
 18.706	 21.182	  2.60925	  2.72234	 -0.50722	  1.61492	  0.20423	 -0.14376	  3.17767	710.08002	 22.30	
 18.691	 15.915	  2.61094	  2.79110	 -0.54658	  1.44656	  0.33891	 -0.13948	  3.17606	710.07001	 22.30	
 18.703	 10.559	  2.61145	  2.84136	 -0.57278	  1.27721	  0.48260	 -0.13410	  3.17690	710.06000	 22.30	
 18.709	  5.325	  2.60921	  2.87385	 -0.59425	  1.10835	  0.63104	 -0.13016	  3.17589	710.03003	 22.30	
 18.700	  0.000	  2.61141	  2.88939	 -0.60377	  0.94050	  0.79135	 -0.12329	  3.17791	710.08002	 22.30	
 18.709	 -5.325	  2.61243	  2.88819	 -0.60121	  0.78093	  0.95568	 -0.11980	  3.17638	710.03998	 22.30	
 18.703	-10.559	  2.61154	  2.86627	 -0.59002	  0.62454	  1.12354	 -0.11849	  3.17539	710.09003	 22.30	
 18.691	-15.915	  2.61259	  2.82597	 -0.56751	  0.47177	  1.29742	 -0.11316	  3.17473	710.08002	 22.30	
 18.706	-21.182	  2.61400	  2.77293	 -0.53764	  0.33448	  1.46361	 -0.10903	  3.17574	710.13000	 22.30	
 18.695	-26.463	  2.61484	  2.69918	 -0.49376	  0.20285	  1.63319	 -0.10744	  3.17379	710.16998	 22.30	
 18.704	-31.745	  2.61434	  2.61272	 -0.44487	  0.07755	  1.80062	 -0.10517	  3.17590	710.13000	 22.30	
 18.698	-37.048	  2.61832	  2.51074	 -0.38045	 -0.03047	  1.95666	 -0.10004	  3.17734	710.19000	 22.30	
 18.699	-42.375	  2.61833	  2.39172	 -0.30748	 -0.13411	  2.10794	 -0.09641	  3.17450	710.15002	 22.30	
 18.705	-47.657	  2.61860	  2.25796	 -0.21993	 -0.22597	  2.25195	 -0.09651	  3.17383	710.15997	 22.30	
 18.713	-52.933	  2.62174	  2.12010	 -0.12538	 -0.30438	  2.38492	 -0.09145	  3.17536	710.14001	 22.30	
 18.700	-58.206	  2.62481	  1.97044	 -0.01989	 -0.37237	  2.49951	 -0.09484	  3.17735	710.12000	 22.30	
 18.698	-63.496	  2.62623	  1.81344	  0.09650	 -0.42817	  2.59791	 -0.08716	  3.17649	710.08002	 22.30	
 18.707	-68.835	  2.62662	  1.64543	  0.22534	 -0.47764	  2.68523	 -0.08473	  3.17685	710.06000	 22.30	
 18.690	-74.137	  2.62845	  1.48025	  0.36517	 -0.51208	  2.75500	 -0.08491	  3.17426	709.97998	 22.30	
 18.696	-79.417	  2.62891	  1.31275	  0.50746	 -0.53994	  2.80453	 -0.08323	  3.17361	710.03998	 22.30	
 18.700	-84.691	  2.62993	  1.14576	  0.66069	 -0.55931	  2.83772	 -0.08199	  3.17500	710.03998	 22.30	
 18.700	-90.000	  2.63322	  0.98196	  0.82108	 -0.56595	  2.85584	 -0.08234	  3.17619	709.96002	 22.30	
 18.700	-95.309	  2.63601	  0.82300	  0.98476	 -0.56181	  2.85138	 -0.07850	  3.17510	709.96002	 22.30	
 18.696	-100.583	  2.63860	  0.66524	  1.15228	 -0.55369	  2.83347	 -0.07504	  3.17684	710.01001	 22.30	
 18.690	-105.863	  2.64138	  0.51893	  1.32309	 -0.52917	  2.79555	 -0.07682	  3.17855	710.10999	 22.30	
 18.707	-111.165	  2.64241	  0.37781	  1.49201	 -0.49968	  2.74218	 -0.08000	  3.17820	710.07001	 22.30	
 18.698	-116.504	  2.64200	  0.24113	  1.66226	 -0.45507	  2.66582	 -0.08221	  3.17573	710.03998	 22.30	
 18.700	-121.794	  2.64361	  0.11930	  1.82417	 -0.40566	  2.57827	 -0.08387	  3.17644	710.15002	 22.30	
 18.713	-127.067	  2.64240	  0.00484	  1.98098	 -0.34505	  2.47393	 -0.08629	  3.17525	710.10999	 22.30	
 18.705	-132.343	  2.64264	 -0.09573	  2.12921	 -0.26966	  2.35283	 -0.09006	  3.17429	709.98999	 22.30	
 18.699	-137.625	  2.64541	 -0.18827	  2.27072	 -0.18522	  2.22143	 -0.09466	  3.17646	710.09003	 22.30	
 18.698	-142.952	  2.64841	 -0.26823	  2.39793	 -0.08946	  2.07786	 -0.09949	  3.17659	709.97998	 22.30	
 18.704	-148.255	  2.64767	 -0.34045	  2.51321	  0.01502	  1.92702	 -0.10430	  3.17803	710.03003	 22.30	
 18.695	-153.537	  2.64722	 -0.39810	  2.60974	  0.13267	  1.76761	 -0.10842	  3.17494	710.04999	 22.30	
 18.706	-158.818	  2.64503	 -0.44875	  2.69388	  0.25885	  1.59952	 -0.11426	  3.17415	710.07001	 22.30	
 18.691	-164.085	  2.64712	 -0.48705	  2.76041	  0.39079	  1.43742	 -0.11932	  3.17642	709.98999	 22.30	
 18.703	-169.441	  2.64456	 -0.51993	  2.81150	  0.53538	  1.26289	 -0.12217	  3.17673	709.95001	 22.30	
 18.709	-174.675	  2.64427	 -0.53504	  2.84374	  0.68838	  1.09504	 -0.13212	  3.17673	709.92999	 22.30	
 18.700	180.000	  2.64311	 -0.54493	  2.85637	  0.84451	  0.92883	 -0.13761	  3.17611	709.91998	 22.30	
 20.400	180.000	  2.52815	 -0.72514	  2.93734	  0.74946	  0.84648	 -0.14090	  3.17468	709.96997	 22.30	
 20.401	-175.153	  2.53063	 -0.71872	  2.92645	  0.59778	  1.00678	 -0.13490	  3.17704	710.02002	 22.30	
 20.407	-170.264	  2.53028	 -0.70233	  2.89725	  0.44460	  1.17727	 -0.13009	  3.17687	709.92999	 22.30	
 20.410	-165.423	  2.53060	 -0.67787	  2.85179	  0.29935	  1.34623	 -0.11674	  3.17642	709.91998	 22.30	
 20.392	-160.496	  2.53369	 -0.63768	  2.78902	  0.16941	  1.51633	 -0.11550	  3.17633	709.97998	 22.30	
 20.401	-155.705	  2.53444	 -0.59725	  2.71319	  0.04220	  1.67878	 -0.11053	  3.17707	709.97998	 22.30	
 20.405	-150.835	  2.53067	 -0.54565	  2.62083	 -0.07782	  1.84109	 -0.11089	  3.17383	710.02002	 22.30	
 20.397	-145.903	  2.53337	 -0.47958	  2.51346	 -0.18210	  1.99958	 -0.10139	  3.17566	709.97998	 22.30	
 20.392	-141.062	  2.53106	 -0.41080	  2.39268	 -0.28301	  2.14752	 -0.09774	  3.17383	709.92999	 22.30	
 20.396	-136.227	  2.53023	 -0.33071	  2.26199	 -0.37295	  2.28803	 -0.09382	  3.17633	709.94000	 22.30	
 20.408	-131.372	  2.52913	 -0.23880	  2.12237	 -0.45158	  2.41792	 -0.09097	  3.17689	709.96997	 22.30	
 20.410	-126.511	  2.52872	 -0.13472	  1.97007	 -0.51563	  2.53179	 -0.09015	  3.17474	709.90002	 22.30	
 20.400	-121.604	  2.52817	 -0.02431	  1.81069	 -0.57804	  2.63987	 -0.08642	  3.17441	709.96997	 22.30	
 20.403	-116.741	  2.52549	  0.09712	  1.64642	 -0.62840	  2.72981	 -0.08276	  3.17618	709.98999	 22.30	
 20.413	-111.900	  2.52128	  0.22127	  1.47973	 -0.67260	  2.80457	 -0.08465	  3.17592	709.94000	 22.30	
 20.398	-107.004	  2.52134	  0.36090	  1.30930	 -0.70280	  2.86235	 -0.07743	  3.17766	709.97998	 22.30	
 20.394	-102.132	  2.51764	  0.50496	  1.13939	 -0.72722	  2.90200	 -0.07970	  3.17390	710.00000	 22.30	
 20.403	-97.332	  2.51805	  0.65479	  0.97354	 -0.74151	  2.92807	 -0.07937	  3.17467	710.03998	 22.30	
 20.392	-92.440	  2.51703	  0.81487	  0.80841	 -0.74426	  2.93620	 -0.07998	  3.17497	709.98999	 22.30	
 20.392	-87.560	  2.51504	  0.97832	  0.64872	 -0.74112	  2.93282	 -0.08404	  3.17591	710.09003	 22.30	
 20.403	-82.668	  2.50990	  1.14092	  0.49023	 -0.73411	  2.90950	 -0.08333	  3.17492	709.96997	 22.30	
 20.394	-77.868	  2.51175	  1.30874	  0.34300	 -0.71329	  2.87158	 -0.08504	  3.17680	710.03998	 22.30	
 20.398	-72.996	  2.50901	  1.47119	  0.20742	 -0.68492	  2.81735	 -0.08477	  3.17406	710.03998	 22.30	
 20.413	-68.100	  2.50667	  1.63898	  0.07075	 -0.64968	  2.74452	 -0.08603	  3.17638	709.98999	 22.30	
 20.403	-63.259	  2.50608	  1.80332	 -0.05018	 -0.60062	  2.65794	 -0.08817	  3.17499	709.91998	 22.30	
 20.400	-58.396	  2.50315	  1.95990	 -0.16389	 -0.54498	  2.55580	 -0.09299	  3.17571	710.08002	 22.30	
 20.410	-53.489	  2.50335	  2.11172	 -0.26645	 -0.47823	  2.43922	 -0.09211	  3.17438	710.03003	 22.30	
 20.408	-48.628	  2.50028	  2.25609	 -0.36509	 -0.40770	  2.30920	 -0.09826	  3.17576	710.03003	 22.30	
 20.396	-43.773	  2.49841	  2.38850	 -0.44965	 -0.32216	  2.16984	 -0.09850	  3.17466	709.92999	 22.30	
 20.392	-38.938	  2.49779	  2.51134	 -0.52174	 -0.22713	  2.02303	 -0.10305	  3.17604	709.91998	 22.30	
 20.397	-34.097	  2.49893	  2.62049	 -0.58581	 -0.12159	  1.86619	 -0.10354	  3.17559	709.83002	 22.30	
 20.405	-29.165	  2.49772	  2.72026	 -0.64483	 -0.00931	  1.70239	 -0.10915	  3.17838	710.01001	 22.30	
 20.401	-24.295	  2.49564	  2.80155	 -0.69082	  0.11637	  1.53304	 -0.11221	  3.17644	710.00000	 22.30	
 20.392	-19.504	  2.49593	  2.86521	 -0.72555	  0.24706	  1.36740	 -0.11804	  3.17806	709.91998	 22.30	
 20.410	-14.577	  2.49291	  2.91419	 -0.75252	  0.38889	  1.19587	 -0.12161	  3.17571	709.81000	 22.30	
 20.407	 -9.736	  2.49296	  2.94700	 -0.76885	  0.53942	  1.02665	 -0.12774	  3.17499	709.95001	 22.30	
 20.401	 -4.847	  2.49474	  2.96545	 -0.77590	  0.69699	  0.86076	 -0.13375	  3.17592	709.98999	 22.30	
 20.400	  0.000	  2.49351	  2.96715	 -0.78007	  0.85317	  0.69913	 -0.13479	  3.17680	709.95001	 22.30	
 20.401	  4.847	  2.49021	  2.94911	 -0.77064	  1.01873	  0.54010	 -0.14133	  3.17223	709.90002	 22.30	
 20.407	  9.736	  2.49258	  2.92419	 -0.75593	  1.18935	  0.38875	 -0.15016	  3.17713	710.03003	 22.30	
 20.410	 14.577	  2.49137	  2.87684	 -0.73176	  1.35472	  0.24709	 -0.15938	  3.17695	709.94000	 22.30	
 20.392	 19.504	  2.49193	  2.81226	 -0.69477	  1.52831	  0.11057	 -0.16459	  3.17576	710.00000	 22.30	
 20.401	 24.295	  2.49317	  2.73773	 -0.65236	  1.69051	 -0.01042	 -0.17135	  3.17737	709.96997	 22.30	
 20.405	 29.165	  2.49343	  2.64324	 -0.60114	  1.85178	 -0.12589	 -0.18127	  3.17721	709.95001	 22.30	
 20.397	 34.097	  2.49579	  2.53277	 -0.53556	  2.01302	 -0.23441	 -0.18393	  3.17558	709.94000	 22.30	
 20.392	 38.938	  2.49385	  2.41325	 -0.46978	  2.16037	 -0.33490	 -0.19562	  3.17721	709.90002	 22.30	
 20.396	 43.773	  2.49246	  2.28239	 -0.39285	  2.29907	 -0.42247	 -0.20342	  3.17498	709.92999	 22.30	
 20.408	 48.628	  2.49250	  2.14116	 -0.29907	  2.42542	 -0.49505	 -0.20479	  3.17283	709.96002	 22.30	
 20.410	 53.489	  2.49416	  1.99051	 -0.20192	  2.54593	 -0.56586	 -0.21153	  3.17539	710.03003	 22.30	
 20.400	 58.396	  2.49513	  1.83313	 -0.08746	  2.64892	 -0.62086	 -0.21619	  3.17394	709.90997	 22.20	
 20.403	 63.259	  2.49686	  1.67083	  0.03005	  2.73984	 -0.67156	 -0.22115	  3.17806	709.92999	 22.20	
 20.413	 68.100	  2.49640	  1.50299	  0.15831	  2.81424	 -0.71228	 -0.22391	  3.17559	710.00000	 22.30	
 20.398	 72.996	  2.50027	  1.33553	  0.29752	  2.87294	 -0.74093	 -0.22836	  3.17711	710.04999	 22.30	
 20.394	 77.868	  2.50044	  1.17059	  0.43693	  2.91285	 -0.76220	 -0.22915	  3.17566	709.98999	 22.30	
 20.403	 82.668	  2.50165	  1.00629	  0.58686	  2.93794	 -0.77524	 -0.23064	  3.17509	710.04999	 22.20	
 20.392	 87.560	  2.50478	  0.84066	  0.74906	  2.94774	 -0.77885	 -0.23464	  3.17329	709.97998	 22.20	
 20.392	 92.440	  2.50604	  0.68086	  0.91081	  2.94388	 -0.77776	 -0.23289	  3.17549	710.04999	 22.20	
 20.403	 97.332	  2.50791	  0.52698	  1.08002	  2.92441	 -0.76554	 -0.23435	  3.17594	709.98999	 22.20	
 20.394	102.132	  2.51075	  0.38585	  1.24642	  2.88864	 -0.74274	 -0.23081	  3.17584	709.97998	 22.20	
 20.398	107.004	  2.50932	  0.24485	  1.41113	  2.83575	 -0.71865	 -0.23368	  3.17576	710.03003	 22.20	
 20.413	111.900	  2.50712	  0.11087	  1.57949	  2.76465	 -0.68105	 -0.23261	  3.17502	709.95001	 22.20	
 20.403	116.741	  2.51023	 -0.00810	  1.74454	  2.68020	 -0.63096	 -0.22987	  3.17470	709.91998	 22.30	
 20.400	121.604	  2.50986	 -0.11967	  1.89963	  2.58388	 -0.57969	 -0.22715	  3.17605	709.90002	 22.30	
 20.410	126.511	  2.51122	 -0.22276	  2.05540	  2.46929	 -0.51100	 -0.22465	  3.17589	709.90997	 22.20	
 20.408	131.372	  2.51715	 -0.31297	  2.21018	  2.34324	 -0.42514	 -0.21373	  3.17575	710.01001	 22.20	
 20.396	136.227	  2.51869	 -0.39598	  2.34377	  2.20769	 -0.34118	 -0.21488	  3.17695	710.04999	 22.20	
 20.392	141.062	  2.51810	 -0.46738	  2.46636	  2.06041	 -0.24366	 -0.20692	  3.17538	709.96002	 22.20	
 20.397	145.903	  2.52121	 -0.53169	  2.57627	  1.90925	 -0.14118	 -0.19722	  3.17614	709.91998	 22.20	
 20.405	150.835	  2.52021	 -0.59059	  2.68024	  1.74250	 -0.01919	 -0.18914	  3.17679	709.95001	 22.20	
 20.401	155.705	  2.52258	 -0.63673	  2.76451	  1.57929	  0.10328	 -0.18583	  3.17779	709.91998	 22.20	
 20.392	160.496	  2.52340	 -0.67186	  2.82945	  1.41501	  0.23269	 -0.17858	  3.17833	709.91998	 22.20	
 20.410	165.423	  2.52628	 -0.69893	  2.88341	  1.24524	  0.37981	 -0.17129	  3.17842	710.03998	 22.30	
 20.407	170.264	  2.52556	 -0.71728	  2.91855	  1.07910	  0.52375	 -0.16125	  3.17790	709.96002	 22.20	
 20.401	175.153	  2.52875	 -0.72621	  2.93737	  0.91349	  0.68396	 -0.14913	  3.17810	709.95001	 22.20	
  0.141	 45.000	  3.17968	  1.43320	  1.35629	  1.40169	  1.34930	  0.08412	  3.17829	709.98999	 22.20	
  4.001	128.691	  3.16734	  1.14484	  1.57756	  1.65068	  1.04081	  0.06045	  3.17735	709.96997	 22.20	
  4.002	 76.995	  3.16634	  1.45191	  1.24463	  1.74091	  0.96252	  0.07057	  3.17765	709.91998	 22.20	
  4.002	 25.892	  3.16693	  1.72671	  1.00388	  1.52692	  1.13933	  0.07774	  3.17576	710.09003	 22.20	
  4.002	-25.892	  3.17111	  1.74059	  0.99924	  1.19946	  1.47120	  0.06741	  3.17722	710.09003	 22.20	
  4.002	-76.995	  3.17101	  1.47665	  1.22991	  1.01180	  1.69859	  0.05245	  3.17612	709.95001	 22.20	
  4.001	-128.691	  3.16905	  1.16469	  1.56120	  1.06798	  1.62785	  0.04582	  3.17496	709.95001	 22.20	
  4.000	180.000	  3.16923	  1.02656	  1.72365	  1.33573	  1.33018	  0.04767	  3.17515	709.90002	 22.20	
  8.000	180.000	  3.10795	  0.57903	  2.10064	  1.24985	  1.27319	 -0.00704	  3.17534	709.94000	 22.20	
  7.991	-152.370	  3.11057	  0.66712	  1.98622	  0.90252	  1.64844	 -0.00450	  3.17432	709.97998	 22.20	
  7.997	-124.550	  3.11186	  0.90064	  1.69846	  0.66025	  1.94948	 -0.00920	  3.17498	710.00000	 22.20	
  8.006	-96.837	  3.11205	  1.24035	  1.32068	  0.55643	  2.08612	 -0.00752	  3.17517	709.88000	 22.20	
  7.988	-69.228	  3.11077	  1.62105	  0.95541	  0.60574	  2.01945	  0.00373	  3.17564	710.03998	 22.20	
  7.997	-41.563	  3.10627	  1.94612	  0.67780	  0.79697	  1.76970	  0.01508	  3.17619	710.00000	 22.20	
  8.008	-13.821	  3.10280	  2.12928	  0.53656	  1.11217	  1.40220	  0.02812	  3.17700	710.02002	 22.20	
  8.008	 13.821	  3.09981	  2.11485	  0.54639	  1.49134	  1.02563	  0.04115	  3.17636	710.03003	 22.20	
  7.997	 41.563	  3.09831	  1.90595	  0.70598	  1.84275	  0.72476	  0.03756	  3.17729	710.01001	 22.20	
  7.988	 69.228	  3.09813	  1.56486	  0.99252	  2.07320	  0.54838	  0.03023	  3.17774	710.01001	 22.20	
  8.006	 96.837	  3.09961	  1.18624	  1.36511	  2.11513	  0.52036	  0.01720	  3.17726	709.97998	 22.20	
  7.997	124.550	  3.10167	  0.85877	  1.73643	  1.95167	  0.64481	  0.00925	  3.17553	710.03998	 22.20	
  7.991	152.370	  3.10801	  0.65063	  2.00812	  1.63621	  0.91159	  0.00226	  3.17804	710.03998	 22.20	
 12.009	161.059	  2.98009	  0.17802	  2.36701	  1.52594	  0.79425	 -0.06602	  3.17579	710.04999	 22.20	
 12.013	142.081	  2.97695	  0.31567	  2.16436	  1.90447	  0.47203	 -0.07232	  3.17704	710.06000	 22.20	
 12.006	123.113	  2.97253	  0.55255	  1.84629	  2.20643	  0.24263	 -0.06321	  3.17547	710.07001	 22.20	
 12.007	104.200	  2.97053	  0.86949	  1.46633	  2.39731	  0.10923	 -0.05568	  3.17554	709.98999	 22.20	
 11.989	 85.301	  2.96871	  1.24600	  1.07020	  2.44782	  0.07488	 -0.04765	  3.17736	710.03998	 22.20	
 12.013	 66.294	  2.96226	  1.63972	  0.70213	  2.34813	  0.13548	 -0.03735	  3.17470	709.95001	 22.20	
 12.012	 47.388	  2.96361	  2.00599	  0.40807	  2.12075	  0.29719	 -0.03078	  3.17716	709.94000	 22.20	
 11.990	 28.440	  2.96438	  2.28385	  0.20490	  1.78111	  0.55565	 -0.01566	  3.17480	709.88000	 22.20	
 11.991	  9.464	  2.96582	  2.44300	  0.09676	  1.39352	  0.89070	 -0.02099	  3.17656	709.90997	 22.20	
 11.991	 -9.464	  2.96934	  2.45873	  0.09013	  1.00411	  1.27906	 -0.02771	  3.17672	710.01001	 22.20	
 11.990	-28.440	  2.97227	  2.32984	  0.17835	  0.65207	  1.67757	 -0.04029	  3.17658	709.91998	 22.20	
 12.012	-47.388	  2.97561	  2.07184	  0.36637	  0.37653	  2.03176	 -0.05051	  3.17677	709.90997	 22.20	
 12.013	-66.294	  2.97748	  1.72161	  0.64606	  0.19700	  2.28676	 -0.05158	  3.17364	709.94000	 22.20	
 11.989	-85.301	  2.98380	  1.32993	  1.00643	  0.11857	  2.41220	 -0.05614	  3.17504	709.89001	 22.20	
 12.007	-104.200	  2.98741	  0.94646	  1.40171	  0.13022	  2.39257	 -0.05785	  3.17637	709.84003	 22.20	
 12.006	-123.113	  2.98785	  0.61461	  1.78748	  0.24359	  2.22939	 -0.06140	  3.17640	709.94000	 22.20	
 12.013	-142.081	  2.98448	  0.35525	  2.11737	  0.45781	  1.93673	 -0.06396	  3.17245	709.89001	 22.20	
 12.009	-161.059	  2.98609	  0.19477	  2.34335	  0.76064	  1.56785	 -0.06570	  3.17539	709.94000	 22.20	
 16.000	180.000	  2.80071	 -0.28131	  2.70429	  0.96595	  1.03658	 -0.12014	  3.17600	709.95001	 22.20	
 15.990	-165.604	  2.80132	 -0.23744	  2.63348	  0.60140	  1.43436	 -0.10918	  3.17428	710.00000	 22.20	
 16.002	-151.165	  2.80137	 -0.12640	  2.45876	  0.28488	  1.82300	 -0.09469	  3.17546	709.89001	 22.20	
 16.002	-136.836	  2.80058	  0.05889	  2.18055	  0.03334	  2.16945	 -0.08429	  3.17274	709.90002	 22.20	
 15.995	-122.439	  2.80034	  0.31147	  1.83310	 -0.14947	  2.44775	 -0.07745	  3.17456	709.90997	 22.20	
 15.993	-107.966	  2.79592	  0.62749	  1.43715	 -0.26646	  2.63063	 -0.07363	  3.17459	709.85999	 22.20	
 16.005	-93.629	  2.79317	  0.98851	  1.04010	 -0.31039	  2.69962	 -0.07319	  3.17564	709.89001	 22.20	
 15.992	-79.234	  2.79046	  1.38429	  0.65863	 -0.28553	  2.65563	 -0.07393	  3.17540	710.01001	 22.20	
 16.009	-64.774	  2.78630	  1.77791	  0.32376	 -0.19393	  2.49944	 -0.07932	  3.17649	709.94000	 22.20	
 15.997	-50.364	  2.78304	  2.13987	  0.05248	 -0.02813	  2.23953	 -0.08493	  3.17676	709.90997	 22.20	
 15.997	-36.045	  2.77649	  2.43015	 -0.14931	  0.20102	  1.90224	 -0.08671	  3.17371	709.83002	 22.20	
 16.000	-21.597	  2.77509	  2.63841	 -0.28318	  0.50127	  1.51324	 -0.08606	  3.17673	709.85999	 22.20	
 16.003	 -7.169	  2.77473	  2.73653	 -0.34018	  0.85982	  1.11118	 -0.08662	  3.17837	709.85999	 22.20	
 16.003	  7.169	  2.77002	  2.71748	 -0.32993	  1.24884	  0.72467	 -0.08850	  3.17506	709.84003	 22.20	
 16.000	 21.597	  2.76918	  2.59191	 -0.25367	  1.64733	  0.38231	 -0.08981	  3.17724	709.84998	 22.20	
 15.997	 36.045	  2.76956	  2.35915	 -0.10846	  2.02295	  0.09890	 -0.09899	  3.17617	709.94000	 22.20	
 15.997	 50.364	  2.76967	  2.04325	  0.10874	  2.33930	 -0.11565	 -0.11554	  3.17597	709.96002	 22.20	
 16.009	 64.774	  2.77155	  1.67153	  0.39619	  2.56886	 -0.25674	 -0.12613	  3.17370	709.84003	 22.20	
 15.992	 79.234	  2.77829	  1.27806	  0.74086	  2.69895	 -0.32954	 -0.13477	  3.17684	709.84998	 22.20	
 16.005	 93.629	  2.77901	  0.88873	  1.12061	  2.71336	 -0.33910	 -0.13962	  3.17610	709.84003	 22.20	
 15.993	107.966	  2.78274	  0.53870	  1.52129	  2.61512	 -0.27521	 -0.13979	  3.17571	709.84003	 22.20	
 15.995	122.439	  2.78710	  0.23752	  1.90907	  2.41448	 -0.14833	 -0.14549	  3.18009	709.92999	 22.20	
 16.002	136.836	  2.79033	  0.00246	  2.24651	  2.11843	  0.05212	 -0.14719	  3.17835	709.90002	 22.20	
 16.002	151.165	  2.79256	 -0.15962	  2.50334	  1.75887	  0.32478	 -0.13917	  3.17655	709.89001	 22.20	
 15.990	165.604	  2.79860	 -0.25401	  2.66094	  1.36573	  0.65759	 -0.12753	  3.17928	709.84998	 22.20	
 20.003	168.362	  2.55303	 -0.66713	  2.88783	  1.15972	  0.49360	 -0.16061	  3.17598	709.91998	 22.20	
 20.008	156.764	  2.55052	 -0.60088	  2.76569	  1.55328	  0.16145	 -0.18076	  3.17739	709.90997	 22.20	
 20.000	145.147	  2.54554	 -0.47909	  2.54885	  1.93159	 -0.11888	 -0.19774	  3.17480	709.88000	 22.20	
 19.995	133.545	  2.54317	 -0.31350	  2.26309	  2.27334	 -0.34993	 -0.21087	  3.17512	709.82001	 22.20	
 20.009	121.926	  2.53927	 -0.08895	  1.91639	  2.56243	 -0.52846	 -0.22262	  3.17546	709.92999	 22.20	
 20.005	110.327	  2.53942	  0.18955	  1.53430	  2.77498	 -0.64895	 -0.22567	  3.17781	709.90002	 22.20	
 19.989	 98.733	  2.53570	  0.51487	  1.14168	  2.89455	 -0.71452	 -0.22526	  3.17383	709.94000	 22.20	
 19.999	 87.075	  2.53391	  0.87985	  0.75352	  2.93416	 -0.74004	 -0.22670	  3.17790	709.84998	 22.20	
 19.992	 75.457	  2.53126	  1.26904	  0.39750	  2.87884	 -0.70875	 -0.22219	  3.17638	709.81000	 22.20	
 20.009	 63.844	  2.52375	  1.65932	  0.07567	  2.73705	 -0.63951	 -0.21722	  3.17821	709.91998	 22.20	
 19.989	 52.269	  2.52036	  2.02765	 -0.18880	  2.50469	 -0.50888	 -0.20590	  3.17359	709.82001	 22.20	
 19.999	 40.602	  2.52034	  2.36188	 -0.40632	  2.20601	 -0.33042	 -0.18995	  3.17792	709.88000	 22.20	
 20.004	 29.051	  2.51979	  2.63152	 -0.56281	  1.85047	 -0.09201	 -0.17514	  3.17576	709.87000	 22.20	
 20.005	 17.433	  2.52104	  2.82647	 -0.67054	  1.46630	  0.19720	 -0.15826	  3.17611	709.69000	 22.20	
 20.006	  5.780	  2.51964	  2.93081	 -0.72846	  1.06912	  0.53622	 -0.14024	  3.17506	709.90002	 22.20	
 20.006	 -5.780	  2.52181	  2.94606	 -0.73294	  0.68965	  0.91292	 -0.12896	  3.17531	709.85999	 22.20	
 20.005	-17.433	  2.52524	  2.87315	 -0.69204	  0.33889	  1.30893	 -0.11792	  3.17710	709.89001	 22.20	
 20.004	-29.051	  2.52564	  2.70700	 -0.60058	  0.03126	  1.70391	 -0.10514	  3.17561	709.81000	 22.20	
 19.999	-40.602	  2.53101	  2.46666	 -0.45936	 -0.22135	  2.07030	 -0.09851	  3.17929	709.94000	 22.20	
 19.989	-52.269	  2.53470	  2.14913	 -0.25268	 -0.41619	  2.39693	 -0.09389	  3.17600	709.81000	 22.20	
 20.009	-63.844	  2.53719	  1.79023	 -0.00163	 -0.56184	  2.65191	 -0.09056	  3.17664	709.85999	 22.20	
 19.992	-75.457	  2.54009	  1.40310	  0.30322	 -0.65806	  2.83021	 -0.08409	  3.17739	709.96997	 22.20	
 19.999	-87.075	  2.54319	  1.01271	  0.65703	 -0.70042	  2.91128	 -0.08335	  3.17517	709.97998	 22.20	
 19.989	-98.733	  2.54996	  0.64101	  1.03915	 -0.69337	  2.90600	 -0.08070	  3.17795	709.85999	 22.20	
 20.005	-110.327	  2.55372	  0.30071	  1.43537	 -0.63972	  2.80983	 -0.08081	  3.18042	709.87000	 22.20	
 20.009	-121.926	  2.55499	  0.00125	  1.82311	 -0.53585	  2.61985	 -0.08234	  3.17609	709.89001	 22.20	
 19.995	-133.545	  2.55945	 -0.24311	  2.18255	 -0.37903	  2.35224	 -0.08750	  3.17693	709.78003	 22.20	
 20.000	-145.147	  2.56128	 -0.42918	  2.48504	 -0.16192	  2.01983	 -0.09887	  3.17573	709.83002	 22.20	
 20.008	-156.764	  2.55731	 -0.57000	  2.71680	  0.09901	  1.64522	 -0.10718	  3.17370	709.90002	 22.20	
 20.003	-168.362	  2.55830	 -0.64972	  2.86235	  0.41657	  1.25515	 -0.12337	  3.17459	709.84003	 22.20	
 20.000	180.000	  2.55561	 -0.68603	  2.92155	  0.77324	  0.86245	 -0.13976	  3.17544	709.82001	 22.20	
