FileType=PCF
NHL=14
Date=08/24/17	16:58:23
Facility=APL
Serial=16328-4
Customer=NASA
NP=6
Mach=0.100000
Calibration=1:1
CalPts=490
TstPts=95
PortNumbering=AP Standard
Units=Torr C m/s kg/m^3 deg mm 
Theta[deg]	Phi[deg]	P1[Torr]	P2[Torr]	P3[Torr]	P4[Torr]	P5[Torr]	P6[Torr]	Pt[Torr]	Ps[Abs,Torr]	Ts[C]	
  0.000	  0.000	  4.97736	  2.74604	  2.73617	  2.71968	  2.78799	  0.03384	  4.97422	702.90302	 23.50	
  1.691	128.401	  4.96448	  2.59783	  2.86154	  2.88529	  2.59999	  0.03242	  4.96155	702.98297	 23.50	
  1.692	 77.194	  4.96962	  2.79412	  2.67276	  2.93251	  2.55974	  0.03055	  4.96775	702.85199	 23.50	
  1.699	 26.182	  4.97488	  2.93121	  2.52858	  2.81371	  2.67327	  0.02749	  4.97021	703.04797	 23.50	
  1.699	-26.182	  4.96834	  2.92488	  2.52271	  2.60758	  2.86302	  0.02568	  4.96773	703.03198	 23.50	
  1.692	-77.194	  4.95941	  2.76247	  2.66810	  2.48689	  2.97910	  0.02525	  4.95632	702.98901	 23.50	
  1.691	-128.401	  4.95704	  2.57984	  2.85350	  2.52816	  2.93326	  0.02623	  4.95457	702.96899	 23.50	
  1.700	180.000	  4.96954	  2.51179	  2.94881	  2.70515	  2.78096	  0.03203	  4.96686	702.94397	 23.50	
  3.400	180.000	  4.96110	  2.25500	  3.17065	  2.67032	  2.74043	  0.01458	  4.96802	702.95502	 23.50	
  3.388	-152.325	  4.95920	  2.29146	  3.11770	  2.45834	  2.96019	  0.01189	  4.96716	702.90302	 23.50	
  3.397	-124.529	  4.95148	  2.42114	  2.95556	  2.29637	  3.13133	  0.00813	  4.96040	703.02600	 23.50	
  3.399	-96.763	  4.96199	  2.62847	  2.74546	  2.22547	  3.22448	  0.00733	  4.97326	703.02899	 23.50	
  3.394	-69.283	  4.96154	  2.85393	  2.52287	  2.24830	  3.19494	  0.00751	  4.97071	702.96198	 23.50	
  3.400	-41.398	  4.96244	  3.05128	  2.34659	  2.36666	  3.05792	  0.00801	  4.97424	703.03198	 23.50	
  3.401	-14.021	  4.96142	  3.16387	  2.25043	  2.55175	  2.85604	  0.00979	  4.96748	703.01398	 23.50	
  3.401	 14.021	  4.97037	  3.17374	  2.26093	  2.78837	  2.63000	  0.01278	  4.97328	703.06897	 23.50	
  3.400	 41.398	  4.96874	  3.06998	  2.36049	  2.99350	  2.44624	  0.01849	  4.97243	702.92200	 23.50	
  3.394	 69.283	  4.97188	  2.88486	  2.52829	  3.11755	  2.33889	  0.01657	  4.97230	703.21802	 23.50	
  3.399	 96.763	  4.96486	  2.66185	  2.74088	  3.14791	  2.31078	  0.01941	  4.96736	703.08600	 23.50	
  3.397	124.529	  4.97436	  2.46480	  2.95862	  3.07193	  2.37790	  0.01814	  4.97679	702.93103	 23.50	
  3.388	152.325	  4.96862	  2.31689	  3.11557	  2.89742	  2.53100	  0.01692	  4.96991	702.95801	 23.50	
  5.099	161.165	  4.95046	  2.02534	  3.36607	  2.87513	  2.47984	 -0.00360	  4.97627	703.11603	 23.50	
  5.109	142.013	  4.95040	  2.13529	  3.24016	  3.09315	  2.27894	 -0.00088	  4.97088	703.09998	 23.50	
  5.095	123.033	  4.96115	  2.30493	  3.05779	  3.26495	  2.14369	 -0.00047	  4.98157	703.11603	 23.50	
  5.105	104.191	  4.95399	  2.50931	  2.83078	  3.36420	  2.05434	 -0.00131	  4.97461	703.04498	 23.50	
  5.093	 85.207	  4.96085	  2.74924	  2.59539	  3.38494	  2.04294	  0.00031	  4.97935	703.13000	 23.50	
  5.104	 66.290	  4.94873	  2.97389	  2.36508	  3.31511	  2.08442	 -0.00048	  4.96728	703.14398	 23.50	
  5.094	 47.331	  4.93982	  3.17248	  2.17575	  3.16914	  2.19749	 -0.00171	  4.95617	703.13300	 23.50	
  5.089	 28.397	  4.95381	  3.33128	  2.05134	  2.98349	  2.37294	 -0.00706	  4.97705	703.08301	 23.50	
  5.096	  9.576	  4.94962	  3.40711	  1.97762	  2.75294	  2.58601	 -0.00667	  4.97466	703.06500	 23.50	
  5.096	 -9.576	  4.95486	  3.40416	  1.98342	  2.51794	  2.83242	 -0.00920	  4.98570	703.09100	 23.50	
  5.089	-28.397	  4.93290	  3.30437	  2.04565	  2.29350	  3.04971	 -0.01058	  4.96369	702.98401	 23.50	
  5.094	-47.331	  4.94460	  3.15588	  2.18114	  2.12205	  3.25740	 -0.01408	  4.98173	703.10797	 23.50	
  5.104	-66.290	  4.92472	  2.93161	  2.36060	  1.99282	  3.38744	 -0.01613	  4.96253	703.02600	 23.50	
  5.093	-85.207	  4.93765	  2.70423	  2.59484	  1.94861	  3.45786	 -0.01651	  4.97577	703.00598	 23.50	
  5.105	-104.191	  4.93989	  2.46809	  2.83703	  1.96368	  3.44280	 -0.01632	  4.97831	703.08600	 23.50	
  5.095	-123.033	  4.94123	  2.26354	  3.06140	  2.05568	  3.33755	 -0.01040	  4.97844	703.08801	 23.50	
  5.109	-142.013	  4.93848	  2.10379	  3.24667	  2.20586	  3.16314	 -0.00683	  4.97471	703.19800	 23.50	
  5.099	-161.165	  4.94125	  2.00720	  3.36774	  2.40824	  2.94438	 -0.00574	  4.97572	703.12500	 23.50	
  5.100	180.000	  4.94245	  1.98453	  3.40396	  2.63581	  2.70807	 -0.00165	  4.97144	703.09302	 23.50	
  6.800	180.000	  4.90893	  1.70001	  3.63336	  2.58767	  2.66542	 -0.03130	  4.97755	703.07599	 23.50	
  6.796	-166.229	  4.89733	  1.71283	  3.59959	  2.35723	  2.89310	 -0.03043	  4.97480	703.08002	 23.50	
  6.808	-152.311	  4.88909	  1.77733	  3.50686	  2.14269	  3.11876	 -0.03571	  4.97144	703.03101	 23.50	
  6.795	-138.383	  4.89102	  1.89467	  3.36538	  1.95852	  3.32933	 -0.03576	  4.97689	702.88202	 23.50	
  6.792	-124.591	  4.88723	  2.04954	  3.17624	  1.80944	  3.49625	 -0.03787	  4.97525	702.98999	 23.50	
  6.787	-110.754	  4.88572	  2.24351	  2.95633	  1.71118	  3.61086	 -0.04463	  4.97701	703.06897	 23.50	
  6.800	-96.985	  4.89438	  2.46503	  2.72968	  1.66298	  3.67615	 -0.05159	  4.98221	703.03998	 23.50	
  6.800	-83.015	  4.88785	  2.70248	  2.48255	  1.65728	  3.67178	 -0.05164	  4.97256	703.11902	 23.50	
  6.787	-69.246	  4.89511	  2.94137	  2.26325	  1.71094	  3.61311	 -0.04973	  4.98153	703.00598	 23.50	
  6.792	-55.409	  4.89283	  3.16068	  2.06358	  1.80644	  3.49256	 -0.04938	  4.97335	703.03101	 23.50	
  6.795	-41.617	  4.88895	  3.34769	  1.89706	  1.94853	  3.32106	 -0.04638	  4.96825	702.99298	 23.50	
  6.808	-27.689	  4.89687	  3.50451	  1.77434	  2.13447	  3.11539	 -0.03995	  4.97579	703.09100	 23.50	
  6.796	-13.771	  4.90351	  3.59808	  1.70440	  2.34970	  2.88863	 -0.04083	  4.97626	703.09900	 23.50	
  6.800	  0.000	  4.90463	  3.63583	  1.67670	  2.57300	  2.65618	 -0.03995	  4.97283	703.19702	 23.50	
  6.796	 13.771	  4.90680	  3.61150	  1.70124	  2.81116	  2.42480	 -0.03488	  4.97114	703.22101	 23.50	
  6.808	 27.689	  4.90635	  3.52486	  1.77638	  3.04013	  2.21268	 -0.03387	  4.96700	703.14398	 23.50	
  6.795	 41.617	  4.92475	  3.39571	  1.90766	  3.25320	  2.04370	 -0.03073	  4.98159	703.15503	 23.50	
  6.792	 55.409	  4.92157	  3.20750	  2.07044	  3.42160	  1.90069	 -0.02642	  4.97821	703.02100	 23.50	
  6.787	 69.246	  4.92664	  2.99682	  2.26845	  3.54250	  1.80873	 -0.02735	  4.98411	703.10199	 23.50	
  6.800	 83.015	  4.91843	  2.76400	  2.48493	  3.60329	  1.75751	 -0.03025	  4.97652	703.08301	 23.50	
  6.800	 96.985	  4.92484	  2.52694	  2.72590	  3.60975	  1.75841	 -0.02980	  4.97954	703.08600	 23.50	
  6.787	110.754	  4.92653	  2.30706	  2.95994	  3.54933	  1.81036	 -0.03037	  4.98267	703.06299	 23.50	
  6.792	124.591	  4.91754	  2.10661	  3.17183	  3.42633	  1.90436	 -0.02946	  4.97169	703.13098	 23.50	
  6.795	138.383	  4.90879	  1.93342	  3.35817	  3.25326	  2.04070	 -0.02659	  4.96624	703.06201	 23.50	
  6.808	152.311	  4.91564	  1.80982	  3.51262	  3.05954	  2.21864	 -0.02748	  4.97767	703.13000	 23.50	
  6.796	166.229	  4.90452	  1.73063	  3.59476	  2.82665	  2.42655	 -0.03231	  4.96968	703.08600	 23.50	
  8.491	168.704	  4.85297	  1.43687	  3.81312	  2.77671	  2.35923	 -0.06832	  4.98050	703.07703	 23.50	
  8.502	157.493	  4.86452	  1.50677	  3.74088	  3.01605	  2.14590	 -0.06239	  4.98395	703.06500	 23.50	
  8.494	146.194	  4.85589	  1.60970	  3.60678	  3.23266	  1.94442	 -0.05888	  4.97061	703.14899	 23.50	
  8.495	135.039	  4.86202	  1.75315	  3.44615	  3.43268	  1.77574	 -0.06307	  4.97504	703.08801	 23.50	
  8.487	123.723	  4.86031	  1.92343	  3.24238	  3.59816	  1.63582	 -0.06983	  4.97336	703.10400	 23.50	
  8.492	112.575	  4.87473	  2.12921	  3.02835	  3.72868	  1.54375	 -0.06962	  4.98394	703.14398	 23.50	
  8.510	101.220	  4.86950	  2.35047	  2.78448	  3.80210	  1.48058	 -0.06804	  4.98218	703.13000	 23.50	
  8.500	 90.000	  4.85945	  2.58344	  2.53720	  3.81667	  1.45796	 -0.06640	  4.96722	702.89899	 23.50	
  8.510	 78.780	  4.86457	  2.82820	  2.29940	  3.79301	  1.47637	 -0.06624	  4.97296	703.14398	 23.60	
  8.492	 67.425	  4.87344	  3.06832	  2.08274	  3.71789	  1.54004	 -0.06590	  4.98287	703.19501	 23.50	
  8.487	 56.277	  4.87325	  3.28820	  1.88534	  3.59567	  1.63814	 -0.05856	  4.98298	702.96899	 23.50	
  8.495	 44.961	  4.87255	  3.48849	  1.71003	  3.42632	  1.77313	 -0.06420	  4.98354	703.15601	 23.60	
  8.494	 33.806	  4.85558	  3.63173	  1.56783	  3.21688	  1.93132	 -0.07250	  4.96425	703.01501	 23.60	
  8.502	 22.507	  4.86703	  3.76307	  1.46814	  2.99993	  2.13679	 -0.06991	  4.98347	703.16400	 23.60	
  8.491	 11.296	  4.85761	  3.82820	  1.40814	  2.76074	  2.35466	 -0.07174	  4.97754	703.05402	 23.60	
  8.500	  0.000	  4.86805	  3.85731	  1.39124	  2.52116	  2.60210	 -0.07939	  4.99294	703.07898	 23.60	
  8.491	-11.296	  4.85131	  3.81774	  1.41120	  2.27868	  2.84036	 -0.07872	  4.98626	703.13098	 23.60	
  8.502	-22.507	  4.84716	  3.73804	  1.46780	  2.05517	  3.07780	 -0.07403	  4.98758	703.03802	 23.50	
  8.494	-33.806	  4.84006	  3.60364	  1.57053	  1.85346	  3.30134	 -0.07758	  4.98363	702.88300	 23.60	
  8.495	-44.961	  4.82855	  3.43017	  1.70251	  1.67707	  3.49527	 -0.08514	  4.97326	702.98602	 23.60	
  8.487	-56.277	  4.84205	  3.23246	  1.88644	  1.54977	  3.66716	 -0.08905	  4.99045	703.09399	 23.60	
  8.492	-67.425	  4.83366	  3.00474	  2.08034	  1.44572	  3.78607	 -0.09177	  4.98443	703.06897	 23.60	
  8.510	-78.780	  4.82426	  2.75781	  2.30069	  1.37791	  3.86033	 -0.09126	  4.97755	702.96100	 23.60	
  8.500	-90.000	  4.82492	  2.51466	  2.54273	  1.36322	  3.88458	 -0.09301	  4.97857	703.03699	 23.60	
  8.510	-101.220	  4.83635	  2.28366	  2.79290	  1.38619	  3.87096	 -0.08874	  4.99283	703.00702	 23.60	
  8.492	-112.575	  4.82263	  2.05522	  3.02581	  1.44942	  3.77962	 -0.08034	  4.97870	703.07599	 23.60	
  8.487	-123.723	  4.82724	  1.86692	  3.25051	  1.55188	  3.66386	 -0.07168	  4.98133	703.15601	 23.60	
  8.495	-135.039	  4.82398	  1.69466	  3.44878	  1.68561	  3.49878	 -0.07417	  4.97907	703.11401	 23.60	
  8.494	-146.194	  4.82300	  1.56280	  3.61079	  1.85835	  3.30037	 -0.07335	  4.97370	703.03101	 23.60	
  8.502	-157.493	  4.83479	  1.47145	  3.74005	  2.06774	  3.07612	 -0.07122	  4.97928	703.19702	 23.60	
  8.491	-168.704	  4.84019	  1.41936	  3.81367	  2.29099	  2.83826	 -0.06542	  4.97768	703.15503	 23.60	
  8.500	180.000	  4.84880	  1.40767	  3.84116	  2.52913	  2.59994	 -0.06746	  4.98121	703.22498	 23.60	
 10.200	180.000	  4.76670	  1.11752	  4.02963	  2.45338	  2.52398	 -0.10550	  4.97635	703.18103	 23.60	
 10.191	-170.497	  4.75088	  1.12403	  3.99938	  2.20829	  2.76471	 -0.10510	  4.96677	703.11102	 23.60	
 10.210	-161.034	  4.75519	  1.16936	  3.94509	  1.98080	  3.01279	 -0.11096	  4.98077	703.11102	 23.60	
 10.194	-151.526	  4.74208	  1.24542	  3.83044	  1.76409	  3.24407	 -0.11117	  4.97061	703.19501	 23.60	
 10.190	-142.105	  4.74570	  1.35838	  3.69142	  1.57946	  3.46360	 -0.10721	  4.98030	703.20300	 23.60	
 10.215	-132.646	  4.74266	  1.49651	  3.51508	  1.41712	  3.65311	 -0.10597	  4.98287	703.14899	 23.60	
 10.203	-123.092	  4.73560	  1.66822	  3.30185	  1.28210	  3.81243	 -0.10896	  4.97740	703.14398	 23.60	
 10.192	-113.678	  4.73977	  1.86281	  3.07749	  1.18041	  3.94010	 -0.12176	  4.98146	702.97601	 23.60	
 10.208	-104.249	  4.72634	  2.07251	  2.82836	  1.10195	  4.01893	 -0.13262	  4.96704	703.12500	 23.60	
 10.210	-94.801	  4.73724	  2.30625	  2.59151	  1.06834	  4.07053	 -0.14067	  4.98139	703.16199	 23.60	
 10.210	-85.199	  4.75587	  2.56516	  2.35017	  1.07321	  4.08487	 -0.13834	  4.99498	703.21802	 23.60	
 10.208	-75.751	  4.74713	  2.80824	  2.11008	  1.10567	  4.03234	 -0.13589	  4.98291	703.15503	 23.60	
 10.192	-66.322	  4.75635	  3.05238	  1.89402	  1.17832	  3.94727	 -0.13474	  4.98997	703.18903	 23.60	
 10.203	-56.908	  4.74645	  3.27530	  1.68795	  1.27693	  3.80722	 -0.12887	  4.97546	703.04901	 23.60	
 10.215	-47.354	  4.74998	  3.48899	  1.51031	  1.40476	  3.64941	 -0.12811	  4.98018	703.13501	 23.60	
 10.190	-37.895	  4.74987	  3.66702	  1.36606	  1.56915	  3.45199	 -0.12026	  4.97414	703.15900	 23.60	
 10.194	-28.474	  4.75005	  3.81468	  1.24564	  1.75204	  3.23467	 -0.11684	  4.96908	703.06500	 23.60	
 10.210	-18.966	  4.76764	  3.93606	  1.16514	  1.97330	  3.00368	 -0.11345	  4.98268	703.10797	 23.60	
 10.191	 -9.503	  4.76546	  3.99995	  1.11389	  2.19676	  2.75728	 -0.12031	  4.97269	703.06897	 23.60	
 10.200	  0.000	  4.78713	  4.04745	  1.09495	  2.44035	  2.52658	 -0.12167	  4.99076	703.10199	 23.60	
 10.191	  9.503	  4.78370	  4.02356	  1.11173	  2.68582	  2.27927	 -0.11622	  4.97793	703.03400	 23.60	
 10.210	 18.966	  4.79226	  3.97060	  1.16199	  2.93152	  2.05406	 -0.11429	  4.98201	702.94397	 23.60	
 10.194	 28.474	  4.79303	  3.86503	  1.24857	  3.16556	  1.84374	 -0.11177	  4.97921	703.06500	 23.60	
 10.190	 37.895	  4.80018	  3.72880	  1.36679	  3.38996	  1.65827	 -0.10793	  4.98427	703.07300	 23.60	
 10.215	 47.354	  4.79503	  3.55381	  1.51018	  3.58219	  1.49612	 -0.09992	  4.97748	703.08801	 23.60	
 10.203	 56.908	  4.79577	  3.34720	  1.68855	  3.74706	  1.36463	 -0.09736	  4.97832	703.16199	 23.60	
 10.192	 66.322	  4.79778	  3.12749	  1.88913	  3.87242	  1.27486	 -0.09744	  4.97646	702.95203	 23.60	
 10.208	 75.751	  4.79409	  2.89069	  2.10538	  3.96329	  1.20348	 -0.10353	  4.97637	703.03802	 23.60	
 10.210	 85.199	  4.80396	  2.65269	  2.34598	  4.01592	  1.17638	 -0.10931	  4.98476	703.15503	 23.60	
 10.210	 94.801	  4.79633	  2.39919	  2.59026	  4.01228	  1.17394	 -0.10889	  4.97579	703.07599	 23.60	
 10.208	104.249	  4.78987	  2.16152	  2.83268	  3.96549	  1.20671	 -0.10955	  4.97107	703.12500	 23.60	
 10.192	113.678	  4.79664	  1.94444	  3.07640	  3.88317	  1.27846	 -0.11190	  4.97743	703.15601	 23.60	
 10.203	123.092	  4.79585	  1.74201	  3.30397	  3.76088	  1.37533	 -0.11108	  4.97722	703.15198	 23.60	
 10.215	132.646	  4.79826	  1.56403	  3.51455	  3.60383	  1.50277	 -0.10528	  4.98503	703.14099	 23.60	
 10.190	142.105	  4.78685	  1.41441	  3.68472	  3.40134	  1.66212	 -0.09665	  4.97228	703.06500	 23.60	
 10.194	151.526	  4.78215	  1.28949	  3.83183	  3.18177	  1.84817	 -0.09756	  4.97249	703.04901	 23.60	
 10.210	161.034	  4.78199	  1.20181	  3.94360	  2.94953	  2.05964	 -0.10242	  4.97595	703.11798	 23.60	
 10.191	170.497	  4.77713	  1.14655	  4.00952	  2.70760	  2.28428	 -0.10517	  4.97721	703.17999	 23.60	
 11.899	171.783	  4.68987	  0.85347	  4.19330	  2.63044	  2.19670	 -0.14756	  4.98631	703.22498	 23.60	
 11.890	163.610	  4.69228	  0.90055	  4.13397	  2.87301	  1.96824	 -0.14138	  4.98371	703.18298	 23.60	
 11.889	155.445	  4.68482	  0.97358	  4.02963	  3.10483	  1.74987	 -0.13791	  4.96822	703.07599	 23.60	
 11.909	147.299	  4.69611	  1.07823	  3.90848	  3.34297	  1.55133	 -0.13466	  4.97729	703.00598	 23.60	
 11.902	139.148	  4.71101	  1.21090	  3.75620	  3.55946	  1.38171	 -0.13888	  4.98945	703.12701	 23.60	
 11.894	130.867	  4.70743	  1.37035	  3.55855	  3.74169	  1.23158	 -0.14687	  4.98052	703.09998	 23.60	
 11.897	122.732	  4.69960	  1.54350	  3.34375	  3.89582	  1.10167	 -0.15586	  4.97243	703.04199	 23.60	
 11.903	114.597	  4.71013	  1.74492	  3.12070	  4.03465	  1.00573	 -0.15866	  4.98452	703.00098	 23.60	
 11.893	106.346	  4.71596	  1.96924	  2.87884	  4.13303	  0.93079	 -0.16117	  4.98918	703.04797	 23.60	
 11.892	 98.155	  4.70534	  2.19698	  2.62520	  4.17994	  0.88835	 -0.15704	  4.97877	702.97498	 23.60	
 11.900	 90.000	  4.70727	  2.44039	  2.37852	  4.19946	  0.87155	 -0.15592	  4.97993	703.00598	 23.60	
 11.892	 81.845	  4.70090	  2.68206	  2.13360	  4.17145	  0.88599	 -0.14966	  4.97215	703.10199	 23.60	
 11.893	 73.654	  4.71004	  2.93557	  1.90439	  4.11553	  0.93275	 -0.14129	  4.98072	703.13000	 23.60	
 11.903	 65.403	  4.71131	  3.17469	  1.68688	  4.02069	  1.00127	 -0.13818	  4.98212	703.15198	 23.60	
 11.897	 57.268	  4.71100	  3.40233	  1.48753	  3.88570	  1.10238	 -0.13126	  4.98137	703.16998	 23.60	
 11.894	 49.133	  4.71162	  3.61010	  1.31182	  3.72175	  1.22876	 -0.13514	  4.98206	703.07898	 23.60	
 11.902	 40.852	  4.70479	  3.78657	  1.15722	  3.52938	  1.37301	 -0.14280	  4.97517	703.04498	 23.60	
 11.909	 32.701	  4.70873	  3.94447	  1.03215	  3.32138	  1.54885	 -0.14780	  4.98143	703.04901	 23.60	
 11.889	 24.555	  4.70941	  4.06904	  0.93398	  3.09216	  1.74641	 -0.15610	  4.98301	702.96997	 23.60	
 11.890	 16.390	  4.70183	  4.15376	  0.86272	  2.84776	  1.96090	 -0.15457	  4.98162	703.00598	 23.60	
 11.899	  8.217	  4.68933	  4.19884	  0.81603	  2.59772	  2.18568	 -0.15652	  4.97637	702.92401	 23.60	
 11.900	  0.000	  4.68911	  4.21614	  0.80387	  2.34984	  2.43422	 -0.15791	  4.98195	703.00702	 23.60	
 11.899	 -8.217	  4.67556	  4.18560	  0.81611	  2.10629	  2.67456	 -0.15560	  4.97551	703.09601	 23.60	
 11.890	-16.390	  4.67196	  4.12295	  0.85965	  1.87387	  2.92370	 -0.15206	  4.98094	702.95801	 23.60	
 11.889	-24.555	  4.66206	  4.02066	  0.93128	  1.65633	  3.16167	 -0.14939	  4.97582	703.17200	 23.60	
 11.909	-32.701	  4.67379	  3.90139	  1.03630	  1.46689	  3.40191	 -0.15183	  4.99531	703.18903	 23.60	
 11.902	-40.852	  4.64882	  3.71890	  1.15694	  1.28567	  3.59391	 -0.15931	  4.97314	703.12402	 23.60	
 11.894	-49.133	  4.65601	  3.53082	  1.31531	  1.13355	  3.79112	 -0.16219	  4.98245	703.02899	 23.60	
 11.897	-57.268	  4.64408	  3.30938	  1.48717	  1.00412	  3.94489	 -0.16675	  4.97348	703.07599	 23.60	
 11.903	-65.403	  4.64314	  3.08039	  1.68545	  0.90339	  4.07494	 -0.17077	  4.97763	702.98901	 23.60	
 11.893	-73.654	  4.64711	  2.83588	  1.90925	  0.83776	  4.17145	 -0.17337	  4.98204	703.13300	 23.60	
 11.892	-81.845	  4.65146	  2.59019	  2.14511	  0.79564	  4.23506	 -0.18288	  4.99220	703.14697	 23.60	
 11.900	-90.000	  4.64699	  2.34095	  2.38656	  0.78064	  4.25226	 -0.18500	  4.98950	703.06000	 23.60	
 11.892	-98.155	  4.64842	  2.10388	  2.63425	  0.79898	  4.23466	 -0.17859	  4.99146	703.10400	 23.60	
 11.893	-106.346	  4.64187	  1.87063	  2.87756	  0.83998	  4.17546	 -0.16972	  4.98318	702.96899	 23.60	
 11.903	-114.597	  4.63682	  1.65330	  3.12017	  0.90922	  4.08181	 -0.15890	  4.98254	703.01398	 23.60	
 11.897	-122.732	  4.63832	  1.46295	  3.34862	  1.01226	  3.95211	 -0.14709	  4.98301	703.07300	 23.60	
 11.894	-130.867	  4.63370	  1.29350	  3.55297	  1.14097	  3.78804	 -0.14350	  4.97651	703.01703	 23.60	
 11.902	-139.148	  4.64889	  1.14816	  3.75584	  1.29945	  3.60840	 -0.14445	  4.99048	703.06000	 23.60	
 11.909	-147.299	  4.65041	  1.02515	  3.91338	  1.47140	  3.40118	 -0.15265	  4.98541	703.06201	 23.60	
 11.889	-155.445	  4.64843	  0.93574	  4.03295	  1.67480	  3.16473	 -0.14979	  4.97532	702.96698	 23.60	
 11.890	-163.610	  4.66661	  0.87353	  4.13711	  1.90029	  2.93052	 -0.15143	  4.98569	703.03998	 23.60	
 11.899	-171.783	  4.66682	  0.83671	  4.18694	  2.12907	  2.68207	 -0.14766	  4.97886	703.05402	 23.60	
 11.900	180.000	  4.67445	  0.83097	  4.20457	  2.36853	  2.43981	 -0.14944	  4.97777	703.01501	 23.60	
 13.600	180.000	  4.56462	  0.54359	  4.36578	  2.27511	  2.33793	 -0.19105	  4.98181	703.04797	 23.60	
 13.608	-172.853	  4.55414	  0.54526	  4.34968	  2.03362	  2.57611	 -0.19332	  4.98020	703.10999	 23.60	
 13.611	-165.583	  4.55161	  0.57714	  4.30461	  1.79915	  2.82849	 -0.19582	  4.98410	703.12500	 23.60	
 13.601	-158.353	  4.54593	  0.63170	  4.22267	  1.57395	  3.07924	 -0.19455	  4.98889	703.06799	 23.60	
 13.609	-151.210	  4.53192	  0.70786	  4.10189	  1.36698	  3.30627	 -0.18857	  4.98215	702.93903	 23.60	
 13.611	-143.999	  4.52454	  0.80838	  3.95631	  1.18008	  3.52492	 -0.18506	  4.98149	703.09100	 23.60	
 13.601	-136.825	  4.51852	  0.93384	  3.78392	  1.01216	  3.72825	 -0.18194	  4.97772	703.09100	 23.60	
 13.596	-129.640	  4.51447	  1.08175	  3.58466	  0.86493	  3.91046	 -0.17760	  4.97591	702.97302	 23.60	
 13.611	-122.431	  4.51576	  1.25272	  3.37217	  0.74185	  4.07230	 -0.18468	  4.98035	703.10699	 23.60	
 13.604	-115.211	  4.52094	  1.44585	  3.14469	  0.64700	  4.20365	 -0.19012	  4.98411	703.02100	 23.60	
 13.595	-108.042	  4.52663	  1.65382	  2.90716	  0.57328	  4.30522	 -0.19839	  4.99021	702.97601	 23.60	
 13.607	-100.793	  4.50851	  1.87343	  2.64727	  0.51707	  4.35677	 -0.20127	  4.97333	702.90802	 23.60	
 13.601	-93.617	  4.52386	  2.11387	  2.40779	  0.49615	  4.40073	 -0.20304	  4.98350	703.10797	 23.60	
 13.601	-86.383	  4.52521	  2.35884	  2.16082	  0.49625	  4.39893	 -0.20406	  4.98257	703.00098	 23.60	
 13.607	-79.207	  4.53667	  2.61267	  1.92674	  0.51740	  4.37749	 -0.19999	  4.99687	703.05701	 23.60	
 13.595	-71.958	  4.52893	  2.85712	  1.69535	  0.57005	  4.29625	 -0.19409	  4.98062	703.06500	 23.60	
 13.604	-64.789	  4.52881	  3.09985	  1.47890	  0.63763	  4.19826	 -0.19318	  4.97965	703.11102	 23.60	
 13.611	-57.569	  4.53586	  3.33785	  1.28394	  0.73563	  4.07339	 -0.19144	  4.98496	703.18298	 23.60	
 13.596	-50.360	  4.53631	  3.55634	  1.10747	  0.85601	  3.91310	 -0.18745	  4.98271	703.15900	 23.60	
 13.601	-43.175	  4.53497	  3.75077	  0.94968	  0.99824	  3.72483	 -0.18520	  4.97657	703.12201	 23.60	
 13.611	-36.001	  4.54341	  3.93024	  0.81991	  1.16727	  3.52201	 -0.18428	  4.98073	703.22101	 23.60	
 13.609	-28.790	  4.53971	  4.07164	  0.71194	  1.35109	  3.29366	 -0.17991	  4.96571	703.05499	 23.60	
 13.601	-21.647	  4.55552	  4.20201	  0.62671	  1.55380	  3.07034	 -0.17886	  4.97758	703.10797	 23.60	
 13.611	-14.417	  4.57149	  4.30276	  0.56182	  1.77752	  2.82923	 -0.17641	  4.99198	703.09998	 23.60	
 13.608	 -7.147	  4.57678	  4.35566	  0.52762	  2.01279	  2.58052	 -0.18085	  4.98661	703.12201	 23.60	
 13.600	  0.000	  4.57603	  4.37101	  0.51463	  2.24773	  2.33290	 -0.17913	  4.97890	703.11603	 23.60	
 13.608	  7.147	  4.58302	  4.36231	  0.52365	  2.49195	  2.09155	 -0.18631	  4.97907	703.17798	 23.60	
 13.611	 14.417	  4.59637	  4.32326	  0.56302	  2.74796	  1.85785	 -0.19120	  4.98525	703.20898	 23.60	
 13.601	 21.647	  4.59498	  4.24051	  0.62419	  2.98774	  1.64265	 -0.18265	  4.97782	703.13098	 23.60	
 13.609	 28.790	  4.59067	  4.12913	  0.70732	  3.22159	  1.43586	 -0.17978	  4.96963	703.26001	 23.60	
 13.611	 36.001	  4.60711	  4.00265	  0.81766	  3.45796	  1.25440	 -0.17697	  4.98350	703.22101	 23.60	
 13.601	 43.175	  4.61091	  3.83976	  0.95183	  3.66387	  1.09637	 -0.17337	  4.98953	703.12701	 23.60	
 13.596	 50.360	  4.60736	  3.64816	  1.10706	  3.84666	  0.95337	 -0.16616	  4.98316	703.16400	 23.60	
 13.611	 57.569	  4.59577	  3.42964	  1.27739	  4.00487	  0.82487	 -0.16527	  4.97166	703.21997	 23.60	
 13.604	 64.789	  4.61023	  3.21259	  1.47846	  4.15200	  0.73124	 -0.16856	  4.99015	703.18903	 23.60	
 13.595	 71.958	  4.60362	  2.97046	  1.68819	  4.24616	  0.66117	 -0.17482	  4.97852	703.14203	 23.60	
 13.607	 79.207	  4.60746	  2.72535	  1.91815	  4.32002	  0.61131	 -0.18442	  4.98538	703.14697	 23.60	
 13.601	 86.383	  4.60354	  2.47794	  2.15557	  4.35181	  0.59123	 -0.19022	  4.98133	703.16400	 23.60	
 13.601	 93.617	  4.61172	  2.23289	  2.40724	  4.36297	  0.59201	 -0.19567	  4.99042	703.17499	 23.60	
 13.607	100.793	  4.59963	  1.98682	  2.64852	  4.32002	  0.61448	 -0.20041	  4.97369	703.03699	 23.60	
 13.595	108.042	  4.61192	  1.76505	  2.90487	  4.26297	  0.66728	 -0.20082	  4.98882	703.17999	 23.60	
 13.604	115.211	  4.60845	  1.54427	  3.14607	  4.16867	  0.73155	 -0.20031	  4.98909	703.16199	 23.60	
 13.611	122.431	  4.59649	  1.34140	  3.37121	  4.02754	  0.82829	 -0.19266	  4.97627	703.16400	 23.60	
 13.596	129.640	  4.60377	  1.17089	  3.58901	  3.87260	  0.95572	 -0.18531	  4.97997	703.08301	 23.60	
 13.601	136.825	  4.61129	  1.01565	  3.79542	  3.69514	  1.10340	 -0.18188	  4.99192	703.10199	 23.60	
 13.611	143.999	  4.60330	  0.87066	  3.96545	  3.49180	  1.25975	 -0.17367	  4.98945	703.09399	 23.60	
 13.609	151.210	  4.58428	  0.75790	  4.09592	  3.25608	  1.44118	 -0.17569	  4.97390	703.13898	 23.60	
 13.601	158.353	  4.59545	  0.67412	  4.22319	  3.02721	  1.65173	 -0.18092	  4.98930	703.16602	 23.60	
 13.611	165.583	  4.57614	  0.60409	  4.29605	  2.77214	  1.86508	 -0.18290	  4.97606	703.12500	 23.60	
 13.608	172.853	  4.57470	  0.56134	  4.35134	  2.52658	  2.09889	 -0.18667	  4.98166	703.16699	 23.60	
 15.298	173.587	  4.44574	  0.28149	  4.49205	  2.41682	  1.98600	 -0.22587	  4.97889	703.18103	 23.60	
 15.291	167.167	  4.46284	  0.31892	  4.45544	  2.67054	  1.76006	 -0.22088	  4.98573	703.13800	 23.60	
 15.307	160.676	  4.45505	  0.37455	  4.36616	  2.90900	  1.53722	 -0.21602	  4.97089	703.02100	 23.60	
 15.300	154.261	  4.46899	  0.45267	  4.27068	  3.15837	  1.33062	 -0.21293	  4.97983	703.08002	 23.60	
 15.288	147.854	  4.47065	  0.55435	  4.13751	  3.38682	  1.14299	 -0.20978	  4.97863	703.21997	 23.60	
 15.293	141.428	  4.48205	  0.67368	  3.98784	  3.60914	  0.97312	 -0.20996	  4.98676	703.24298	 23.60	
 15.299	134.985	  4.47514	  0.80718	  3.79962	  3.80615	  0.81098	 -0.21480	  4.97772	703.18597	 23.60	
 15.305	128.583	  4.49175	  0.96273	  3.61212	  3.99982	  0.67491	 -0.22292	  4.99676	703.09302	 23.60	
 15.309	122.142	  4.47968	  1.14040	  3.38174	  4.14040	  0.56358	 -0.22392	  4.97917	703.12500	 23.60	
 15.304	115.711	  4.48314	  1.33879	  3.15095	  4.26900	  0.47297	 -0.22808	  4.98083	702.95001	 23.60	
 15.297	109.291	  4.47992	  1.54670	  2.90894	  4.37013	  0.39797	 -0.22674	  4.97831	702.99200	 23.60	
 15.293	102.897	  4.47621	  1.76757	  2.66114	  4.43828	  0.34742	 -0.22567	  4.97201	703.04602	 23.60	
 15.293	 96.458	  4.48343	  2.00652	  2.41670	  4.49013	  0.31616	 -0.22181	  4.98333	703.16400	 23.60	
 15.300	 90.000	  4.47986	  2.24802	  2.16682	  4.50088	  0.30499	 -0.21952	  4.97842	703.12201	 23.60	
 15.293	 83.542	  4.48571	  2.49344	  1.92923	  4.48782	  0.31177	 -0.22050	  4.98335	703.01703	 23.60	
 15.293	 77.103	  4.48610	  2.74509	  1.69264	  4.43989	  0.34390	 -0.20936	  4.98330	703.01501	 23.60	
 15.297	 70.709	  4.48498	  2.98483	  1.47271	  4.35968	  0.39615	 -0.20426	  4.98074	703.06000	 23.60	
 15.304	 64.289	  4.48818	  3.22631	  1.26470	  4.25868	  0.46778	 -0.19861	  4.98724	703.05499	 23.60	
 15.309	 57.858	  4.47342	  3.44286	  1.06639	  4.11353	  0.55282	 -0.19622	  4.97137	703.07300	 23.60	
 15.305	 51.417	  4.47967	  3.65976	  0.89602	  3.95564	  0.67178	 -0.19307	  4.97697	703.21802	 23.60	
 15.299	 45.015	  4.48571	  3.85999	  0.74168	  3.77775	  0.80630	 -0.19584	  4.98600	703.06897	 23.60	
 15.293	 38.572	  4.49384	  4.03979	  0.61102	  3.57780	  0.96633	 -0.19672	  4.99073	703.25702	 23.60	
 15.288	 32.146	  4.48051	  4.17793	  0.49582	  3.35058	  1.13545	 -0.19679	  4.97918	703.17798	 23.60	
 15.300	 25.739	  4.49171	  4.31924	  0.39910	  3.12814	  1.32844	 -0.19659	  4.99622	703.15802	 23.60	
 15.307	 19.324	  4.47609	  4.40234	  0.32707	  2.87899	  1.53180	 -0.19716	  4.98400	703.11902	 23.60	
 15.291	 12.833	  4.47780	  4.47324	  0.27677	  2.63488	  1.75536	 -0.19534	  4.98772	703.20599	 23.60	
 15.298	  6.413	  4.46256	  4.50406	  0.24643	  2.38528	  1.98194	 -0.19511	  4.98067	703.11902	 23.60	
 15.300	  0.000	  4.46101	  4.51651	  0.23665	  2.14038	  2.22728	 -0.19725	  4.98717	703.07599	 23.60	
 15.298	 -6.413	  4.45203	  4.49828	  0.24463	  1.90188	  2.46841	 -0.18932	  4.98801	703.27399	 23.60	
 15.291	-12.833	  4.44743	  4.44569	  0.27991	  1.67372	  2.71366	 -0.19329	  4.98787	703.10699	 23.60	
 15.307	-19.324	  4.43240	  4.36173	  0.32906	  1.44300	  2.96216	 -0.19037	  4.98227	703.13898	 23.60	
 15.300	-25.739	  4.42351	  4.24965	  0.40388	  1.23987	  3.19546	 -0.19144	  4.97984	703.08502	 23.60	
 15.288	-32.146	  4.42819	  4.12219	  0.50266	  1.05617	  3.43140	 -0.19189	  4.99137	703.15503	 23.60	
 15.293	-38.572	  4.41238	  3.94918	  0.61658	  0.87819	  3.63993	 -0.19637	  4.98023	703.07703	 23.60	
 15.299	-45.015	  4.40820	  3.76585	  0.74729	  0.71756	  3.84266	 -0.19644	  4.98375	703.14697	 23.60	
 15.305	-51.417	  4.40847	  3.56728	  0.90258	  0.58943	  4.02013	 -0.19836	  4.98686	703.13898	 23.60	
 15.309	-57.858	  4.40901	  3.34638	  1.07712	  0.47486	  4.17681	 -0.19868	  4.98752	703.20398	 23.60	
 15.304	-64.289	  4.39576	  3.10405	  1.26885	  0.38078	  4.29748	 -0.19404	  4.97563	703.17200	 23.60	
 15.297	-70.709	  4.39804	  2.86027	  1.47890	  0.30623	  4.40641	 -0.19685	  4.98303	703.23999	 23.60	
 15.293	-77.103	  4.41155	  2.62615	  1.70392	  0.25259	  4.50066	 -0.20078	  5.00405	703.24200	 23.60	
 15.293	-83.542	  4.41610	  2.37925	  1.93821	  0.21796	  4.55472	 -0.20841	  5.01623	703.28497	 23.60	
 15.300	-90.000	  4.40943	  2.12557	  2.18214	  0.21060	  4.56404	 -0.21225	  5.00766	703.28198	 23.60	
 15.293	-96.458	  4.39981	  1.88370	  2.42485	  0.22063	  4.54188	 -0.21525	  4.99926	703.23999	 23.60	
 15.293	-102.897	  4.39410	  1.65058	  2.67050	  0.25158	  4.49401	 -0.21991	  4.99541	703.29901	 23.60	
 15.297	-109.291	  4.37598	  1.42789	  2.90723	  0.30655	  4.40195	 -0.21759	  4.97498	703.38300	 23.60	
 15.304	-115.711	  4.38252	  1.22799	  3.15197	  0.38299	  4.30603	 -0.21502	  4.98117	703.28998	 23.60	
 15.309	-122.142	  4.38763	  1.04207	  3.38706	  0.47771	  4.18046	 -0.21194	  4.98719	703.31097	 23.60	
 15.305	-128.583	  4.37970	  0.87332	  3.59811	  0.59613	  4.01525	 -0.21033	  4.97757	703.24200	 23.60	
 15.299	-134.985	  4.39477	  0.72655	  3.80831	  0.72995	  3.85163	 -0.21322	  4.99364	703.29901	 23.60	
 15.293	-141.428	  4.39544	  0.59962	  3.98491	  0.89007	  3.64618	 -0.21852	  4.98794	703.24298	 23.60	
 15.288	-147.854	  4.38558	  0.48997	  4.12822	  1.06513	  3.41661	 -0.22586	  4.96851	703.28302	 23.60	
 15.300	-154.261	  4.40210	  0.40137	  4.27097	  1.25708	  3.19778	 -0.22941	  4.98233	703.18903	 23.60	
 15.307	-160.676	  4.41419	  0.33677	  4.37866	  1.46839	  2.96294	 -0.23102	  4.98642	703.26202	 23.60	
 15.291	-167.167	  4.40959	  0.29385	  4.43465	  1.69237	  2.70612	 -0.23051	  4.96976	703.15002	 23.60	
 15.298	-173.587	  4.43282	  0.26879	  4.49487	  1.92944	  2.46949	 -0.23032	  4.98382	703.31598	 23.60	
 15.300	180.000	  4.43116	  0.26609	  4.49726	  2.16510	  2.22307	 -0.22623	  4.96963	703.29901	 23.60	
 17.000	180.000	  4.29047	 -0.00706	  4.62612	  2.04946	  2.10122	 -0.25162	  4.97546	703.20398	 23.60	
 16.990	-174.179	  4.29186	  0.00013	  4.62219	  1.81825	  2.34769	 -0.25524	  4.98651	703.27399	 23.60	
 17.009	-168.383	  4.27476	  0.01772	  4.57746	  1.58413	  2.58532	 -0.25389	  4.98255	703.16699	 23.60	
 17.000	-162.596	  4.26571	  0.05535	  4.51076	  1.36109	  2.83124	 -0.24970	  4.98399	703.21100	 23.60	
 16.990	-156.759	  4.26676	  0.11250	  4.42903	  1.15529	  3.07745	 -0.25363	  4.99248	703.26599	 23.60	
 16.995	-150.919	  4.25496	  0.19214	  4.30154	  0.95709	  3.31022	 -0.24909	  4.98708	703.21198	 23.60	
 16.988	-145.161	  4.24429	  0.28192	  4.15559	  0.77438	  3.52995	 -0.24489	  4.98294	703.16400	 23.60	
 17.014	-139.343	  4.24539	  0.39136	  3.99583	  0.60851	  3.74937	 -0.24392	  4.99007	703.16602	 23.60	
 17.007	-133.546	  4.23233	  0.51895	  3.80303	  0.46313	  3.92913	 -0.23510	  4.97917	703.32202	 23.60	
 17.001	-127.699	  4.23442	  0.66955	  3.59893	  0.33275	  4.11176	 -0.23160	  4.98453	703.13501	 23.60	
 17.006	-121.937	  4.24026	  0.83489	  3.38739	  0.22283	  4.27186	 -0.22916	  4.99140	703.20398	 23.60	
 17.002	-116.134	  4.22364	  1.01051	  3.14566	  0.12801	  4.38586	 -0.22957	  4.97402	703.32098	 23.60	
 17.001	-110.310	  4.21885	  1.20340	  2.90005	  0.05124	  4.48873	 -0.22580	  4.97109	703.26501	 23.60	
 16.988	-104.517	  4.23287	  1.42354	  2.66334	  0.00259	  4.57648	 -0.21921	  4.98037	703.11902	 23.60	
 17.008	-98.662	  4.22635	  1.64145	  2.41282	 -0.03560	  4.61901	 -0.21332	  4.96837	703.13898	 23.60	
 16.996	-92.909	  4.22977	  1.86966	  2.17021	 -0.05767	  4.64791	 -0.20245	  4.97399	703.22498	 23.60	
 16.996	-87.091	  4.22681	  2.10708	  1.92935	 -0.05578	  4.64165	 -0.19989	  4.96877	703.12500	 23.60	
 17.012	-81.253	  4.24777	  2.36464	  1.69999	 -0.04280	  4.63860	 -0.18618	  4.98958	703.05200	 23.60	
 16.988	-75.483	  4.24966	  2.60684	  1.47745	 -0.00194	  4.58064	 -0.18751	  4.98792	703.09399	 23.60	
 17.001	-69.690	  4.23650	  2.84468	  1.25461	  0.04888	  4.48699	 -0.18499	  4.96702	703.13800	 23.60	
 17.002	-63.866	  4.24385	  3.09145	  1.05560	  0.12308	  4.38655	 -0.18359	  4.97335	703.19000	 23.60	
 17.006	-58.063	  4.26644	  3.33834	  0.87267	  0.21214	  4.27434	 -0.18927	  4.99465	703.04901	 23.60	
 17.001	-52.301	  4.25144	  3.54627	  0.69913	  0.32286	  4.10286	 -0.18832	  4.97366	703.09900	 23.60	
 17.007	-46.454	  4.26055	  3.76225	  0.54509	  0.44627	  3.93422	 -0.19322	  4.98256	703.15601	 23.60	
 17.014	-40.657	  4.26834	  3.95895	  0.40780	  0.58879	  3.74898	 -0.19240	  4.98903	703.09302	 23.60	
 16.988	-34.839	  4.27414	  4.12727	  0.29277	  0.75277	  3.53606	 -0.19352	  4.98320	703.13300	 23.60	
 16.995	-29.081	  4.27283	  4.26931	  0.18922	  0.92703	  3.30730	 -0.19429	  4.97874	703.15002	 23.60	
 16.990	-23.241	  4.28597	  4.40114	  0.10894	  1.12352	  3.07873	 -0.19135	  4.98520	703.26801	 23.60	
 17.000	-17.404	  4.29732	  4.50307	  0.04716	  1.33178	  2.83992	 -0.18560	  4.98887	703.21802	 23.60	
 17.009	-11.617	  4.30111	  4.57335	  0.00161	  1.55099	  2.59095	 -0.18464	  4.98447	703.11603	 23.60	
 16.990	 -5.821	  4.30899	  4.61449	 -0.02295	  1.78024	  2.34671	 -0.19508	  4.98064	703.24902	 23.60	
 17.000	  0.000	  4.31692	  4.63673	 -0.03715	  2.01233	  2.10543	 -0.18985	  4.98300	703.24298	 23.60	
 16.990	  5.821	  4.31824	  4.62294	 -0.02576	  2.25647	  1.86318	 -0.18716	  4.97480	703.12201	 23.60	
 17.009	 11.617	  4.33306	  4.59917	 -0.00282	  2.50447	  1.63780	 -0.18540	  4.98363	703.21802	 23.60	
 17.000	 17.404	  4.33110	  4.53222	  0.04399	  2.74449	  1.41947	 -0.18850	  4.97536	703.33801	 23.60	
 16.990	 23.241	  4.33835	  4.44682	  0.10493	  2.99313	  1.20950	 -0.19378	  4.97488	703.34998	 23.60	
 16.995	 29.081	  4.34992	  4.34371	  0.18742	  3.23196	  1.01937	 -0.20282	  4.98530	703.35999	 23.60	
 16.988	 34.839	  4.34533	  4.20213	  0.28452	  3.45280	  0.84165	 -0.20522	  4.97754	703.32397	 23.60	
 17.014	 40.657	  4.35541	  4.05357	  0.40100	  3.68136	  0.67587	 -0.21054	  4.99354	703.17798	 23.60	
 17.007	 46.454	  4.35992	  3.88014	  0.53615	  3.88451	  0.53291	 -0.21362	  4.99727	703.18597	 23.60	
 17.001	 52.301	  4.33848	  3.65553	  0.68938	  4.04712	  0.40265	 -0.21345	  4.97041	703.27698	 23.50	
 17.006	 58.063	  4.35134	  3.45757	  0.85784	  4.21410	  0.29650	 -0.21650	  4.98807	703.21802	 23.60	
 17.002	 63.866	  4.35409	  3.23537	  1.04301	  4.35491	  0.20502	 -0.21758	  4.99603	703.23401	 23.50	
 17.001	 69.690	  4.35271	  2.99570	  1.24789	  4.46665	  0.13055	 -0.22283	  4.99272	703.19800	 23.50	
 16.988	 75.483	  4.34210	  2.74416	  1.46019	  4.53972	  0.07684	 -0.22804	  4.98244	703.21698	 23.50	
 17.012	 81.253	  4.33954	  2.50240	  1.68186	  4.59479	  0.04206	 -0.22804	  4.97897	703.33502	 23.50	
 16.996	 87.091	  4.34237	  2.25714	  1.92173	  4.62590	  0.02620	 -0.22915	  4.98172	703.28802	 23.50	
 16.996	 92.909	  4.35203	  2.01614	  2.16989	  4.63840	  0.02583	 -0.22733	  4.99167	703.28998	 23.50	
 17.008	 98.662	  4.35232	  1.78198	  2.41178	  4.61501	  0.04378	 -0.22942	  4.99376	703.18103	 23.50	
 16.988	104.517	  4.34595	  1.54989	  2.65926	  4.55428	  0.08251	 -0.22911	  4.98367	703.20300	 23.50	
 17.001	110.310	  4.35439	  1.33746	  2.90981	  4.48180	  0.13987	 -0.23673	  4.99423	703.25598	 23.50	
 17.002	116.134	  4.34531	  1.12920	  3.14381	  4.36701	  0.20984	 -0.23971	  4.97943	703.26501	 23.50	
 17.006	121.937	  4.35504	  0.94154	  3.38206	  4.24706	  0.30142	 -0.24351	  4.99092	703.26202	 23.50	
 17.001	127.699	  4.34881	  0.76389	  3.59888	  4.09013	  0.40902	 -0.24255	  4.98653	703.09100	 23.50	
 17.007	133.546	  4.34576	  0.60529	  3.80763	  3.91860	  0.53130	 -0.24362	  4.98923	703.22900	 23.50	
 17.014	139.343	  4.34979	  0.46723	  3.99996	  3.72576	  0.68018	 -0.24182	  4.99285	703.20300	 23.50	
 16.988	145.161	  4.34503	  0.34869	  4.16133	  3.50593	  0.84638	 -0.23911	  4.98572	703.19702	 23.50	
 16.995	150.919	  4.34757	  0.24327	  4.31328	  3.29011	  1.02011	 -0.24156	  4.99668	703.17200	 23.50	
 16.990	156.759	  4.33664	  0.15445	  4.42805	  3.04899	  1.21250	 -0.24504	  4.99243	703.32202	 23.50	
 17.000	162.596	  4.33183	  0.08828	  4.52484	  2.79973	  1.42438	 -0.25002	  4.99247	703.24902	 23.50	
 17.009	168.383	  4.31305	  0.03921	  4.57842	  2.54662	  1.63695	 -0.24853	  4.97932	703.37701	 23.50	
 16.990	174.179	  4.30026	  0.01157	  4.60932	  2.29957	  1.86292	 -0.24666	  4.97473	703.22498	 23.50	
 18.709	174.675	  4.16477	 -0.26096	  4.74469	  2.18345	  1.73911	 -0.25981	  5.00191	703.36102	 23.50	
 18.703	169.441	  4.16969	 -0.22887	  4.70255	  2.42313	  1.51768	 -0.26290	  4.99496	703.38397	 23.50	
 18.691	164.085	  4.17270	 -0.18206	  4.63606	  2.66971	  1.29691	 -0.26735	  4.98543	703.25598	 23.50	
 18.706	158.818	  4.17930	 -0.12679	  4.55488	  2.91326	  1.09160	 -0.26789	  4.99009	703.35498	 23.50	
 18.695	153.537	  4.18373	 -0.04811	  4.44220	  3.14886	  0.90300	 -0.26338	  4.98435	703.27399	 23.50	
 18.704	148.255	  4.18357	  0.04221	  4.30832	  3.37369	  0.72457	 -0.25810	  4.98284	703.25201	 23.50	
 18.698	142.952	  4.19587	  0.14852	  4.16089	  3.60553	  0.55617	 -0.25935	  4.99030	703.26202	 23.50	
 18.699	137.625	  4.19421	  0.27317	  3.98318	  3.80939	  0.40411	 -0.25533	  4.98425	703.30402	 23.50	
 18.705	132.343	  4.19246	  0.41223	  3.78548	  3.99051	  0.27366	 -0.25551	  4.97818	703.36700	 23.50	
 18.713	127.067	  4.20479	  0.56636	  3.58934	  4.17625	  0.15208	 -0.25065	  4.99250	703.41101	 23.50	
 18.700	121.794	  4.19573	  0.73024	  3.36145	  4.32047	  0.04319	 -0.24268	  4.98342	703.25897	 23.50	
 18.698	116.504	  4.19906	  0.91908	  3.12935	  4.45129	 -0.04167	 -0.23657	  4.98480	703.22498	 23.60	
 18.707	111.165	  4.19456	  1.11596	  2.88851	  4.55609	 -0.11277	 -0.23267	  4.98333	703.35498	 23.50	
 18.690	105.863	  4.20010	  1.32651	  2.64853	  4.64094	 -0.16499	 -0.22145	  4.98838	703.25201	 23.50	
 18.696	100.583	  4.18938	  1.54582	  2.39786	  4.68903	 -0.20731	 -0.21627	  4.97877	703.23700	 23.50	
 18.700	 95.309	  4.20242	  1.77750	  2.16022	  4.73450	 -0.23047	 -0.22024	  4.99056	703.32202	 23.50	
 18.700	 90.000	  4.18590	  2.01097	  1.91107	  4.72610	 -0.23404	 -0.21535	  4.97165	703.38702	 23.50	
 18.700	 84.691	  4.19100	  2.25542	  1.67969	  4.71876	 -0.22464	 -0.22245	  4.97966	703.51300	 23.50	
 18.696	 79.417	  4.19225	  2.49433	  1.45452	  4.68214	 -0.20547	 -0.23162	  4.98233	703.26202	 23.50	
 18.690	 74.137	  4.19248	  2.73772	  1.23690	  4.61862	 -0.16545	 -0.23780	  4.98042	703.31299	 23.50	
 18.707	 68.835	  4.19567	  2.98100	  1.02387	  4.53765	 -0.11732	 -0.23210	  4.98838	703.24902	 23.50	
 18.698	 63.496	  4.18954	  3.21067	  0.83194	  4.41604	 -0.04384	 -0.23376	  4.97935	703.26202	 23.50	
 18.700	 58.206	  4.20105	  3.44526	  0.65075	  4.29173	  0.04257	 -0.22459	  4.98887	703.33899	 23.50	
 18.713	 52.933	  4.20674	  3.66635	  0.48336	  4.13871	  0.14575	 -0.22121	  4.99274	703.24298	 23.50	
 18.705	 47.657	  4.19986	  3.85994	  0.33820	  3.95215	  0.26997	 -0.21809	  4.98429	703.06299	 23.50	
 18.699	 42.375	  4.20175	  4.04546	  0.20128	  3.76327	  0.40100	 -0.21389	  4.98666	703.08801	 23.50	
 18.698	 37.048	  4.20677	  4.21637	  0.08358	  3.55677	  0.55120	 -0.19887	  4.99239	703.11401	 23.50	
 18.704	 31.745	  4.20190	  4.36167	 -0.02168	  3.32678	  0.72007	 -0.18997	  4.98713	703.14697	 23.50	
 18.695	 26.463	  4.18960	  4.47215	 -0.10282	  3.09072	  0.89944	 -0.18508	  4.97406	703.16400	 23.50	
 18.706	 21.182	  4.19134	  4.57959	 -0.17748	  2.85919	  1.09079	 -0.17983	  4.98215	703.20398	 23.50	
 18.691	 15.915	  4.18975	  4.65695	 -0.22752	  2.61859	  1.29601	 -0.17908	  4.98278	703.16199	 23.50	
 18.703	 10.559	  4.18373	  4.71249	 -0.26947	  2.37060	  1.51797	 -0.17604	  4.98439	703.02100	 23.50	
 18.709	  5.325	  4.17251	  4.73716	 -0.29109	  2.13044	  1.73781	 -0.17431	  4.98113	703.10999	 23.50	
 18.700	  0.000	  4.16046	  4.73916	 -0.29886	  1.88540	  1.97414	 -0.17416	  4.98271	703.26202	 23.50	
 18.709	 -5.325	  4.15429	  4.72266	 -0.28950	  1.65206	  2.21553	 -0.17765	  4.98023	703.21997	 23.50	
 18.703	-10.559	  4.14268	  4.67955	 -0.26575	  1.42865	  2.45177	 -0.18243	  4.97940	703.24500	 23.50	
 18.691	-15.915	  4.14283	  4.62107	 -0.22579	  1.21117	  2.70579	 -0.18217	  4.99089	703.16602	 23.50	
 18.706	-21.182	  4.12653	  4.52614	 -0.17413	  1.00265	  2.93998	 -0.18157	  4.98010	703.14398	 23.50	
 18.695	-26.463	  4.11637	  4.40884	 -0.10499	  0.81115	  3.17116	 -0.18300	  4.97838	703.08002	 23.50	
 18.704	-31.745	  4.11474	  4.27477	 -0.01876	  0.62831	  3.40453	 -0.18920	  4.98017	703.19800	 23.50	
 18.698	-37.048	  4.10714	  4.11545	  0.08349	  0.46250	  3.62068	 -0.18950	  4.97772	703.19397	 23.50	
 18.699	-42.375	  4.10534	  3.93923	  0.20765	  0.31628	  3.82506	 -0.18154	  4.98302	703.15802	 23.50	
 18.705	-47.657	  4.10468	  3.74872	  0.33804	  0.17580	  4.01892	 -0.18232	  4.98754	703.11603	 23.50	
 18.713	-52.933	  4.08930	  3.52614	  0.48961	  0.06113	  4.17823	 -0.17866	  4.97305	703.21399	 23.50	
 18.700	-58.206	  4.07728	  3.29542	  0.65525	 -0.04308	  4.31994	 -0.17119	  4.96306	703.15601	 23.50	
 18.698	-63.496	  4.09280	  3.08005	  0.83684	 -0.12893	  4.46628	 -0.16894	  4.98685	703.17999	 23.50	
 18.707	-68.835	  4.08270	  2.83425	  1.02846	 -0.20223	  4.56582	 -0.16672	  4.97855	703.09601	 23.50	
 18.690	-74.137	  4.08267	  2.58760	  1.24076	 -0.25087	  4.64600	 -0.17179	  4.97803	703.14697	 23.50	
 18.696	-79.417	  4.06202	  2.33223	  1.45163	 -0.29706	  4.69234	 -0.17188	  4.96158	703.23999	 23.50	
 18.700	-84.691	  4.07573	  2.09821	  1.68657	 -0.31599	  4.74390	 -0.18173	  4.98072	703.22803	 23.50	
 18.700	-90.000	  4.07795	  1.85671	  1.92418	 -0.32693	  4.76587	 -0.18091	  4.98675	703.21399	 23.50	
 18.700	-95.309	  4.06375	  1.61959	  2.16220	 -0.31808	  4.73903	 -0.19035	  4.97283	703.20300	 23.50	
 18.696	-100.583	  4.06212	  1.39867	  2.40342	 -0.29197	  4.70428	 -0.20213	  4.97258	703.15002	 23.50	
 18.690	-105.863	  4.06507	  1.18313	  2.65238	 -0.24811	  4.64683	 -0.21337	  4.97820	703.25897	 23.50	
 18.707	-111.165	  4.06993	  0.98022	  2.89746	 -0.19863	  4.57629	 -0.22736	  4.98817	703.16199	 23.50	
 18.698	-116.504	  4.06857	  0.79232	  3.13494	 -0.12298	  4.46643	 -0.23675	  4.98385	703.06500	 23.50	
 18.700	-121.794	  4.05192	  0.61028	  3.35383	 -0.03923	  4.32170	 -0.23909	  4.96795	703.09998	 23.50	
 18.713	-127.067	  4.05466	  0.45419	  3.57362	  0.06718	  4.17377	 -0.24764	  4.97152	703.12701	 23.50	
 18.705	-132.343	  4.06109	  0.31128	  3.78164	  0.18868	  4.00365	 -0.25263	  4.97284	703.13098	 23.50	
 18.699	-137.625	  4.06931	  0.18481	  3.97633	  0.33280	  3.81679	 -0.26163	  4.97685	703.23499	 23.50	
 18.698	-142.952	  4.07186	  0.07226	  4.14732	  0.48177	  3.61205	 -0.26009	  4.97496	703.11902	 23.50	
 18.704	-148.255	  4.07946	 -0.02689	  4.30310	  0.65145	  3.39548	 -0.26017	  4.97797	703.04901	 23.50	
 18.695	-153.537	  4.07817	 -0.10733	  4.42557	  0.83409	  3.15908	 -0.25536	  4.96907	703.15503	 23.50	
 18.706	-158.818	  4.09543	 -0.17290	  4.54298	  1.02879	  2.93467	 -0.25553	  4.97725	703.16400	 23.50	
 18.691	-164.085	  4.10215	 -0.21899	  4.62125	  1.23787	  2.69340	 -0.26018	  4.97276	703.13300	 23.50	
 18.703	-169.441	  4.11092	 -0.25221	  4.68222	  1.46246	  2.44277	 -0.26021	  4.97381	703.16998	 23.50	
 18.709	-174.675	  4.12111	 -0.26617	  4.71771	  1.69027	  2.21034	 -0.26043	  4.97321	703.17999	 23.50	
 18.700	180.000	  4.14099	 -0.27253	  4.74131	  1.93055	  1.97227	 -0.25906	  4.98710	703.23999	 23.50	
 20.400	180.000	  3.96119	 -0.55222	  4.82544	  1.78453	  1.82411	 -0.25361	  4.98312	703.25098	 23.50	
 20.401	-175.153	  3.95283	 -0.55138	  4.81561	  1.55086	  2.05839	 -0.25319	  4.98593	703.29901	 23.50	
 20.407	-170.264	  3.95250	 -0.54108	  4.80010	  1.32726	  2.30135	 -0.24893	  4.99859	703.16602	 23.50	
 20.410	-165.423	  3.93326	 -0.51373	  4.73547	  1.10241	  2.54050	 -0.24628	  4.98848	703.23999	 23.50	
 20.392	-160.496	  3.92112	 -0.46728	  4.65268	  0.89157	  2.78017	 -0.24215	  4.98511	703.22498	 23.50	
 20.401	-155.705	  3.91216	 -0.41620	  4.55832	  0.69735	  3.01300	 -0.24267	  4.98721	703.25201	 23.50	
 20.405	-150.835	  3.90785	 -0.35056	  4.44017	  0.50781	  3.24790	 -0.24906	  4.98915	703.07703	 23.50	
 20.397	-145.903	  3.89381	 -0.26334	  4.29035	  0.33431	  3.46725	 -0.25539	  4.98198	703.07300	 23.50	
 20.392	-141.062	  3.89869	 -0.16338	  4.13772	  0.17568	  3.68927	 -0.25765	  4.99153	703.20300	 23.50	
 20.396	-136.227	  3.88509	 -0.05204	  3.95185	  0.02757	  3.88392	 -0.26318	  4.98570	703.10699	 23.50	
 20.408	-131.372	  3.87469	  0.07141	  3.75089	 -0.10638	  4.06497	 -0.25606	  4.97919	703.21100	 23.50	
 20.410	-126.511	  3.88002	  0.21710	  3.54625	 -0.22098	  4.24129	 -0.24809	  4.98727	703.15503	 23.50	
 20.400	-121.604	  3.88836	  0.37467	  3.33506	 -0.31757	  4.39721	 -0.24335	  4.99313	703.22498	 23.50	
 20.403	-116.741	  3.87836	  0.54481	  3.09657	 -0.40303	  4.51555	 -0.23145	  4.98137	703.27301	 23.50	
 20.413	-111.900	  3.89177	  0.72725	  2.86723	 -0.48084	  4.64186	 -0.21709	  4.99908	703.26001	 23.50	
 20.398	-107.004	  3.89482	  0.92611	  2.62718	 -0.53492	  4.73028	 -0.20285	  4.99843	703.30798	 23.50	
 20.394	-102.132	  3.88158	  1.13463	  2.37043	 -0.57943	  4.77935	 -0.18725	  4.98429	703.12402	 23.50	
 20.403	-97.332	  3.89258	  1.35161	  2.13567	 -0.60819	  4.83279	 -0.18465	  4.99731	703.14398	 23.50	
 20.392	-92.440	  3.87542	  1.57432	  1.88407	 -0.62064	  4.82870	 -0.16905	  4.97048	703.08002	 23.50	
 20.392	-87.560	  3.89077	  1.81498	  1.65336	 -0.62208	  4.84576	 -0.16042	  4.98561	703.17297	 23.50	
 20.403	-82.668	  3.88986	  2.05524	  1.41943	 -0.61056	  4.82108	 -0.16236	  4.98311	703.08801	 23.50	
 20.394	-77.868	  3.89329	  2.29506	  1.20200	 -0.57950	  4.77827	 -0.16002	  4.98098	703.28998	 23.50	
 20.398	-72.996	  3.89505	  2.53950	  0.98885	 -0.53765	  4.71108	 -0.15256	  4.97655	703.22900	 23.50	
 20.413	-68.100	  3.91071	  2.79512	  0.78894	 -0.48153	  4.63909	 -0.15773	  4.99250	703.16699	 23.50	
 20.403	-63.259	  3.90412	  3.02539	  0.59719	 -0.40919	  4.51944	 -0.15661	  4.97502	703.15601	 23.50	
 20.400	-58.396	  3.90877	  3.26060	  0.42194	 -0.32385	  4.39060	 -0.16098	  4.97786	703.08301	 23.50	
 20.410	-53.489	  3.91015	  3.48332	  0.25817	 -0.22654	  4.23940	 -0.16393	  4.97490	703.17297	 23.50	
 20.408	-48.628	  3.91399	  3.69691	  0.10876	 -0.11725	  4.07688	 -0.16614	  4.98003	703.11401	 23.50	
 20.396	-43.773	  3.93107	  3.90861	 -0.02338	  0.01238	  3.90185	 -0.17194	  4.99237	703.11798	 23.50	
 20.392	-38.938	  3.94164	  4.09927	 -0.13967	  0.15780	  3.70492	 -0.17445	  4.99824	703.30402	 23.50	
 20.397	-34.097	  3.93401	  4.25209	 -0.24542	  0.31145	  3.48123	 -0.17533	  4.98017	703.23700	 23.50	
 20.405	-29.165	  3.94093	  4.40203	 -0.33551	  0.48202	  3.25666	 -0.18083	  4.98120	703.17499	 23.60	
 20.401	-24.295	  3.95747	  4.53614	 -0.40971	  0.67051	  3.02932	 -0.17973	  4.98887	703.14398	 23.50	
 20.392	-19.504	  3.96445	  4.64361	 -0.47181	  0.85961	  2.79734	 -0.17223	  4.99210	703.13501	 23.50	
 20.410	-14.577	  3.95951	  4.71092	 -0.51943	  1.06389	  2.54585	 -0.16991	  4.98000	703.29700	 23.50	
 20.407	 -9.736	  3.97010	  4.77148	 -0.55380	  1.27887	  2.30208	 -0.16771	  4.97941	703.28003	 23.50	
 20.401	 -4.847	  3.97948	  4.81016	 -0.57529	  1.50326	  2.06344	 -0.16511	  4.98193	703.18903	 23.50	
 20.400	  0.000	  3.99467	  4.83379	 -0.58094	  1.73664	  1.83015	 -0.16552	  4.98801	703.18103	 23.60	
 20.401	  4.847	  3.99889	  4.82525	 -0.57567	  1.97225	  1.59577	 -0.16242	  4.98214	703.20099	 23.50	
 20.407	  9.736	  4.01374	  4.80997	 -0.55855	  2.21472	  1.37298	 -0.15961	  4.99196	703.39203	 23.50	
 20.410	 14.577	  4.01202	  4.75247	 -0.52176	  2.45236	  1.15714	 -0.16188	  4.97822	703.18701	 23.60	
 20.392	 19.504	  4.02927	  4.69249	 -0.47212	  2.70730	  0.95139	 -0.16385	  4.99038	703.24799	 23.60	
 20.401	 24.295	  4.03456	  4.60636	 -0.41217	  2.94217	  0.76166	 -0.16505	  4.99516	703.20599	 23.60	
 20.405	 29.165	  4.03144	  4.48726	 -0.33542	  3.17223	  0.57718	 -0.17170	  4.98843	703.15198	 23.60	
 20.397	 34.097	  4.02695	  4.34042	 -0.24072	  3.40470	  0.40316	 -0.18809	  4.97912	703.25702	 23.50	
 20.392	 38.938	  4.03873	  4.19735	 -0.13880	  3.62612	  0.25056	 -0.19516	  4.99012	703.19800	 23.60	
 20.396	 43.773	  4.05186	  4.04088	 -0.01817	  3.84103	  0.11673	 -0.20844	  5.00464	703.27002	 23.60	
 20.408	 48.628	  4.03219	  3.83639	  0.10936	  4.01925	 -0.01899	 -0.21546	  4.98857	703.16699	 23.60	
 20.410	 53.489	  4.03583	  3.63829	  0.25351	  4.19976	 -0.13519	 -0.22035	  4.99677	703.14899	 23.50	
 20.400	 58.396	  4.02520	  3.41344	  0.41932	  4.34535	 -0.23124	 -0.22623	  4.98253	703.08301	 23.60	
 20.403	 63.259	  4.02451	  3.18848	  0.59188	  4.48427	 -0.31801	 -0.22674	  4.98821	703.24799	 23.50	
 20.413	 68.100	  4.02643	  2.96014	  0.78080	  4.59533	 -0.38139	 -0.22804	  4.98666	703.20300	 23.60	
 20.398	 72.996	  4.02296	  2.71954	  0.98231	  4.68589	 -0.43586	 -0.22644	  4.98519	703.23700	 23.60	
 20.394	 77.868	  4.02752	  2.47674	  1.19905	  4.76199	 -0.47815	 -0.21926	  4.99387	703.30499	 23.60	
 20.403	 82.668	  4.02330	  2.23754	  1.41715	  4.79993	 -0.50004	 -0.21164	  4.98196	703.24298	 23.50	
 20.392	 87.560	  4.02923	  2.00050	  1.65088	  4.82729	 -0.50971	 -0.20059	  4.98885	703.13501	 23.60	
 20.392	 92.440	  4.03083	  1.76106	  1.88983	  4.83251	 -0.51145	 -0.19429	  4.98933	703.12201	 23.60	
 20.403	 97.332	  4.02662	  1.52740	  2.12980	  4.80950	 -0.49574	 -0.19696	  4.98423	703.06897	 23.60	
 20.394	102.132	  4.02778	  1.30707	  2.36973	  4.76766	 -0.46809	 -0.20278	  4.98480	703.23700	 23.50	
 20.398	107.004	  4.02788	  1.09382	  2.61550	  4.70485	 -0.42735	 -0.20669	  4.98508	703.13300	 23.50	
 20.413	111.900	  4.03199	  0.88863	  2.85942	  4.62595	 -0.37294	 -0.21167	  4.98981	703.11603	 23.50	
 20.403	116.741	  4.03781	  0.69540	  3.09768	  4.52621	 -0.30908	 -0.22682	  4.99786	703.16400	 23.50	
 20.400	121.604	  4.03145	  0.51416	  3.32632	  4.39265	 -0.22780	 -0.23272	  4.99019	703.18597	 23.60	
 20.410	126.511	  4.03298	  0.34928	  3.55020	  4.24297	 -0.12671	 -0.24197	  4.99467	703.21698	 23.50	
 20.408	131.372	  4.03525	  0.19764	  3.76477	  4.07541	 -0.01038	 -0.24938	  4.99475	703.27600	 23.60	
 20.396	136.227	  4.03324	  0.05817	  3.96047	  3.88670	  0.11682	 -0.25550	  4.99275	703.10999	 23.50	
 20.392	141.062	  4.02375	 -0.06694	  4.13514	  3.68126	  0.25372	 -0.26117	  4.98803	703.15900	 23.60	
 20.397	145.903	  4.02983	 -0.17650	  4.30683	  3.47633	  0.40794	 -0.26526	  4.99827	703.27002	 23.60	
 20.405	150.835	  4.02501	 -0.27273	  4.45214	  3.24275	  0.58116	 -0.26528	  4.99839	703.28302	 23.60	
 20.401	155.705	  4.00998	 -0.35056	  4.55967	  2.99980	  0.76041	 -0.26320	  4.98280	703.29602	 23.50	
 20.392	160.496	  4.01519	 -0.41470	  4.66803	  2.77325	  0.95110	 -0.26866	  4.99688	703.26801	 23.50	
 20.410	165.423	  3.99547	 -0.47169	  4.73408	  2.51639	  1.15525	 -0.26252	  4.98289	703.23999	 23.50	
 20.407	170.264	  3.99857	 -0.51615	  4.80288	  2.27738	  1.37333	 -0.26018	  4.99997	703.15900	 23.50	
 20.401	175.153	  3.98190	 -0.53992	  4.82566	  2.03090	  1.59258	 -0.25684	  4.99076	703.33600	 23.50	
  0.141	 45.000	  4.98325	  2.76434	  2.72801	  2.73765	  2.77936	  0.03252	  4.97417	703.20398	 23.50	
  4.001	128.691	  4.98526	  2.37360	  3.04785	  3.12008	  2.32925	  0.01147	  4.99181	703.35199	 23.50	
  4.002	 76.995	  4.98890	  2.84121	  2.56805	  3.23426	  2.23665	  0.01017	  4.99506	703.41101	 23.50	
  4.002	 25.892	  4.98916	  3.22876	  2.21346	  2.92107	  2.50121	  0.00455	  4.99479	703.26202	 23.50	
  4.002	-25.892	  4.97926	  3.20762	  2.20883	  2.43147	  2.98677	 -0.00090	  4.99104	703.26599	 23.50	
  4.002	-76.995	  4.98046	  2.81236	  2.56522	  2.14976	  3.31279	 -0.00223	  4.99746	703.35199	 23.50	
  4.001	-128.691	  4.97892	  2.34822	  3.05323	  2.25445	  3.19302	  0.00449	  4.99552	703.20599	 23.50	
  4.000	180.000	  4.98098	  2.16700	  3.27340	  2.67224	  2.74175	  0.00840	  4.99558	703.44800	 23.50	
  8.000	180.000	  4.86271	  1.49154	  3.77897	  2.54658	  2.61680	 -0.05688	  4.97634	703.19000	 23.50	
  7.991	-152.370	  4.85939	  1.59242	  3.64307	  2.02737	  3.17049	 -0.06045	  4.98431	703.29303	 23.50	
  7.997	-124.550	  4.84954	  1.91152	  3.24455	  1.63544	  3.61126	 -0.06063	  4.98085	703.25702	 23.50	
  8.006	-96.837	  4.85558	  2.40300	  2.70818	  1.45717	  3.82761	 -0.08411	  4.98994	703.30499	 23.60	
  7.988	-69.228	  4.86357	  2.96664	  2.16468	  1.51717	  3.75650	 -0.08033	  4.99257	703.28497	 23.50	
  7.997	-41.563	  4.85831	  3.45087	  1.73557	  1.79726	  3.41139	 -0.07101	  4.98452	703.23999	 23.60	
  8.008	-13.821	  4.86515	  3.74641	  1.50073	  2.26148	  2.89180	 -0.06872	  4.97867	703.19702	 23.50	
  8.008	 13.821	  4.89139	  3.77382	  1.50475	  2.82529	  2.34687	 -0.06199	  4.99441	703.32703	 23.60	
  7.997	 41.563	  4.88679	  3.49695	  1.73495	  3.33625	  1.88585	 -0.05759	  4.98304	703.24298	 23.50	
  7.988	 69.228	  4.89598	  3.02804	  2.16435	  3.68772	  1.60964	 -0.05218	  4.98880	703.28802	 23.50	
  8.006	 96.837	  4.88218	  2.46629	  2.69970	  3.75646	  1.54929	 -0.05501	  4.97458	703.17999	 23.60	
  7.997	124.550	  4.89785	  1.97661	  3.24841	  3.55768	  1.72818	 -0.05961	  4.98920	703.22498	 23.50	
  7.991	152.370	  4.89756	  1.63647	  3.64911	  3.11104	  2.11370	 -0.04919	  4.99485	703.24799	 23.50	
 12.009	161.059	  4.68051	  0.90102	  4.11167	  2.94065	  1.88832	 -0.14588	  4.97269	703.17297	 23.50	
 12.013	142.081	  4.69836	  1.14562	  3.81866	  3.48785	  1.42681	 -0.14074	  4.98314	703.20398	 23.50	
 12.006	123.113	  4.70925	  1.52904	  3.36631	  3.90954	  1.09665	 -0.15771	  4.98766	703.19501	 23.50	
 12.007	104.200	  4.70465	  2.01864	  2.80987	  4.15675	  0.90053	 -0.15918	  4.98187	703.26801	 23.60	
 11.989	 85.301	  4.71383	  2.58663	  2.23801	  4.20990	  0.86601	 -0.15462	  4.99116	703.15601	 23.50	
 12.013	 66.294	  4.70708	  3.15489	  1.70081	  4.04262	  0.97866	 -0.13797	  4.98294	703.17999	 23.60	
 12.012	 47.388	  4.72597	  3.67062	  1.26978	  3.70564	  1.24881	 -0.14016	  5.00401	703.06201	 23.60	
 11.990	 28.440	  4.69762	  4.01812	  0.96048	  3.19768	  1.63944	 -0.15284	  4.97822	703.26801	 23.60	
 11.991	  9.464	  4.69338	  4.21004	  0.80731	  2.63758	  2.14799	 -0.15923	  4.98501	703.15503	 23.60	
 11.991	 -9.464	  4.67551	  4.19172	  0.80877	  2.06731	  2.71398	 -0.15604	  4.98118	703.21198	 23.60	
 11.990	-28.440	  4.67274	  3.98333	  0.96731	  1.55713	  3.28768	 -0.15373	  4.99740	703.14099	 23.60	
 12.012	-47.388	  4.66364	  3.58937	  1.26892	  1.15215	  3.76953	 -0.16787	  4.99745	703.22498	 23.60	
 12.013	-66.294	  4.63843	  3.05445	  1.69828	  0.87855	  4.09784	 -0.17211	  4.97933	703.28198	 23.60	
 11.989	-85.301	  4.63740	  2.48154	  2.23248	  0.76790	  4.25210	 -0.18298	  4.98523	703.18701	 23.60	
 12.007	-104.200	  4.63196	  1.92183	  2.80724	  0.80677	  4.20288	 -0.17332	  4.98209	703.17999	 23.60	
 12.006	-123.113	  4.63832	  1.44283	  3.36572	  1.00240	  3.95925	 -0.15042	  4.98983	703.11902	 23.60	
 12.013	-142.081	  4.64072	  1.08372	  3.82056	  1.34746	  3.53508	 -0.14995	  4.98436	703.27002	 23.60	
 12.009	-161.059	  4.65819	  0.87123	  4.12298	  1.81564	  3.00821	 -0.15611	  4.98704	703.26001	 23.60	
 16.000	180.000	  4.38924	  0.15283	  4.56761	  2.12697	  2.17784	 -0.23788	  4.99037	703.26801	 23.60	
 15.990	-165.604	  4.36859	  0.19104	  4.49204	  1.57472	  2.75137	 -0.24352	  4.99252	703.21698	 23.60	
 16.002	-151.165	  4.34927	  0.33579	  4.25996	  1.08320	  3.31187	 -0.23895	  4.99230	703.33502	 23.60	
 16.002	-136.836	  4.33008	  0.58626	  3.88260	  0.67798	  3.80803	 -0.22618	  4.98998	703.31299	 23.60	
 15.995	-122.439	  4.33057	  0.94479	  3.40581	  0.38096	  4.20984	 -0.21938	  4.98934	703.27698	 23.60	
 15.993	-107.966	  4.31672	  1.39579	  2.83827	  0.18506	  4.46514	 -0.22500	  4.97311	703.28302	 23.60	
 16.005	-93.629	  4.32326	  1.92092	  2.26750	  0.09845	  4.58814	 -0.21797	  4.98077	703.35303	 23.60	
 15.992	-79.234	  4.33610	  2.49748	  1.70906	  0.12357	  4.55642	 -0.19148	  4.99026	703.32397	 23.60	
 16.009	-64.774	  4.34355	  3.07809	  1.20364	  0.25743	  4.36573	 -0.19187	  4.98939	703.33502	 23.60	
 15.997	-50.364	  4.35961	  3.61683	  0.78408	  0.50261	  4.03213	 -0.19738	  4.99363	703.33600	 23.50	
 15.997	-36.045	  4.36143	  4.05552	  0.46113	  0.85047	  3.57138	 -0.19561	  4.98758	703.29303	 23.50	
 16.000	-21.597	  4.37607	  4.37398	  0.24268	  1.28804	  3.03799	 -0.19580	  4.98860	703.28802	 23.60	
 16.003	 -7.169	  4.39567	  4.54681	  0.13467	  1.81376	  2.46024	 -0.18903	  4.98743	703.38702	 23.60	
 16.003	  7.169	  4.41607	  4.56092	  0.13293	  2.38008	  1.89654	 -0.20000	  4.98715	703.28497	 23.50	
 16.000	 21.597	  4.43436	  4.42918	  0.23990	  2.95733	  1.38262	 -0.19655	  4.99247	703.35797	 23.60	
 15.997	 36.045	  4.43880	  4.13706	  0.45548	  3.50006	  0.93907	 -0.20777	  4.98884	703.17200	 23.60	
 15.997	 50.364	  4.42984	  3.71562	  0.77282	  3.96180	  0.58769	 -0.20738	  4.98718	703.27002	 23.60	
 16.009	 64.774	  4.43398	  3.20732	  1.19153	  4.31279	  0.34777	 -0.20872	  4.99058	703.24298	 23.60	
 15.992	 79.234	  4.43524	  2.63986	  1.70190	  4.51937	  0.21410	 -0.22259	  4.99324	703.31299	 23.60	
 16.005	 93.629	  4.43116	  2.05938	  2.26249	  4.56275	  0.18616	 -0.22696	  4.98957	703.20099	 23.60	
 15.993	107.966	  4.43566	  1.52468	  2.84249	  4.44964	  0.27064	 -0.23303	  4.98870	703.34399	 23.60	
 15.995	122.439	  4.42671	  1.04861	  3.39448	  4.17387	  0.46140	 -0.23440	  4.97962	703.23499	 23.50	
 16.002	136.836	  4.42860	  0.66692	  3.88628	  3.78026	  0.75601	 -0.22671	  4.98988	703.29303	 23.60	
 16.002	151.165	  4.41517	  0.38779	  4.25457	  3.27383	  1.14875	 -0.22450	  4.98172	703.38300	 23.60	
 15.990	165.604	  4.40873	  0.21841	  4.49207	  2.70623	  1.63872	 -0.23678	  4.99057	703.12402	 23.50	
 20.003	168.362	  4.02710	 -0.42780	  4.74324	  2.38942	  1.33093	 -0.26621	  4.97819	703.28998	 23.60	
 20.008	156.764	  4.05133	 -0.30379	  4.57089	  2.96464	  0.84942	 -0.26898	  4.98624	703.34399	 23.50	
 20.000	145.147	  4.05108	 -0.09513	  4.25089	  3.49546	  0.44202	 -0.26447	  4.97236	703.33502	 23.50	
 19.995	133.545	  4.07236	  0.19500	  3.84936	  3.98070	  0.10961	 -0.25634	  4.98685	703.33899	 23.50	
 20.009	121.926	  4.06784	  0.55715	  3.34592	  4.36442	 -0.15464	 -0.23498	  4.98295	703.30103	 23.50	
 20.005	110.327	  4.06692	  0.99908	  2.79790	  4.63038	 -0.32690	 -0.21153	  4.98194	703.27698	 23.50	
 19.989	 98.733	  4.06620	  1.50393	  2.22849	  4.77438	 -0.42093	 -0.19799	  4.97949	703.39398	 23.50	
 19.999	 87.075	  4.07094	  2.05436	  1.66683	  4.80576	 -0.44303	 -0.21289	  4.98736	703.21698	 23.50	
 19.992	 75.457	  4.06940	  2.61697	  1.14525	  4.70201	 -0.38198	 -0.22752	  4.98265	703.21698	 23.50	
 20.009	 63.844	  4.07102	  3.17494	  0.67684	  4.48341	 -0.25006	 -0.23202	  4.98640	703.32703	 23.50	
 19.989	 52.269	  4.07309	  3.68043	  0.28425	  4.13766	 -0.03364	 -0.22526	  4.98122	703.26501	 23.50	
 19.999	 40.602	  4.07144	  4.12490	 -0.03316	  3.69127	  0.26458	 -0.20646	  4.98109	703.27301	 23.60	
 20.004	 29.051	  4.07204	  4.47204	 -0.26711	  3.18166	  0.63763	 -0.17856	  4.98481	703.29102	 23.60	
 20.005	 17.433	  4.06357	  4.70158	 -0.42415	  2.62621	  1.08337	 -0.16689	  4.98800	703.27399	 23.60	
 20.006	  5.780	  4.05075	  4.81081	 -0.50395	  2.05699	  1.59394	 -0.17106	  4.99253	703.28198	 23.60	
 20.006	 -5.780	  4.02831	  4.79550	 -0.50299	  1.50877	  2.14201	 -0.17376	  4.98851	703.32703	 23.60	
 20.005	-17.433	  4.01030	  4.66286	 -0.42646	  0.99530	  2.71470	 -0.18254	  4.99261	703.27002	 23.50	
 20.004	-29.051	  3.98655	  4.39252	 -0.26904	  0.54415	  3.26321	 -0.18136	  4.98345	703.40302	 23.60	
 19.999	-40.602	  3.97777	  4.02470	 -0.03463	  0.17159	  3.76721	 -0.18026	  4.98566	703.36298	 23.60	
 19.989	-52.269	  3.96570	  3.55208	  0.28340	 -0.13186	  4.20139	 -0.16699	  4.98739	703.28003	 23.60	
 20.009	-63.844	  3.96170	  3.02570	  0.67519	 -0.35061	  4.53223	 -0.16287	  4.99190	703.23999	 23.60	
 19.992	-75.457	  3.94871	  2.45262	  1.14538	 -0.48422	  4.73497	 -0.16504	  4.98449	703.34399	 23.60	
 19.999	-87.075	  3.93159	  1.87533	  1.66694	 -0.54503	  4.81477	 -0.16585	  4.97386	703.34399	 23.60	
 19.989	-98.733	  3.93914	  1.33703	  2.23887	 -0.52590	  4.80028	 -0.18557	  4.99218	703.37799	 23.60	
 20.005	-110.327	  3.93184	  0.84729	  2.80544	 -0.42331	  4.64906	 -0.21136	  4.99054	703.26599	 23.60	
 20.009	-121.926	  3.93085	  0.42404	  3.35490	 -0.24602	  4.37555	 -0.23968	  4.98943	703.23999	 23.60	
 19.995	-133.545	  3.93202	  0.08264	  3.84459	  0.01986	  3.98760	 -0.25709	  4.98636	703.33502	 23.60	
 20.000	-145.147	  3.95806	 -0.18490	  4.27765	  0.36522	  3.52688	 -0.26193	  5.00656	703.19000	 23.60	
 20.008	-156.764	  3.96938	 -0.36315	  4.57582	  0.79290	  2.98444	 -0.24799	  4.99603	703.24500	 23.50	
 20.003	-168.362	  3.98417	 -0.46034	  4.75109	  1.28074	  2.42225	 -0.25188	  4.98942	703.32098	 23.50	
 20.000	180.000	  4.00960	 -0.48350	  4.81092	  1.82311	  1.86087	 -0.25442	  4.98744	703.37000	 23.60	
