FileType=PCF
NHL=14
Date=08/24/17	16:22:07
Facility=APL
Serial=16328-4
Customer=NASA
NP=6
Mach=0.150000
Calibration=1:1
CalPts=490
TstPts=95
PortNumbering=AP Standard
Units=Torr C m/s kg/m^3 deg mm 
Theta[deg]	Phi[deg]	P1[Torr]	P2[Torr]	P3[Torr]	P4[Torr]	P5[Torr]	P6[Torr]	Pt[Torr]	Ps[Abs,Torr]	Ts[C]	
  0.000	  0.000	 11.04061	  6.03073	  6.00306	  5.95290	  6.13074	  0.07475	 11.02838	704.95001	 23.30	
  1.691	128.401	 11.04554	  5.70161	  6.32606	  6.36500	  5.70375	  0.07757	 11.02827	705.11902	 23.30	
  1.692	 77.194	 11.06342	  6.16027	  5.88264	  6.48326	  5.60762	  0.07214	 11.04958	705.21301	 23.30	
  1.699	 26.182	 11.03350	  6.50016	  5.51171	  6.17690	  5.87291	  0.06806	 11.02066	705.24597	 23.30	
  1.699	-26.182	 11.02896	  6.47767	  5.51605	  5.69980	  6.34163	  0.06544	 11.01633	705.22302	 23.30	
  1.692	-77.194	 11.03161	  6.10992	  5.87694	  5.42736	  6.62538	  0.06350	 11.02048	705.16199	 23.30	
  1.691	-128.401	 11.02450	  5.66929	  6.32054	  5.52156	  6.52267	  0.06750	 11.01029	705.13599	 23.30	
  1.700	180.000	 11.03588	  5.47904	  6.53435	  5.93922	  6.11262	  0.07051	 11.02404	705.18402	 23.30	
  3.400	180.000	 11.01787	  4.92397	  7.02848	  5.87138	  6.06499	  0.03895	 11.02203	705.06702	 23.30	
  3.388	-152.325	 10.98974	  5.02045	  6.89209	  5.39405	  6.53997	  0.03715	 10.99774	705.03601	 23.30	
  3.397	-124.529	 11.00110	  5.32877	  6.55135	  5.03607	  6.93502	  0.02651	 11.01592	705.07202	 23.30	
  3.399	-96.763	 11.01332	  5.79642	  6.06422	  4.86558	  7.13031	  0.01603	 11.02958	705.12299	 23.30	
  3.394	-69.283	 11.01204	  6.30179	  5.56534	  4.92663	  7.06352	  0.01838	 11.02733	705.21802	 23.30	
  3.400	-41.398	 11.00728	  6.74343	  5.15471	  5.19550	  6.75402	  0.01839	 11.01815	705.07800	 23.30	
  3.401	-14.021	 11.02096	  6.99870	  4.94277	  5.62239	  6.32030	  0.02581	 11.02542	705.16998	 23.30	
  3.401	 14.021	 11.00320	  7.00325	  4.92987	  6.14294	  5.77655	  0.03349	 11.00304	705.20502	 23.30	
  3.400	 41.398	 11.01066	  6.78661	  5.15718	  6.60008	  5.36025	  0.04959	 11.01028	705.09698	 23.30	
  3.394	 69.283	 11.02983	  6.38254	  5.55502	  6.88544	  5.11143	  0.04713	 11.02473	705.06702	 23.30	
  3.399	 96.763	 11.02026	  5.86991	  6.05356	  6.96991	  5.04161	  0.05466	 11.01648	705.19098	 23.30	
  3.397	124.529	 11.00468	  5.37646	  6.53861	  6.76093	  5.20315	  0.04424	 11.00159	705.22101	 23.30	
  3.388	152.325	 11.01729	  5.06075	  6.90028	  6.38948	  5.56815	  0.05248	 11.01767	705.19598	 23.30	
  5.099	161.165	 10.96876	  4.41647	  7.44163	  6.32783	  5.44340	 -0.00211	 11.01963	705.18402	 23.30	
  5.109	142.013	 10.96740	  4.64980	  7.16739	  6.81570	  4.98897	 -0.00128	 11.01188	705.26300	 23.30	
  5.095	123.033	 11.00576	  5.04902	  6.76579	  7.20926	  4.69085	  0.00611	 11.04230	705.20398	 23.30	
  5.105	104.191	 10.99121	  5.51523	  6.24575	  7.43775	  4.47807	 -0.00147	 11.02900	705.11401	 23.30	
  5.093	 85.207	 10.97289	  6.04324	  5.69539	  7.45756	  4.44625	  0.00373	 11.00932	705.27502	 23.30	
  5.104	 66.290	 10.98153	  6.57919	  5.19229	  7.32079	  4.56770	  0.00203	 11.01551	705.26300	 23.30	
  5.094	 47.331	 11.00446	  7.05004	  4.78872	  7.02366	  4.84155	 -0.00350	 11.04390	705.30798	 23.30	
  5.089	 28.397	 10.97221	  7.36234	  4.47859	  6.57495	  5.20538	 -0.00505	 11.01368	705.09399	 23.30	
  5.096	  9.576	 10.97639	  7.53927	  4.32242	  6.07040	  5.68566	 -0.01291	 11.02525	705.17603	 23.30	
  5.096	 -9.576	 10.96860	  7.52006	  4.32055	  5.51629	  6.23693	 -0.01762	 11.02623	705.09802	 23.30	
  5.089	-28.397	 10.94463	  7.31724	  4.46576	  5.02778	  6.73649	 -0.02577	 11.01180	705.11499	 23.30	
  5.094	-47.331	 10.94590	  6.95728	  4.77590	  4.63570	  7.18274	 -0.03139	 11.01672	705.04700	 23.30	
  5.104	-66.290	 10.96577	  6.49881	  5.20556	  4.36234	  7.52203	 -0.03803	 11.04615	705.19299	 23.30	
  5.093	-85.207	 10.97810	  5.97539	  5.72226	  4.25269	  7.67139	 -0.03585	 11.05877	705.12598	 23.30	
  5.105	-104.191	 10.95077	  5.42677	  6.25597	  4.27873	  7.61202	 -0.03043	 11.03307	705.19598	 23.30	
  5.095	-123.033	 10.94050	  4.95914	  6.75393	  4.47400	  7.37542	 -0.02411	 11.02266	705.22601	 23.30	
  5.109	-142.013	 10.95455	  4.60538	  7.18103	  4.82043	  6.99662	 -0.01502	 11.03245	705.23798	 23.30	
  5.099	-161.165	 10.95324	  4.38721	  7.44531	  5.27238	  6.49764	 -0.00847	 11.02284	705.13599	 23.30	
  5.100	180.000	 10.96039	  4.32513	  7.53441	  5.78562	  5.97301	 -0.00082	 11.02561	705.22601	 23.30	
  6.800	180.000	 10.87585	  3.70290	  8.02829	  5.68286	  5.86809	 -0.06353	 11.02561	705.18103	 23.30	
  6.796	-166.229	 10.87949	  3.74378	  7.97465	  5.17727	  6.39743	 -0.06998	 11.04281	705.31702	 23.30	
  6.808	-152.311	 10.86336	  3.88760	  7.77314	  4.69506	  6.90361	 -0.08515	 11.03907	705.29199	 23.30	
  6.795	-138.383	 10.83812	  4.14751	  7.43190	  4.27010	  7.35799	 -0.08100	 11.02253	705.27197	 23.30	
  6.792	-124.591	 10.83918	  4.49663	  7.01782	  3.95179	  7.72229	 -0.09170	 11.02843	705.22998	 23.30	
  6.787	-110.754	 10.85375	  4.93795	  6.53948	  3.73504	  7.99454	 -0.10928	 11.04450	705.27502	 23.30	
  6.800	-96.985	 10.83259	  5.42001	  6.00438	  3.61382	  8.11316	 -0.11914	 11.01892	704.71997	 23.30	
  6.800	-83.015	 10.86008	  5.96791	  5.48054	  3.62266	  8.12636	 -0.11956	 11.04494	705.18201	 23.30	
  6.787	-69.246	 10.84519	  6.47945	  4.97702	  3.72542	  7.98158	 -0.11910	 11.02866	703.59497	 23.30	
  6.792	-55.409	 10.86142	  6.98794	  4.52806	  3.94700	  7.72773	 -0.11946	 11.03805	704.88599	 23.30	
  6.795	-41.617	 10.85457	  7.40821	  4.16030	  4.26948	  7.34544	 -0.10602	 11.02759	705.16803	 23.30	
  6.808	-27.689	 10.85645	  7.74418	  3.87820	  4.67639	  6.87874	 -0.09482	 11.02174	703.60498	 23.30	
  6.796	-13.771	 10.87820	  7.96786	  3.71708	  5.15504	  6.37948	 -0.09484	 11.03217	705.30298	 23.30	
  6.800	  0.000	 10.88478	  8.04342	  3.66700	  5.67155	  5.84941	 -0.08771	 11.02822	705.35699	 23.30	
  6.796	 13.771	 10.90605	  8.00382	  3.72518	  6.21142	  5.33684	 -0.08011	 11.04082	705.16803	 23.30	
  6.808	 27.689	 10.91198	  7.81633	  3.88888	  6.72588	  4.86205	 -0.07591	 11.04133	705.22998	 23.30	
  6.795	 41.617	 10.91503	  7.50074	  4.17021	  7.17867	  4.46669	 -0.07048	 11.03343	705.05798	 23.30	
  6.792	 55.409	 10.89929	  7.08117	  4.53059	  7.54177	  4.15502	 -0.05982	 11.01843	705.34698	 23.30	
  6.787	 69.246	 10.88969	  6.58577	  4.97021	  7.80678	  3.92870	 -0.06628	 11.00580	705.33698	 23.30	
  6.800	 83.015	 10.90592	  6.08355	  5.46859	  7.96013	  3.82396	 -0.06743	 11.02102	705.24103	 23.30	
  6.800	 96.985	 10.91336	  5.55234	  6.00639	  7.96843	  3.82978	 -0.06773	 11.02810	703.73798	 23.30	
  6.787	110.754	 10.94385	  5.07850	  6.54222	  7.84745	  3.96178	 -0.06385	 11.06102	705.30902	 23.30	
  6.792	124.591	 10.89948	  4.61581	  7.00598	  7.55386	  4.16578	 -0.06244	 11.01815	705.27502	 23.30	
  6.795	138.383	 10.91262	  4.24812	  7.43734	  7.18864	  4.48515	 -0.06284	 11.03583	705.19897	 23.30	
  6.808	152.311	 10.91947	  3.96559	  7.77535	  6.74695	  4.88922	 -0.05719	 11.04875	703.48798	 23.30	
  6.796	166.229	 10.89198	  3.77519	  7.96343	  6.22475	  5.34980	 -0.06997	 11.03359	705.26898	 23.30	
  8.491	168.704	 10.75628	  3.12452	  8.42794	  6.10163	  5.19387	 -0.14912	 11.02726	705.27698	 23.30	
  8.502	157.493	 10.77394	  3.26964	  8.26832	  6.63235	  4.70978	 -0.14537	 11.03713	703.70398	 23.30	
  8.494	146.194	 10.75690	  3.51248	  7.96739	  7.11384	  4.26311	 -0.13145	 11.00648	705.29102	 23.20	
  8.495	135.039	 10.77063	  3.82411	  7.60943	  7.56878	  3.87617	 -0.14775	 11.01680	705.23798	 23.20	
  8.487	123.723	 10.79314	  4.21886	  7.17595	  7.95304	  3.57459	 -0.16004	 11.03675	705.23297	 23.20	
  8.492	112.575	 10.79054	  4.65854	  6.67953	  8.22075	  3.35631	 -0.16416	 11.02776	705.30798	 23.20	
  8.510	101.220	 10.78839	  5.16299	  6.14118	  8.38920	  3.22244	 -0.15968	 11.02708	705.23297	 23.20	
  8.500	 90.000	 10.79195	  5.69988	  5.59853	  8.44029	  3.18207	 -0.15487	 11.02707	705.36200	 23.20	
  8.510	 78.780	 10.79650	  6.23948	  5.07129	  8.38724	  3.22175	 -0.15623	 11.02919	705.34003	 23.30	
  8.492	 67.425	 10.79433	  6.77483	  4.56463	  8.20191	  3.35783	 -0.13919	 11.03471	703.58002	 23.20	
  8.487	 56.277	 10.78199	  7.25208	  4.11854	  7.91989	  3.56757	 -0.13528	 11.01784	705.29199	 23.30	
  8.495	 44.961	 10.78183	  7.69261	  3.72637	  7.54768	  3.86865	 -0.14672	 11.02080	705.31598	 23.20	
  8.494	 33.806	 10.78535	  8.04878	  3.42289	  7.10267	  4.24945	 -0.15957	 11.02725	705.31598	 23.20	
  8.502	 22.507	 10.78588	  8.32069	  3.19350	  6.60962	  4.69070	 -0.16368	 11.03507	704.80402	 23.30	
  8.491	 11.296	 10.77802	  8.46714	  3.06211	  6.08444	  5.17773	 -0.16999	 11.03901	705.37903	 23.30	
  8.500	  0.000	 10.76168	  8.50290	  3.01513	  5.53090	  5.70849	 -0.18296	 11.03158	705.42102	 23.30	
  8.491	-11.296	 10.72714	  8.41537	  3.05509	  4.99063	  6.23659	 -0.18257	 11.01380	705.44397	 23.20	
  8.502	-22.507	 10.72452	  8.24113	  3.18997	  4.49728	  6.77017	 -0.17853	 11.02297	705.02899	 23.20	
  8.494	-33.806	 10.72497	  7.96089	  3.41880	  4.04254	  7.28546	 -0.18030	 11.03557	704.88000	 23.20	
  8.495	-44.961	 10.70980	  7.58076	  3.72263	  3.66304	  7.71889	 -0.19824	 11.02718	703.66699	 23.30	
  8.487	-56.277	 10.71286	  7.12730	  4.12023	  3.35907	  8.09089	 -0.21846	 11.03386	703.72198	 23.20	
  8.492	-67.425	 10.71425	  6.63216	  4.56569	  3.13510	  8.36697	 -0.21678	 11.04199	703.66699	 23.30	
  8.510	-78.780	 10.68170	  6.07401	  5.05128	  2.97754	  8.52449	 -0.21534	 11.01629	705.11902	 23.20	
  8.500	-90.000	 10.69686	  5.53564	  5.59705	  2.94138	  8.59374	 -0.21938	 11.03218	705.33002	 23.20	
  8.510	-101.220	 10.69310	  5.01065	  6.13724	  2.98347	  8.54125	 -0.20825	 11.03315	704.40302	 23.20	
  8.492	-112.575	 10.70599	  4.51423	  6.68663	  3.13561	  8.37516	 -0.19131	 11.04237	703.66803	 23.30	
  8.487	-123.723	 10.70651	  4.07941	  7.18156	  3.35930	  8.10892	 -0.17031	 11.04478	703.74597	 23.30	
  8.495	-135.039	 10.70700	  3.70798	  7.62537	  3.66525	  7.74897	 -0.15926	 11.04416	704.28699	 23.20	
  8.494	-146.194	 10.71667	  3.41807	  7.99197	  4.05533	  7.30937	 -0.16279	 11.04592	703.93201	 23.20	
  8.502	-157.493	 10.72961	  3.20957	  8.27476	  4.52025	  6.80654	 -0.16072	 11.04735	704.78497	 23.20	
  8.491	-168.704	 10.72565	  3.09388	  8.42358	  5.01208	  6.26996	 -0.14494	 11.02308	705.09698	 23.20	
  8.500	180.000	 10.75700	  3.06016	  8.50128	  5.55344	  5.73830	 -0.15157	 11.04202	703.65302	 23.30	
 10.200	180.000	 10.57350	  2.41130	  8.91360	  5.38136	  5.57062	 -0.24025	 11.03084	704.33197	 23.20	
 10.191	-170.497	 10.54224	  2.42521	  8.85708	  4.83812	  6.10361	 -0.23754	 11.01584	703.78497	 23.30	
 10.210	-161.034	 10.53998	  2.52486	  8.72420	  4.32723	  6.65083	 -0.24661	 11.03151	705.39801	 23.20	
 10.194	-151.526	 10.52721	  2.69301	  8.48444	  3.84547	  7.17510	 -0.25890	 11.03582	703.54102	 23.20	
 10.190	-142.105	 10.52991	  2.94906	  8.16622	  3.42685	  7.66625	 -0.24647	 11.04838	703.65002	 23.20	
 10.215	-132.646	 10.51221	  3.25638	  7.76430	  3.05788	  8.08442	 -0.24452	 11.03862	703.68402	 23.20	
 10.203	-123.092	 10.51264	  3.63958	  7.30235	  2.75336	  8.45016	 -0.25437	 11.04465	703.64502	 23.20	
 10.192	-113.678	 10.50173	  4.07727	  6.78642	  2.52580	  8.71688	 -0.27847	 11.03010	705.24103	 23.20	
 10.208	-104.249	 10.50302	  4.55520	  6.25808	  2.37099	  8.90979	 -0.29903	 11.03320	705.41602	 23.20	
 10.210	-94.801	 10.49557	  5.06842	  5.70194	  2.28503	  8.99942	 -0.31544	 11.02678	703.95801	 23.20	
 10.210	-85.199	 10.52339	  5.63627	  5.15875	  2.28894	  9.02097	 -0.32362	 11.05390	705.45697	 23.20	
 10.208	-75.751	 10.50482	  6.17695	  4.62205	  2.36315	  8.89961	 -0.31990	 11.02615	704.68701	 23.20	
 10.192	-66.322	 10.51268	  6.71731	  4.13307	  2.52167	  8.70376	 -0.32083	 11.02669	704.98798	 23.20	
 10.203	-56.908	 10.53607	  7.24737	  3.68475	  2.75139	  8.43970	 -0.30826	 11.04652	703.84198	 23.20	
 10.215	-47.354	 10.52210	  7.70698	  3.27993	  3.04549	  8.05754	 -0.29718	 11.02150	703.88501	 23.20	
 10.190	-37.895	 10.54466	  8.12354	  2.95683	  3.40757	  7.64107	 -0.27603	 11.04429	703.81598	 23.20	
 10.194	-28.474	 10.56121	  8.45909	  2.70374	  3.83389	  7.16220	 -0.26199	 11.04471	703.73798	 23.20	
 10.210	-18.966	 10.56398	  8.70910	  2.50316	  4.30946	  6.62656	 -0.26751	 11.03487	703.70697	 23.20	
 10.191	 -9.503	 10.57186	  8.85889	  2.39357	  4.81862	  6.08401	 -0.27338	 11.02649	703.73199	 23.20	
 10.200	  0.000	 10.59946	  8.93818	  2.35578	  5.35908	  5.54833	 -0.27506	 11.04220	705.27802	 23.20	
 10.191	  9.503	 10.60756	  8.90060	  2.39085	  5.91186	  5.00500	 -0.26718	 11.03389	703.99402	 23.20	
 10.210	 18.966	 10.62188	  8.77954	  2.49825	  6.45806	  4.49977	 -0.26028	 11.03624	703.69000	 23.20	
 10.194	 28.474	 10.64424	  8.56218	  2.70003	  6.99101	  4.04172	 -0.25330	 11.05054	703.76099	 23.20	
 10.190	 37.895	 10.63254	  8.23695	  2.95726	  7.47224	  3.61208	 -0.24159	 11.03407	703.78802	 23.20	
 10.215	 47.354	 10.63281	  7.84632	  3.28589	  7.91545	  3.24531	 -0.23329	 11.03242	703.84497	 23.20	
 10.203	 56.908	 10.64210	  7.40173	  3.68717	  8.28592	  2.96223	 -0.21830	 11.04208	703.84802	 23.20	
 10.192	 66.322	 10.65296	  6.90675	  4.14571	  8.57063	  2.75846	 -0.23027	 11.04935	704.69397	 23.20	
 10.208	 75.751	 10.62906	  6.36188	  4.62600	  8.75683	  2.59870	 -0.24060	 11.02474	703.79797	 23.20	
 10.210	 85.199	 10.63878	  5.82570	  5.15412	  8.87063	  2.52457	 -0.25215	 11.03836	703.87903	 23.20	
 10.210	 94.801	 10.61294	  5.25992	  5.69653	  8.84867	  2.52760	 -0.25780	 11.00869	705.26001	 23.20	
 10.208	104.249	 10.62766	  4.73906	  6.25519	  8.76586	  2.60741	 -0.25586	 11.02453	704.07300	 23.20	
 10.192	113.678	 10.63618	  4.26011	  6.79035	  8.56690	  2.77466	 -0.25129	 11.02417	705.42102	 23.20	
 10.203	123.092	 10.64676	  3.80996	  7.30701	  8.30920	  2.98564	 -0.24978	 11.04369	705.41602	 23.20	
 10.215	132.646	 10.62068	  3.39916	  7.75768	  7.93586	  3.26704	 -0.23833	 11.02288	705.45697	 23.20	
 10.190	142.105	 10.61695	  3.06675	  8.15320	  7.49690	  3.63479	 -0.22080	 11.02671	705.40198	 23.20	
 10.194	151.526	 10.61519	  2.79694	  8.48134	  7.01776	  4.05481	 -0.22055	 11.03259	703.83698	 23.20	
 10.210	161.034	 10.61938	  2.59795	  8.73256	  6.49875	  4.52793	 -0.22839	 11.04503	703.92401	 23.20	
 10.191	170.497	 10.58326	  2.46637	  8.85602	  5.94101	  5.02603	 -0.23750	 11.02081	703.77698	 23.20	
 11.899	171.783	 10.39722	  1.81777	  9.27412	  5.76811	  4.83610	 -0.33049	 11.04668	703.80298	 23.20	
 11.890	163.610	 10.40695	  1.92936	  9.14265	  6.31794	  4.32671	 -0.32146	 11.03896	703.81598	 23.20	
 11.889	155.445	 10.40021	  2.10369	  8.91444	  6.84298	  3.84304	 -0.30757	 11.01827	703.65002	 23.20	
 11.909	147.299	 10.42570	  2.32890	  8.65183	  7.37210	  3.39836	 -0.30595	 11.04133	703.78802	 23.20	
 11.902	139.148	 10.42546	  2.61954	  8.28596	  7.83709	  3.00407	 -0.31487	 11.03081	703.71301	 23.20	
 11.894	130.867	 10.43930	  2.97905	  7.86505	  8.25763	  2.67266	 -0.33408	 11.03449	703.69800	 23.20	
 11.897	122.732	 10.44091	  3.37182	  7.39752	  8.61451	  2.38804	 -0.34662	 11.03574	703.84198	 23.20	
 11.903	114.597	 10.43282	  3.81253	  6.88334	  8.89619	  2.16083	 -0.35415	 11.02821	703.84698	 23.20	
 11.893	106.346	 10.43970	  4.31318	  6.34046	  9.10914	  2.00613	 -0.36005	 11.03437	703.86499	 23.20	
 11.892	 98.155	 10.44144	  4.83062	  5.78941	  9.23980	  1.90584	 -0.36285	 11.03911	703.95697	 23.20	
 11.900	 90.000	 10.43447	  5.36832	  5.23368	  9.27257	  1.87176	 -0.35495	 11.02956	703.77502	 23.20	
 11.892	 81.845	 10.43845	  5.92428	  4.69617	  9.22421	  1.90937	 -0.33917	 11.03646	703.86200	 23.20	
 11.893	 73.654	 10.43018	  6.46578	  4.17236	  9.08267	  1.99937	 -0.32557	 11.02645	703.80902	 23.20	
 11.903	 65.403	 10.44641	  7.01197	  3.68738	  8.87956	  2.15845	 -0.30712	 11.04225	703.77100	 23.20	
 11.897	 57.268	 10.44159	  7.50932	  3.24038	  8.58052	  2.37554	 -0.29890	 11.03469	703.83099	 23.20	
 11.894	 49.133	 10.44827	  7.97166	  2.85032	  8.22104	  2.65935	 -0.30662	 11.04618	703.79999	 23.20	
 11.902	 40.852	 10.45038	  8.38917	  2.49887	  7.80528	  2.98739	 -0.32027	 11.04800	703.84998	 23.20	
 11.909	 32.701	 10.43635	  8.72143	  2.21388	  7.31938	  3.37858	 -0.34087	 11.03692	703.70898	 23.20	
 11.889	 24.555	 10.44348	  9.00230	  1.99913	  6.80895	  3.83134	 -0.34870	 11.05005	703.78497	 23.20	
 11.890	 16.390	 10.41893	  9.17430	  1.83744	  6.26948	  4.29073	 -0.36938	 11.03209	703.86499	 23.20	
 11.899	  8.217	 10.40509	  9.28928	  1.74269	  5.72028	  4.80633	 -0.37068	 11.03430	703.62500	 23.20	
 11.900	  0.000	 10.39105	  9.31983	  1.70658	  5.16150	  5.35057	 -0.36425	 11.03757	703.78802	 23.20	
 11.899	 -8.217	 10.36976	  9.26067	  1.73860	  4.61859	  5.89579	 -0.35276	 11.03425	703.75702	 23.20	
 11.890	-16.390	 10.38114	  9.14120	  1.84363	  4.11751	  6.45800	 -0.34953	 11.06302	703.89001	 23.20	
 11.889	-24.555	 10.33659	  8.89869	  1.98888	  3.60497	  6.98297	 -0.34551	 11.03015	703.78601	 23.20	
 11.909	-32.701	 10.34547	  8.61601	  2.21944	  3.17755	  7.49837	 -0.34422	 11.04929	703.81598	 23.20	
 11.902	-40.852	 10.32868	  8.24138	  2.50342	  2.78526	  7.95545	 -0.36235	 11.04095	703.69299	 23.20	
 11.894	-49.133	 10.32264	  7.80755	  2.85028	  2.44107	  8.38193	 -0.37903	 11.04240	703.76398	 23.20	
 11.897	-57.268	 10.29907	  7.31318	  3.24047	  2.14989	  8.72960	 -0.39075	 11.02784	703.81702	 23.20	
 11.903	-65.403	 10.28663	  6.79314	  3.67637	  1.91639	  9.01636	 -0.39870	 11.02637	703.82202	 23.20	
 11.893	-73.654	 10.30090	  6.25445	  4.17508	  1.76657	  9.23322	 -0.41104	 11.04029	703.79797	 23.20	
 11.892	-81.845	 10.29822	  5.69985	  4.69840	  1.67552	  9.36074	 -0.41692	 11.04425	703.81702	 23.20	
 11.900	-90.000	 10.27983	  5.14368	  5.22993	  1.63760	  9.39560	 -0.41190	 11.03049	703.85303	 23.20	
 11.892	-98.155	 10.27812	  4.60595	  5.78147	  1.67366	  9.35256	 -0.40037	 11.03111	703.83301	 23.20	
 11.893	-106.346	 10.26209	  4.08949	  6.32413	  1.76419	  9.22035	 -0.38490	 11.02200	703.75500	 23.20	
 11.903	-114.597	 10.26410	  3.61050	  6.87064	  1.91722	  9.02741	 -0.36079	 11.02816	703.91602	 23.20	
 11.897	-122.732	 10.26450	  3.18227	  7.37641	  2.14726	  8.73927	 -0.33711	 11.02231	703.92401	 23.20	
 11.894	-130.867	 10.26756	  2.80560	  7.84237	  2.43596	  8.38374	 -0.32331	 11.02195	703.84497	 23.20	
 11.902	-139.148	 10.29872	  2.47529	  8.29393	  2.80004	  7.97414	 -0.33383	 11.04428	703.99701	 23.20	
 11.909	-147.299	 10.29746	  2.20581	  8.64173	  3.18704	  7.50659	 -0.34564	 11.03548	703.88501	 23.20	
 11.889	-155.445	 10.32842	  2.01774	  8.93574	  3.64474	  7.01216	 -0.34631	 11.04985	703.96802	 23.20	
 11.890	-163.610	 10.31318	  1.87043	  9.11752	  4.12584	  6.45524	 -0.34737	 11.01093	703.84497	 23.20	
 11.899	-171.783	 10.33895	  1.78733	  9.25632	  4.64715	  5.91771	 -0.33659	 11.02103	703.80603	 23.20	
 11.900	180.000	 10.35803	  1.77179	  9.29923	  5.19172	  5.37459	 -0.33374	 11.02351	703.92102	 23.20	
 13.600	180.000	 10.12612	  1.13132	  9.66843	  4.98760	  5.14747	 -0.42875	 11.03743	703.80798	 23.20	
 13.608	-172.853	 10.12133	  1.14168	  9.65431	  4.45257	  5.69453	 -0.43514	 11.06323	703.90601	 23.20	
 13.611	-165.583	 10.06980	  1.20082	  9.50824	  3.90828	  6.22735	 -0.44443	 11.02470	703.89301	 23.20	
 13.601	-158.353	 10.05320	  1.32578	  9.31676	  3.39981	  6.78303	 -0.44694	 11.02971	704.03601	 23.20	
 13.609	-151.210	 10.05073	  1.49494	  9.07640	  2.94799	  7.30561	 -0.43619	 11.04604	703.89600	 23.20	
 13.611	-143.999	 10.02912	  1.72029	  8.74387	  2.52413	  7.79650	 -0.42591	 11.03903	703.81897	 23.20	
 13.601	-136.825	 10.01758	  2.00228	  8.35751	  2.14957	  8.25062	 -0.40919	 11.03529	703.83698	 23.20	
 13.596	-129.640	 10.01311	  2.33575	  7.92022	  1.82243	  8.66258	 -0.40564	 11.03874	703.83398	 23.20	
 13.611	-122.431	 10.00811	  2.71471	  7.43977	  1.54727	  9.01448	 -0.41039	 11.03876	703.98199	 23.20	
 13.604	-115.211	 10.02417	  3.14366	  6.93589	  1.33485	  9.30954	 -0.43756	 11.04993	703.90399	 23.20	
 13.595	-108.042	 10.04260	  3.61945	  6.40692	  1.17483	  9.54208	 -0.45247	 11.07144	703.92603	 23.20	
 13.607	-100.793	 10.00674	  4.10278	  5.82900	  1.05215	  9.65873	 -0.46431	 11.02801	703.83899	 23.20	
 13.601	-93.617	 10.01631	  4.63530	  5.28106	  1.00505	  9.73437	 -0.46823	 11.03747	705.64001	 23.20	
 13.601	-86.383	 10.02980	  5.19001	  4.73093	  1.00212	  9.74369	 -0.46544	 11.04157	705.56702	 23.20	
 13.607	-79.207	 10.02530	  5.73448	  4.19941	  1.05395	  9.65624	 -0.47178	 11.03218	703.81897	 23.20	
 13.595	-71.958	 10.03386	  6.29412	  3.69080	  1.16731	  9.50526	 -0.45582	 11.03886	703.91901	 23.20	
 13.604	-64.789	 10.05586	  6.85409	  3.21686	  1.32650	  9.30750	 -0.44147	 11.05614	703.95203	 23.20	
 13.611	-57.569	 10.03939	  7.35889	  2.77210	  1.54025	  8.99964	 -0.43530	 11.03431	704.03601	 23.20	
 13.596	-50.360	 10.06061	  7.86003	  2.38496	  1.80774	  8.66291	 -0.43186	 11.04811	704.05103	 23.20	
 13.601	-43.175	 10.05895	  8.29904	  2.03761	  2.13622	  8.24164	 -0.42509	 11.03512	704.08099	 23.20	
 13.611	-36.001	 10.07068	  8.69830	  1.73739	  2.50486	  7.78570	 -0.41919	 11.03847	703.94397	 23.20	
 13.609	-28.790	 10.08558	  9.03677	  1.49220	  2.91638	  7.29907	 -0.40812	 11.04316	704.02002	 23.20	
 13.601	-21.647	 10.10589	  9.30887	  1.30769	  3.37276	  6.78544	 -0.40683	 11.04935	704.02002	 23.20	
 13.611	-14.417	 10.11865	  9.50719	  1.17000	  3.87426	  6.22825	 -0.40985	 11.04873	703.94897	 23.20	
 13.608	 -7.147	 10.11526	  9.61143	  1.08465	  4.38632	  5.66461	 -0.41334	 11.02260	703.92902	 23.20	
 13.600	  0.000	 10.15856	  9.67763	  1.07009	  4.93703	  5.13406	 -0.42483	 11.04304	703.98297	 23.20	
 13.608	  7.147	 10.17029	  9.65417	  1.09139	  5.48707	  4.58949	 -0.43326	 11.04259	703.97400	 23.20	
 13.611	 14.417	 10.18227	  9.56138	  1.16726	  6.04122	  4.06853	 -0.43286	 11.03923	703.99597	 23.20	
 13.601	 21.647	 10.21370	  9.40396	  1.30896	  6.60070	  3.58808	 -0.42669	 11.05776	704.01099	 23.20	
 13.609	 28.790	 10.20024	  9.15066	  1.48980	  7.12351	  3.12019	 -0.42040	 11.03628	704.00500	 23.20	
 13.611	 36.001	 10.20168	  8.83983	  1.73324	  7.62036	  2.70881	 -0.41037	 11.03458	704.01398	 23.20	
 13.601	 43.175	 10.21156	  8.47579	  2.03678	  8.08399	  2.35054	 -0.38993	 11.04035	704.05298	 23.20	
 13.596	 50.360	 10.21069	  8.05343	  2.38002	  8.50260	  2.03119	 -0.38297	 11.04175	703.95099	 23.20	
 13.611	 57.569	 10.21571	  7.59740	  2.77092	  8.87470	  1.75976	 -0.38076	 11.04925	704.02197	 23.20	
 13.604	 64.789	 10.20552	  7.08614	  3.20448	  9.16401	  1.54407	 -0.37970	 11.04449	703.86401	 23.20	
 13.595	 71.958	 10.21757	  6.56076	  3.69230	  9.39699	  1.39333	 -0.40235	 11.05759	704.07599	 23.20	
 13.607	 79.207	 10.21079	  6.00318	  4.20298	  9.55028	  1.28732	 -0.41745	 11.04658	703.96600	 23.20	
 13.601	 86.383	 10.23335	  5.46172	  4.74717	  9.64701	  1.24194	 -0.43997	 11.06985	704.10699	 23.20	
 13.601	 93.617	 10.22496	  4.90576	  5.29765	  9.64042	  1.24556	 -0.45335	 11.05597	703.92902	 23.20	
 13.607	100.793	 10.22622	  4.36086	  5.85697	  9.58180	  1.28523	 -0.46314	 11.06229	704.03101	 23.20	
 13.595	108.042	 10.20585	  3.83864	  6.39866	  9.40767	  1.39666	 -0.45662	 11.03863	704.02301	 23.20	
 13.604	115.211	 10.19104	  3.36115	  6.92478	  9.17696	  1.55704	 -0.44115	 11.02211	703.97101	 23.20	
 13.611	122.431	 10.22086	  2.92599	  7.46351	  8.91867	  1.77841	 -0.43475	 11.05421	703.81702	 23.20	
 13.596	129.640	 10.20726	  2.52430	  7.93630	  8.55166	  2.05125	 -0.41907	 11.04100	703.87097	 23.20	
 13.601	136.825	 10.21208	  2.17171	  8.38397	  8.15118	  2.37370	 -0.40748	 11.05044	704.06097	 23.20	
 13.611	143.999	 10.19311	  1.85767	  8.76112	  7.69076	  2.73124	 -0.40031	 11.04224	703.81897	 23.20	
 13.609	151.210	 10.19494	  1.61494	  9.08624	  7.19932	  3.15200	 -0.39673	 11.05088	703.95697	 23.20	
 13.601	158.353	 10.18637	  1.41812	  9.34331	  6.66527	  3.61398	 -0.40456	 11.05188	704.04498	 23.20	
 13.611	165.583	 10.17998	  1.26379	  9.54065	  6.12014	  4.10077	 -0.41317	 11.06294	704.10101	 23.20	
 13.608	172.853	 10.13590	  1.16508	  9.62868	  5.54691	  4.60195	 -0.42136	 11.03815	704.00598	 23.20	
 15.298	173.587	  9.85230	  0.54277	  9.93596	  5.29685	  4.34519	 -0.50357	 11.02935	704.11200	 23.20	
 15.291	167.167	  9.87531	  0.62147	  9.84791	  5.84771	  3.84104	 -0.50471	 11.03757	703.98798	 23.20	
 15.307	160.676	  9.90520	  0.75323	  9.69330	  6.41627	  3.35550	 -0.49128	 11.04679	704.10101	 23.20	
 15.300	154.261	  9.91905	  0.92681	  9.46375	  6.96094	  2.89360	 -0.48376	 11.04885	703.99103	 23.20	
 15.288	147.854	  9.92435	  1.13957	  9.17095	  7.47544	  2.46550	 -0.47257	 11.04624	704.00500	 23.20	
 15.293	141.428	  9.91672	  1.40471	  8.80331	  7.94515	  2.07812	 -0.48061	 11.02425	704.05298	 23.20	
 15.299	134.985	  9.92291	  1.70813	  8.40176	  8.40087	  1.72658	 -0.48957	 11.03106	704.04999	 23.20	
 15.305	128.583	  9.95813	  2.06864	  7.97506	  8.82658	  1.43212	 -0.49610	 11.06051	703.94397	 23.20	
 15.309	122.142	  9.95035	  2.46409	  7.47815	  9.16877	  1.17484	 -0.51023	 11.05541	704.01398	 23.20	
 15.304	115.711	  9.95368	  2.89691	  6.96568	  9.45279	  0.96868	 -0.51125	 11.05641	704.02698	 23.20	
 15.297	109.291	  9.95027	  3.36620	  6.42487	  9.68040	  0.80279	 -0.51425	 11.05539	704.03101	 23.20	
 15.293	102.897	  9.92388	  3.85836	  5.85707	  9.81848	  0.68529	 -0.51072	 11.02663	704.08197	 23.20	
 15.293	 96.458	  9.92353	  4.38296	  5.30618	  9.91349	  0.62094	 -0.51069	 11.02860	704.08899	 23.20	
 15.300	 90.000	  9.93701	  4.93972	  4.75706	  9.95602	  0.59880	 -0.50972	 11.04028	704.04199	 23.20	
 15.293	 83.542	  9.94547	  5.49387	  4.22018	  9.92386	  0.62179	 -0.49869	 11.04939	704.05298	 23.20	
 15.293	 77.103	  9.92655	  6.04068	  3.68830	  9.79278	  0.69567	 -0.47431	 11.02895	704.07501	 23.20	
 15.297	 70.709	  9.94163	  6.58318	  3.20355	  9.63728	  0.80549	 -0.46295	 11.04560	704.00800	 23.20	
 15.304	 64.289	  9.94107	  7.12047	  2.73573	  9.39830	  0.96645	 -0.43677	 11.04453	704.06500	 23.20	
 15.309	 57.858	  9.92411	  7.61151	  2.29585	  9.09501	  1.15527	 -0.42700	 11.02716	704.00598	 23.20	
 15.305	 51.417	  9.93081	  8.08756	  1.90947	  8.74112	  1.41069	 -0.43144	 11.03728	703.99103	 23.20	
 15.299	 45.015	  9.94794	  8.53382	  1.56915	  8.33981	  1.71892	 -0.44218	 11.04821	704.04999	 23.20	
 15.293	 38.572	  9.95312	  8.92884	  1.27048	  7.87903	  2.07630	 -0.44375	 11.05069	704.07800	 23.20	
 15.288	 32.146	  9.94169	  9.25374	  1.01737	  7.38786	  2.45592	 -0.44760	 11.04077	704.06097	 23.20	
 15.300	 25.739	  9.93786	  9.53446	  0.80370	  6.87663	  2.87345	 -0.44740	 11.04583	703.95502	 23.20	
 15.307	 19.324	  9.92435	  9.74417	  0.63988	  6.33098	  3.33450	 -0.44094	 11.04168	704.05902	 23.20	
 15.291	 12.833	  9.91230	  9.88717	  0.53152	  5.78141	  3.82847	 -0.44490	 11.03858	703.95099	 23.20	
 15.298	  6.413	  9.90115	  9.97930	  0.46134	  5.23585	  4.33792	 -0.43853	 11.04656	703.95502	 23.20	
 15.300	  0.000	  9.88773	 10.00084	  0.44302	  4.68631	  4.88405	 -0.44187	 11.05521	704.09802	 23.20	
 15.298	 -6.413	  9.84933	  9.93748	  0.46047	  4.14464	  5.41431	 -0.43152	 11.03447	703.94098	 23.20	
 15.291	-12.833	  9.82382	  9.81470	  0.53262	  3.62890	  5.95374	 -0.43891	 11.02152	704.06201	 23.20	
 15.307	-19.324	  9.81806	  9.64807	  0.64533	  3.12549	  6.52005	 -0.43328	 11.03714	703.98798	 23.20	
 15.300	-25.739	  9.78781	  9.39326	  0.80615	  2.65941	  7.04650	 -0.43590	 11.02381	703.98798	 23.20	
 15.288	-32.146	  9.78199	  9.09859	  1.01342	  2.24017	  7.55681	 -0.43812	 11.03526	703.85602	 23.20	
 15.293	-38.572	  9.79183	  8.75384	  1.27168	  1.85004	  8.05997	 -0.44384	 11.05557	703.86499	 23.20	
 15.299	-45.015	  9.76177	  8.32179	  1.57079	  1.49821	  8.48989	 -0.44229	 11.03296	703.82599	 23.20	
 15.305	-51.417	  9.76952	  7.87529	  1.92015	  1.20533	  8.89223	 -0.44586	 11.04589	703.91602	 23.20	
 15.309	-57.858	  9.75810	  7.38270	  2.30340	  0.94804	  9.23741	 -0.44392	 11.04486	703.89301	 23.20	
 15.304	-64.289	  9.75503	  6.85979	  2.73523	  0.74679	  9.52839	 -0.43388	 11.04609	703.93298	 23.20	
 15.297	-70.709	  9.74572	  6.30956	  3.19986	  0.58751	  9.75034	 -0.44062	 11.04167	703.94397	 23.20	
 15.293	-77.103	  9.72474	  5.74728	  3.68527	  0.46492	  9.90406	 -0.45478	 11.02696	704.01300	 23.20	
 15.293	-83.542	  9.72356	  5.19108	  4.20892	  0.39407	 10.01478	 -0.46446	 11.03925	704.02802	 23.20	
 15.300	-90.000	  9.70657	  4.62948	  4.74515	  0.36611	 10.04526	 -0.47623	 11.02912	703.84497	 23.20	
 15.293	-96.458	  9.69732	  4.09458	  5.29134	  0.39134	 10.00552	 -0.48568	 11.02199	703.97803	 23.20	
 15.293	-102.897	  9.71823	  3.59121	  5.85749	  0.45686	  9.93594	 -0.50069	 11.05352	703.87000	 23.30	
 15.297	-109.291	  9.70216	  3.10285	  6.40247	  0.58308	  9.75698	 -0.48927	 11.03479	703.94299	 23.20	
 15.304	-115.711	  9.69958	  2.64610	  6.94129	  0.74426	  9.52714	 -0.48225	 11.03519	703.98297	 23.30	
 15.309	-122.142	  9.70019	  2.22901	  7.46071	  0.95465	  9.23563	 -0.47642	 11.03645	703.99701	 23.20	
 15.305	-128.583	  9.68961	  1.85592	  7.93266	  1.21446	  8.87635	 -0.46774	 11.01359	704.01898	 23.20	
 15.299	-134.985	  9.71126	  1.52900	  8.39368	  1.50931	  8.50536	 -0.47259	 11.03997	703.95502	 23.20	
 15.293	-141.428	  9.72764	  1.24921	  8.80144	  1.87354	  8.05703	 -0.48681	 11.04085	704.02002	 23.20	
 15.288	-147.854	  9.75379	  1.00907	  9.16604	  2.27266	  7.57779	 -0.51208	 11.05768	704.04199	 23.20	
 15.300	-154.261	  9.75211	  0.81835	  9.44225	  2.69616	  7.06213	 -0.51824	 11.03763	704.01599	 23.30	
 15.307	-160.676	  9.76471	  0.66534	  9.67257	  3.16122	  6.52381	 -0.52377	 11.03688	703.95697	 23.20	
 15.291	-167.167	  9.79822	  0.57270	  9.84930	  3.68323	  5.97545	 -0.51913	 11.04467	704.01599	 23.20	
 15.298	-173.587	  9.81031	  0.51650	  9.93864	  4.20534	  5.42259	 -0.51297	 11.03075	703.99597	 23.30	
 15.300	180.000	  9.83466	  0.51021	  9.97663	  4.74456	  4.89003	 -0.50841	 11.03665	703.98901	 23.20	
 17.000	180.000	  9.52833	 -0.09905	 10.26776	  4.47691	  4.61201	 -0.56372	 11.05632	703.94299	 23.20	
 16.990	-174.179	  9.49217	 -0.08947	 10.22031	  3.93613	  5.14230	 -0.55968	 11.03880	704.06097	 23.20	
 17.009	-168.383	  9.46013	 -0.04918	 10.12821	  3.41526	  5.68233	 -0.56326	 11.02763	704.06702	 23.20	
 17.000	-162.596	  9.45210	  0.04131	  9.98965	  2.91596	  6.24244	 -0.56075	 11.04294	704.18799	 23.20	
 16.990	-156.759	  9.44119	  0.16660	  9.78579	  2.44828	  6.78100	 -0.56488	 11.05281	704.13800	 23.20	
 16.995	-150.919	  9.40012	  0.32177	  9.49694	  1.99469	  7.29258	 -0.56565	 11.02423	704.01300	 23.20	
 16.988	-145.161	  9.40671	  0.53206	  9.19411	  1.59883	  7.80936	 -0.56022	 11.04806	703.80902	 23.20	
 17.014	-139.343	  9.38025	  0.76892	  8.81443	  1.22175	  8.27283	 -0.53601	 11.04100	704.00299	 23.30	
 17.007	-133.546	  9.37268	  1.05928	  8.39713	  0.90855	  8.69657	 -0.52043	 11.03222	704.07800	 23.20	
 17.001	-127.699	  9.38784	  1.39094	  7.95031	  0.61809	  9.11024	 -0.51667	 11.05829	704.11798	 23.20	
 17.006	-121.937	  9.36552	  1.74783	  7.44613	  0.36966	  9.43545	 -0.51408	 11.04056	704.05902	 23.30	
 17.002	-116.134	  9.34407	  2.15050	  6.90987	  0.16474	  9.70834	 -0.51535	 11.01597	704.10602	 23.30	
 17.001	-110.310	  9.36583	  2.59253	  6.38925	  0.00597	  9.96403	 -0.50931	 11.03730	704.20300	 23.20	
 16.988	-104.517	  9.36951	  3.06715	  5.84042	 -0.10924	 10.13232	 -0.49846	 11.03292	704.00800	 23.20	
 17.008	-98.662	  9.38064	  3.56361	  5.29036	 -0.19647	 10.26370	 -0.47884	 11.04619	704.02802	 23.20	
 16.996	-92.909	  9.39465	  4.08933	  4.74968	 -0.23008	 10.32877	 -0.44840	 11.05596	704.04199	 23.20	
 16.996	-87.091	  9.38732	  4.62557	  4.20079	 -0.22608	 10.31172	 -0.43527	 11.04039	704.07300	 23.20	
 17.012	-81.253	  9.37427	  5.16723	  3.66394	 -0.19909	 10.24143	 -0.40478	 11.02566	703.88202	 23.20	
 16.988	-75.483	  9.39414	  5.72025	  3.17674	 -0.10929	 10.12658	 -0.40364	 11.03106	704.08099	 23.20	
 17.001	-69.690	  9.40107	  6.26750	  2.70026	  0.00378	  9.95737	 -0.41073	 11.03321	704.10602	 23.20	
 17.002	-63.866	  9.42197	  6.82352	  2.25082	  0.16381	  9.73446	 -0.42433	 11.05087	704.13000	 23.20	
 17.006	-58.063	  9.43218	  7.35213	  1.83298	  0.36028	  9.44636	 -0.42552	 11.05186	704.17902	 23.20	
 17.001	-52.301	  9.42716	  7.83763	  1.45808	  0.60869	  9.08600	 -0.42663	 11.03395	704.00500	 23.20	
 17.007	-46.454	  9.44123	  8.31221	  1.11404	  0.89343	  8.69683	 -0.43683	 11.03980	704.00800	 23.20	
 17.014	-40.657	  9.44588	  8.73863	  0.80851	  1.20460	  8.27118	 -0.43797	 11.04303	704.14899	 23.20	
 16.988	-34.839	  9.47490	  9.13339	  0.55671	  1.57745	  7.80881	 -0.43568	 11.05632	704.10400	 23.20	
 16.995	-29.081	  9.48625	  9.46013	  0.33784	  1.97478	  7.30537	 -0.43860	 11.04895	704.14099	 23.30	
 16.990	-23.241	  9.48282	  9.72456	  0.15704	  2.40197	  6.76984	 -0.43508	 11.03135	704.13702	 23.20	
 17.000	-17.404	  9.51840	  9.97021	  0.01589	  2.86526	  6.25212	 -0.43006	 11.05999	704.02301	 23.20	
 17.009	-11.617	  9.52633	 10.12314	 -0.08488	  3.35700	  5.69458	 -0.42764	 11.04543	704.06702	 23.30	
 16.990	 -5.821	  9.53484	 10.20609	 -0.13397	  3.86648	  5.14620	 -0.41464	 11.02638	704.07599	 23.20	
 17.000	  0.000	  9.56665	 10.26498	 -0.15809	  4.40052	  4.60804	 -0.41156	 11.04426	704.07599	 23.20	
 16.990	  5.821	  9.59272	 10.25570	 -0.13989	  4.95178	  4.07514	 -0.41652	 11.05002	704.04700	 23.20	
 17.009	 11.617	  9.60560	 10.18631	 -0.09286	  5.49410	  3.56144	 -0.41904	 11.04858	703.93298	 23.20	
 17.000	 17.404	  9.62320	 10.05618	  0.00867	  6.04293	  3.07774	 -0.41358	 11.05289	704.09900	 23.20	
 16.990	 23.241	  9.62022	  9.84545	  0.14938	  6.58479	  2.60543	 -0.42981	 11.03326	704.03003	 23.20	
 16.995	 29.081	  9.64274	  9.61063	  0.32684	  7.12127	  2.17984	 -0.44193	 11.05024	704.03900	 23.20	
 16.988	 34.839	  9.65826	  9.31921	  0.54686	  7.63008	  1.79503	 -0.45896	 11.06341	704.04401	 23.20	
 17.014	 40.657	  9.62747	  8.94204	  0.79361	  8.09250	  1.41286	 -0.45907	 11.03001	704.17499	 23.20	
 17.007	 46.454	  9.63275	  8.53648	  1.09868	  8.55095	  1.08825	 -0.47006	 11.04140	704.20203	 23.20	
 17.001	 52.301	  9.63601	  8.09806	  1.44462	  8.95037	  0.81754	 -0.46891	 11.04622	704.21100	 23.20	
 17.006	 58.063	  9.64098	  7.63283	  1.82156	  9.30963	  0.57609	 -0.46822	 11.05436	704.01300	 23.20	
 17.002	 63.866	  9.62634	  7.11525	  2.23453	  9.60812	  0.36931	 -0.48474	 11.04515	704.03699	 23.20	
 17.001	 69.690	  9.61887	  6.58561	  2.67693	  9.84862	  0.20682	 -0.49267	 11.03785	704.12299	 23.20	
 16.988	 75.483	  9.62215	  6.04184	  3.16496	 10.04152	  0.08952	 -0.51099	 11.04725	704.13702	 23.20	
 17.012	 81.253	  9.64357	  5.50987	  3.67389	 10.19388	  0.00996	 -0.51492	 11.07392	704.11298	 23.20	
 16.996	 87.091	  9.63406	  4.95402	  4.20075	 10.24313	 -0.01821	 -0.51393	 11.05845	704.04498	 23.20	
 16.996	 92.909	  9.63678	  4.41083	  4.75091	 10.25127	 -0.01608	 -0.50953	 11.05767	704.20801	 23.20	
 17.008	 98.662	  9.64700	  3.89072	  5.29980	 10.20738	  0.02083	 -0.50401	 11.06994	704.06702	 23.20	
 16.988	104.517	  9.64346	  3.36525	  5.85691	 10.08079	  0.10453	 -0.50416	 11.06346	704.03699	 23.20	
 17.001	110.310	  9.64322	  2.87773	  6.40617	  9.90596	  0.22133	 -0.52073	 11.05970	704.04999	 23.20	
 17.002	116.134	  9.64703	  2.42017	  6.94663	  9.66939	  0.38545	 -0.53431	 11.05963	704.13702	 23.20	
 17.006	121.937	  9.63771	  1.99279	  7.45820	  9.36960	  0.58737	 -0.54161	 11.04693	704.01300	 23.20	
 17.001	127.699	  9.64370	  1.60739	  7.95360	  9.03541	  0.82832	 -0.54149	 11.05446	703.96600	 23.20	
 17.007	133.546	  9.63560	  1.24677	  8.41542	  8.64079	  1.10049	 -0.54530	 11.05009	704.01099	 23.20	
 17.014	139.343	  9.62704	  0.94069	  8.83085	  8.20318	  1.42127	 -0.54197	 11.04986	704.10901	 23.20	
 16.988	145.161	  9.62265	  0.68471	  9.20070	  7.71921	  1.80058	 -0.54583	 11.04405	704.17999	 23.30	
 16.995	150.919	  9.62260	  0.46079	  9.52926	  7.22471	  2.19229	 -0.54185	 11.05531	704.04498	 23.20	
 16.990	156.759	  9.60716	  0.26871	  9.79240	  6.69232	  2.62415	 -0.55546	 11.05174	704.15698	 23.30	
 17.000	162.596	  9.59345	  0.11521	 10.00517	  6.13899	  3.08603	 -0.55857	 11.05723	704.12598	 23.20	
 17.009	168.383	  9.56289	 -0.00017	 10.14045	  5.57738	  3.56294	 -0.56341	 11.03578	703.26599	 23.30	
 16.990	174.179	  9.53201	 -0.05820	 10.20919	  5.01788	  4.07289	 -0.56057	 11.02111	703.96600	 23.30	
 18.709	174.675	  9.20834	 -0.65789	 10.48215	  4.74042	  3.77690	 -0.58524	 11.05647	704.17700	 23.30	
 18.703	169.441	  9.21756	 -0.60069	 10.39472	  5.27596	  3.27463	 -0.59022	 11.04539	704.12402	 23.30	
 18.691	164.085	  9.25250	 -0.49502	 10.26760	  5.83835	  2.80267	 -0.58954	 11.05465	704.21600	 23.20	
 18.706	158.818	  9.24459	 -0.37184	 10.06279	  6.37915	  2.32420	 -0.59418	 11.03798	702.89697	 23.30	
 18.695	153.537	  9.27841	 -0.20370	  9.84059	  6.91909	  1.91397	 -0.59601	 11.05442	704.12299	 23.30	
 18.704	148.255	  9.26702	 -0.00653	  9.52604	  7.42102	  1.51055	 -0.59118	 11.02929	704.05798	 23.30	
 18.698	142.952	  9.29523	  0.22438	  9.19986	  7.93692	  1.13720	 -0.58711	 11.05259	704.06702	 23.30	
 18.699	137.625	  9.29445	  0.48951	  8.80134	  8.39566	  0.79656	 -0.57824	 11.05023	704.05402	 23.30	
 18.705	132.343	  9.28467	  0.79673	  8.35769	  8.80225	  0.50222	 -0.56270	 11.02621	704.05103	 23.30	
 18.713	127.067	  9.28848	  1.13263	  7.89941	  9.19472	  0.23040	 -0.55513	 11.03770	704.12903	 23.30	
 18.700	121.794	  9.28982	  1.51442	  7.40446	  9.53572	  0.00496	 -0.53207	 11.03147	704.11298	 23.30	
 18.698	116.504	  9.27321	  1.91984	  6.87810	  9.82051	 -0.19593	 -0.50032	 11.02519	704.14801	 23.30	
 18.707	111.165	  9.28834	  2.36356	  6.35423	 10.07890	 -0.35411	 -0.48613	 11.04546	704.09802	 23.30	
 18.690	105.863	  9.27225	  2.83882	  5.79886	 10.23389	 -0.46239	 -0.46342	 11.02227	703.96802	 23.30	
 18.696	100.583	  9.28683	  3.34077	  5.26118	 10.38416	 -0.55097	 -0.46195	 11.04402	703.99402	 23.30	
 18.700	 95.309	  9.29354	  3.85664	  4.72104	 10.46680	 -0.59933	 -0.45882	 11.05438	702.48901	 23.30	
 18.700	 90.000	  9.27619	  4.38751	  4.16707	 10.46083	 -0.60453	 -0.47273	 11.02581	702.55798	 23.30	
 18.700	 84.691	  9.28752	  4.93746	  3.64375	 10.44349	 -0.58980	 -0.48696	 11.04187	704.17499	 23.30	
 18.696	 79.417	  9.29624	  5.48618	  3.13235	 10.36638	 -0.54540	 -0.50083	 11.05207	704.20001	 23.30	
 18.690	 74.137	  9.30793	  6.03321	  2.65207	 10.23670	 -0.46369	 -0.51210	 11.06441	704.04199	 23.30	
 18.707	 68.835	  9.27402	  6.54720	  2.17719	 10.01484	 -0.35533	 -0.50310	 11.03302	704.00800	 23.30	
 18.698	 63.496	  9.27505	  7.07922	  1.73523	  9.75932	 -0.19934	 -0.50294	 11.02891	704.16901	 23.30	
 18.700	 58.206	  9.27811	  7.57919	  1.33704	  9.45599	 -0.00784	 -0.49375	 11.02648	704.10602	 23.30	
 18.713	 52.933	  9.29352	  8.06689	  0.96923	  9.11716	  0.21748	 -0.49892	 11.04009	704.10699	 23.30	
 18.705	 47.657	  9.30235	  8.52072	  0.63903	  8.72029	  0.48902	 -0.48409	 11.04142	704.07300	 23.30	
 18.699	 42.375	  9.30393	  8.92839	  0.34317	  8.29194	  0.78661	 -0.46722	 11.04149	703.99597	 23.30	
 18.698	 37.048	  9.30709	  9.30784	  0.08198	  7.81773	  1.12785	 -0.43503	 11.04514	704.05402	 23.30	
 18.704	 31.745	  9.30874	  9.63840	 -0.14333	  7.32138	  1.49787	 -0.42031	 11.04228	704.12097	 23.30	
 18.695	 26.463	  9.27829	  9.89172	 -0.33106	  6.78322	  1.89811	 -0.39654	 11.01763	703.54999	 23.30	
 18.706	 21.182	  9.28094	 10.12965	 -0.48522	  6.26726	  2.32616	 -0.38148	 11.03112	704.04999	 23.30	
 18.691	 15.915	  9.26807	 10.28747	 -0.59167	  5.72898	  2.78350	 -0.39339	 11.02667	702.46600	 23.30	
 18.703	 10.559	  9.27302	 10.42786	 -0.67928	  5.19213	  3.27911	 -0.38938	 11.04923	702.58398	 23.30	
 18.709	  5.325	  9.25627	 10.49232	 -0.72639	  4.66341	  3.77294	 -0.40122	 11.05390	702.61603	 23.30	
 18.700	  0.000	  9.22774	 10.50041	 -0.73935	  4.10634	  4.31331	 -0.37680	 11.04302	702.57800	 23.30	
 18.709	 -5.325	  9.19397	 10.44828	 -0.72644	  3.57681	  4.83944	 -0.39020	 11.03105	702.83502	 23.30	
 18.703	-10.559	  9.18202	 10.35931	 -0.67348	  3.08224	  5.37703	 -0.40543	 11.03432	704.15503	 23.30	
 18.691	-15.915	  9.16728	 10.22014	 -0.58509	  2.58552	  5.94143	 -0.40212	 11.04978	702.57599	 23.30	
 18.706	-21.182	  9.15158	 10.03012	 -0.47909	  2.12871	  6.47258	 -0.40634	 11.05253	704.16101	 23.30	
 18.695	-26.463	  9.13579	  9.77260	 -0.32158	  1.70127	  6.99457	 -0.41244	 11.04883	702.53601	 23.30	
 18.704	-31.745	  9.09461	  9.44157	 -0.13463	  1.28844	  7.49140	 -0.41290	 11.02072	702.65698	 23.30	
 18.698	-37.048	  9.10179	  9.10323	  0.08881	  0.92086	  7.99560	 -0.39703	 11.04378	704.06799	 23.30	
 18.699	-42.375	  9.09163	  8.69883	  0.35649	  0.59150	  8.45324	 -0.41065	 11.03798	703.99701	 23.30	
 18.705	-47.657	  9.07537	  8.25818	  0.65206	  0.29088	  8.86741	 -0.40855	 11.03631	702.78900	 23.30	
 18.713	-52.933	  9.07327	  7.79402	  0.98334	  0.01653	  9.26302	 -0.39361	 11.04784	702.49701	 23.30	
 18.700	-58.206	  9.06588	  7.28740	  1.35793	 -0.20436	  9.59765	 -0.38191	 11.04525	702.99200	 23.30	
 18.698	-63.496	  9.07824	  6.78298	  1.76445	 -0.38883	  9.89871	 -0.37808	 11.06294	704.17999	 23.30	
 18.707	-68.835	  9.05494	  6.22853	  2.19654	 -0.54071	 10.12008	 -0.36244	 11.04595	704.29303	 23.30	
 18.690	-74.137	  9.04168	  5.67914	  2.66378	 -0.64845	 10.28743	 -0.37589	 11.02930	704.14801	 23.30	
 18.696	-79.417	  9.02882	  5.12401	  3.14533	 -0.74211	 10.42232	 -0.36718	 11.03026	704.20801	 23.30	
 18.700	-84.691	  9.02961	  4.58824	  3.65152	 -0.79934	 10.51810	 -0.38107	 11.04773	704.24701	 23.30	
 18.700	-90.000	  9.02110	  4.04701	  4.17729	 -0.81991	 10.54535	 -0.39742	 11.04201	704.06201	 23.30	
 18.700	-95.309	  9.00835	  3.52124	  4.71453	 -0.80646	 10.51105	 -0.40841	 11.03706	703.99402	 23.30	
 18.696	-100.583	  9.00867	  3.02170	  5.25631	 -0.75921	 10.44139	 -0.44205	 11.03987	704.22498	 23.30	
 18.690	-105.863	  9.00430	  2.53690	  5.81161	 -0.65940	 10.30132	 -0.46411	 11.03853	704.22998	 23.30	
 18.707	-111.165	  9.01652	  2.08712	  6.36706	 -0.54126	 10.13568	 -0.49370	 11.05844	704.01599	 23.30	
 18.698	-116.504	  9.00380	  1.65330	  6.89846	 -0.38781	  9.88566	 -0.52138	 11.04646	704.24701	 23.30	
 18.700	-121.794	  9.00046	  1.26056	  7.40785	 -0.20586	  9.60288	 -0.53863	 11.04787	704.24799	 23.30	
 18.713	-127.067	  9.00310	  0.90322	  7.90416	  0.02596	  9.26334	 -0.54755	 11.05017	704.16302	 23.30	
 18.705	-132.343	  9.00481	  0.58685	  8.36454	  0.30101	  8.86994	 -0.56003	 11.04138	702.61603	 23.30	
 18.699	-137.625	  9.02908	  0.30201	  8.80884	  0.61132	  8.45503	 -0.57230	 11.06205	702.65698	 23.30	
 18.698	-142.952	  9.03473	  0.05286	  9.19339	  0.94943	  7.99504	 -0.57048	 11.05421	704.33698	 23.30	
 18.704	-148.255	  9.03961	 -0.15984	  9.52638	  1.32053	  7.49953	 -0.56759	 11.03914	704.21600	 23.30	
 18.695	-153.537	  9.05359	 -0.32617	  9.81320	  1.73591	  6.99079	 -0.56671	 11.03699	704.17499	 23.30	
 18.706	-158.818	  9.07795	 -0.47397	 10.06705	  2.17606	  6.47046	 -0.55874	 11.04476	704.27002	 23.30	
 18.691	-164.085	  9.11707	 -0.57194	 10.26887	  2.65036	  5.95031	 -0.56264	 11.06238	704.42700	 23.30	
 18.703	-169.441	  9.12644	 -0.65031	 10.39414	  3.14909	  5.37525	 -0.56381	 11.04898	704.35797	 23.30	
 18.709	-174.675	  9.14391	 -0.68369	 10.46788	  3.65373	  4.83522	 -0.56993	 11.04389	703.33502	 23.30	
 18.700	180.000	  9.16306	 -0.68598	 10.48442	  4.17873	  4.30143	 -0.57062	 11.03061	702.64301	 23.30	
 20.400	180.000	  8.78794	 -1.27171	 10.68867	  3.86877	  3.98265	 -0.55290	 11.04373	704.44397	 23.30	
 20.401	-175.153	  8.75525	 -1.26674	 10.65876	  3.35380	  4.50792	 -0.53902	 11.03456	704.38300	 23.30	
 20.407	-170.264	  8.72458	 -1.23758	 10.58262	  2.84580	  5.03665	 -0.52758	 11.03230	704.23700	 23.30	
 20.410	-165.423	  8.71617	 -1.18274	 10.48070	  2.36063	  5.59175	 -0.52340	 11.04868	704.38300	 23.30	
 20.392	-160.496	  8.69740	 -1.09233	 10.31384	  1.90325	  6.12470	 -0.52000	 11.05603	703.70898	 23.30	
 20.401	-155.705	  8.66891	 -0.97723	 10.08951	  1.45883	  6.64734	 -0.52103	 11.04965	704.36499	 23.30	
 20.405	-150.835	  8.64304	 -0.81676	  9.80232	  1.03772	  7.16291	 -0.52856	 11.03282	703.89001	 23.30	
 20.397	-145.903	  8.62936	 -0.62270	  9.48382	  0.65640	  7.66639	 -0.54175	 11.03159	704.35199	 23.30	
 20.392	-141.062	  8.61363	 -0.41514	  9.12497	  0.30803	  8.13551	 -0.55735	 11.03471	704.28998	 23.30	
 20.396	-136.227	  8.60137	 -0.16493	  8.72422	 -0.00988	  8.58339	 -0.56203	 11.03120	704.32001	 23.30	
 20.408	-131.372	  8.60817	  0.10106	  8.30559	 -0.31054	  9.02028	 -0.56659	 11.05996	704.12402	 23.30	
 20.410	-126.511	  8.60054	  0.41942	  7.83007	 -0.55646	  9.38972	 -0.55111	 11.05332	704.27301	 23.30	
 20.400	-121.604	  8.60007	  0.77117	  7.33414	 -0.76848	  9.72017	 -0.53396	 11.04685	704.32703	 23.30	
 20.403	-116.741	  8.57941	  1.13812	  6.81000	 -0.95013	  9.98383	 -0.51173	 11.02478	704.18298	 23.30	
 20.413	-111.900	  8.59699	  1.54850	  6.29618	 -1.10840	 10.24918	 -0.48259	 11.04556	704.18799	 23.30	
 20.398	-107.004	  8.63132	  1.99674	  5.77024	 -1.23647	 10.47924	 -0.44667	 11.08315	704.09003	 23.30	
 20.394	-102.132	  8.63926	  2.47024	  5.21930	 -1.32915	 10.62484	 -0.41262	 11.08800	704.11798	 23.30	
 20.403	-97.332	  8.61242	  2.93846	  4.66521	 -1.39166	 10.68302	 -0.38622	 11.04358	704.19598	 23.30	
 20.392	-92.440	  8.62147	  3.44659	  4.13070	 -1.41741	 10.73348	 -0.36929	 11.05050	704.19098	 23.30	
 20.392	-87.560	  8.62751	  3.96561	  3.60029	 -1.41618	 10.73542	 -0.36199	 11.05618	704.23297	 23.30	
 20.403	-82.668	  8.62745	  4.50290	  3.08051	 -1.39332	 10.68859	 -0.36213	 11.05465	704.11603	 23.30	
 20.394	-77.868	  8.63390	  5.04106	  2.59378	 -1.33103	 10.59403	 -0.33554	 11.05241	704.18298	 23.30	
 20.398	-72.996	  8.67526	  5.61144	  2.12986	 -1.24320	 10.48703	 -0.33188	 11.08954	704.18500	 23.30	
 20.413	-68.100	  8.66240	  6.14697	  1.66819	 -1.12055	 10.27440	 -0.33564	 11.06517	704.24701	 23.30	
 20.403	-63.259	  8.68317	  6.68816	  1.26248	 -0.96845	 10.04199	 -0.32870	 11.07424	704.23401	 23.30	
 20.400	-58.396	  8.66905	  7.19448	  0.86955	 -0.78036	  9.72707	 -0.33943	 11.04214	704.21698	 23.30	
 20.410	-53.489	  8.68856	  7.71147	  0.50586	 -0.57121	  9.41076	 -0.34869	 11.06513	704.36499	 23.30	
 20.408	-48.628	  8.68853	  8.17970	  0.17454	 -0.32466	  9.02762	 -0.37273	 11.05104	703.25598	 23.30	
 20.396	-43.773	  8.69278	  8.61529	 -0.11295	 -0.03505	  8.60190	 -0.38856	 11.03763	703.52399	 23.30	
 20.392	-38.938	  8.72206	  9.05049	 -0.37483	  0.27542	  8.17486	 -0.38098	 11.06357	704.25098	 23.30	
 20.397	-34.097	  8.74750	  9.43800	 -0.60287	  0.61931	  7.71119	 -0.38454	 11.07416	702.86298	 23.30	
 20.405	-29.165	  8.75089	  9.76286	 -0.80232	  0.99312	  7.19836	 -0.39816	 11.06798	703.76001	 23.30	
 20.401	-24.295	  8.77066	 10.04441	 -0.96081	  1.41101	  6.67474	 -0.39432	 11.06377	702.65399	 23.30	
 20.392	-19.504	  8.79629	 10.28850	 -1.09190	  1.84150	  6.15796	 -0.38621	 11.07531	702.82898	 23.30	
 20.410	-14.577	  8.81775	 10.48433	 -1.20791	  2.29098	  5.62327	 -0.36965	 11.08710	704.41302	 23.30	
 20.407	 -9.736	  8.82067	 10.58881	 -1.26401	  2.77190	  5.06786	 -0.36218	 11.06156	704.40302	 23.30	
 20.401	 -4.847	  8.82610	 10.65672	 -1.31272	  3.26720	  4.51912	 -0.35243	 11.04173	703.40900	 23.30	
 20.400	  0.000	  8.86881	 10.71629	 -1.32471	  3.78758	  4.00524	 -0.34845	 11.06683	702.64697	 23.30	
 20.401	  4.847	  8.89025	 10.70445	 -1.31397	  4.32779	  3.47808	 -0.35277	 11.06880	702.78101	 23.30	
 20.407	  9.736	  8.91331	 10.65396	 -1.27478	  4.86044	  2.97945	 -0.34486	 11.06913	704.32898	 23.30	
 20.410	 14.577	  8.91027	 10.53660	 -1.20893	  5.38696	  2.49345	 -0.34833	 11.04998	702.69897	 23.30	
 20.392	 19.504	  8.92881	 10.37647	 -1.09515	  5.93996	  2.03654	 -0.35740	 11.05281	704.03699	 23.30	
 20.401	 24.295	  8.93708	 10.17292	 -0.96453	  6.46203	  1.61295	 -0.36751	 11.04510	704.31000	 23.30	
 20.405	 29.165	  8.93243	  9.91250	 -0.80606	  6.97520	  1.20705	 -0.37059	 11.03619	704.18500	 23.30	
 20.397	 34.097	  8.94209	  9.61222	 -0.61002	  7.50376	  0.81497	 -0.38944	 11.04674	704.16101	 23.30	
 20.392	 38.938	  8.93704	  9.25998	 -0.38568	  7.98033	  0.46726	 -0.41823	 11.03946	704.16101	 23.30	
 20.396	 43.773	  8.93177	  8.87721	 -0.12197	  8.42424	  0.17166	 -0.44707	 11.03086	704.24200	 23.30	
 20.408	 48.628	  8.91468	  8.44629	  0.16415	  8.84408	 -0.11728	 -0.47101	 11.02095	704.19299	 23.30	
 20.410	 53.489	  8.90398	  7.99551	  0.48058	  9.22747	 -0.36761	 -0.48643	 11.02054	702.62000	 23.30	
 20.400	 58.396	  8.91545	  7.52096	  0.84808	  9.59721	 -0.58507	 -0.49327	 11.04016	702.61200	 23.30	
 20.403	 63.259	  8.91813	  7.02724	  1.23677	  9.90424	 -0.76183	 -0.50626	 11.05218	704.20203	 23.30	
 20.413	 68.100	  8.92267	  6.52017	  1.65417	 10.16381	 -0.90964	 -0.49784	 11.06248	702.53900	 23.30	
 20.398	 72.996	  8.90103	  5.96277	  2.10102	 10.34840	 -1.03044	 -0.48955	 11.03218	703.34601	 23.30	
 20.394	 77.868	  8.91081	  5.43344	  2.56872	 10.51404	 -1.12072	 -0.46698	 11.04727	704.28699	 23.30	
 20.403	 82.668	  8.91095	  4.90047	  3.06383	 10.61313	 -1.16865	 -0.44357	 11.04713	702.88898	 23.30	
 20.392	 87.560	  8.92116	  4.36875	  3.58501	 10.67151	 -1.18932	 -0.43191	 11.04978	704.19299	 23.30	
 20.392	 92.440	  8.91393	  3.83115	  4.11177	 10.66908	 -1.18995	 -0.40675	 11.03773	703.14697	 23.30	
 20.403	 97.332	  8.92515	  3.30880	  4.65984	 10.64639	 -1.16746	 -0.40854	 11.05818	702.66498	 23.30	
 20.394	102.132	  8.92320	  2.82150	  5.19573	 10.54192	 -1.09827	 -0.41510	 11.04774	702.98102	 23.30	
 20.398	107.004	  8.92311	  2.33507	  5.73955	 10.40563	 -1.01900	 -0.41866	 11.04598	704.37201	 23.30	
 20.413	111.900	  8.93067	  1.86412	  6.28862	 10.22689	 -0.90761	 -0.44120	 11.05749	703.47101	 23.30	
 20.403	116.741	  8.91130	  1.43720	  6.79865	  9.96565	 -0.75782	 -0.46483	 11.02907	702.69598	 23.30	
 20.400	121.604	  8.93405	  1.04218	  7.32932	  9.70070	 -0.57886	 -0.48425	 11.05400	704.30603	 23.30	
 20.410	126.511	  8.93854	  0.67021	  7.83324	  9.36744	 -0.36063	 -0.52061	 11.06071	703.89801	 23.30	
 20.408	131.372	  8.93097	  0.33328	  8.29948	  8.97494	 -0.10361	 -0.55404	 11.05016	704.22998	 23.30	
 20.396	136.227	  8.92889	  0.03493	  8.73647	  8.55848	  0.18214	 -0.56820	 11.04361	703.49597	 23.30	
 20.392	141.062	  8.91511	 -0.24232	  9.13404	  8.10715	  0.48124	 -0.59218	 11.04048	704.29303	 23.30	
 20.397	145.903	  8.91619	 -0.47330	  9.50338	  7.63222	  0.81953	 -0.60214	 11.05431	704.30402	 23.30	
 20.405	150.835	  8.89587	 -0.67840	  9.81703	  7.10691	  1.20287	 -0.60512	 11.03639	703.23999	 23.30	
 20.401	155.705	  8.90487	 -0.84813	 10.10437	  6.59542	  1.60763	 -0.60349	 11.06029	702.89899	 23.30	
 20.392	160.496	  8.87183	 -0.98023	 10.29619	  6.05295	  2.02734	 -0.58304	 11.03694	702.75800	 23.30	
 20.410	165.423	  8.86560	 -1.10026	 10.48407	  5.50242	  2.49768	 -0.58218	 11.04732	704.02698	 23.30	
 20.407	170.264	  8.83873	 -1.18635	 10.59430	  4.95550	  2.96755	 -0.57345	 11.04186	702.85699	 23.30	
 20.401	175.153	  8.82914	 -1.24004	 10.67671	  4.41633	  3.47253	 -0.56588	 11.05500	703.83002	 23.30	
  0.141	 45.000	 11.07765	  6.07836	  6.00040	  6.00576	  6.12329	  0.07534	 11.06270	704.40698	 23.30	
  4.001	128.691	 11.04884	  5.19871	  6.73855	  6.87327	  5.11492	  0.03503	 11.05772	702.83398	 23.30	
  4.002	 76.995	 11.04957	  6.27855	  5.63330	  7.12440	  4.89295	  0.03490	 11.05613	704.35797	 23.30	
  4.002	 25.892	 11.04541	  7.12811	  4.83951	  6.43254	  5.50691	  0.02274	 11.05638	702.80902	 23.30	
  4.002	-25.892	 11.04696	  7.11000	  4.83571	  5.32948	  6.62182	  0.01546	 11.07353	702.78101	 23.30	
  4.002	-76.995	 11.01383	  6.19053	  5.63395	  4.67406	  7.31521	  0.00516	 11.04432	702.72198	 23.30	
  4.001	-128.691	 11.01930	  5.14150	  6.73296	  4.90957	  7.05431	  0.01278	 11.05462	702.76099	 23.30	
  4.000	180.000	 11.02063	  4.73400	  7.21852	  5.84953	  6.05567	  0.03082	 11.04564	702.78101	 23.30	
  8.000	180.000	 10.80259	  3.25451	  8.37101	  5.59870	  5.78330	 -0.12516	 11.04657	702.80103	 23.30	
  7.991	-152.370	 10.75560	  3.45856	  8.04361	  4.41956	  6.99006	 -0.14289	 11.03316	702.75500	 23.30	
  7.997	-124.550	 10.76318	  4.19097	  7.16805	  3.54608	  8.00026	 -0.14249	 11.05713	702.76801	 23.30	
  8.006	-96.837	 10.76645	  5.29019	  5.96901	  3.15699	  8.46975	 -0.18434	 11.06333	704.39697	 23.30	
  7.988	-69.228	 10.75547	  6.53090	  4.74236	  3.28136	  8.29089	 -0.18995	 11.04220	702.76801	 23.30	
  7.997	-41.563	 10.79887	  7.64675	  3.79773	  3.93138	  7.55554	 -0.16505	 11.07160	702.81702	 23.30	
  8.008	-13.821	 10.77743	  8.27425	  3.26183	  4.95629	  6.37585	 -0.15122	 11.03305	704.34497	 23.30	
  8.008	 13.821	 10.82484	  8.32034	  3.27313	  6.21523	  5.14520	 -0.14686	 11.05002	702.95502	 23.30	
  7.997	 41.563	 10.83445	  7.72559	  3.79040	  7.36301	  4.12103	 -0.13054	 11.03765	704.40802	 23.30	
  7.988	 69.228	 10.85241	  6.67818	  4.75597	  8.14496	  3.50861	 -0.12319	 11.05591	704.56000	 23.30	
  8.006	 96.837	 10.84900	  5.43768	  5.96473	  8.31439	  3.38340	 -0.13064	 11.05337	704.45801	 23.30	
  7.997	124.550	 10.85091	  4.33304	  7.16583	  7.84110	  3.77521	 -0.12971	 11.05588	704.55402	 23.30	
  7.991	152.370	 10.84643	  3.55766	  8.06298	  6.84636	  4.63256	 -0.11044	 11.06592	703.97101	 23.30	
 12.009	161.059	 10.40828	  1.92505	  9.12700	  6.49384	  4.15371	 -0.32563	 11.05963	702.81799	 23.30	
 12.013	142.081	 10.43363	  2.47734	  8.45829	  7.70383	  3.11425	 -0.32032	 11.06551	702.90002	 23.30	
 12.006	123.113	 10.42489	  3.32229	  7.42651	  8.61507	  2.36309	 -0.34396	 11.03716	702.71002	 23.30	
 12.007	104.200	 10.44303	  4.43087	  6.20364	  9.19031	  1.93676	 -0.37111	 11.05260	703.62799	 23.30	
 11.989	 85.301	 10.44179	  5.69140	  4.91333	  9.28991	  1.85309	 -0.35360	 11.05375	702.70203	 23.30	
 12.013	 66.294	 10.43100	  6.95936	  3.71137	  8.92477	  2.10170	 -0.31096	 11.04660	702.70300	 23.30	
 12.012	 47.388	 10.43927	  8.08119	  2.74402	  8.14624	  2.70117	 -0.30814	 11.04948	702.74799	 23.30	
 11.990	 28.440	 10.43790	  8.90799	  2.05772	  7.06491	  3.58897	 -0.35319	 11.05744	704.37201	 23.30	
 11.991	  9.464	 10.40766	  9.31788	  1.71373	  5.80044	  4.72175	 -0.36650	 11.05385	702.71698	 23.30	
 11.991	 -9.464	 10.36629	  9.27513	  1.71632	  4.52468	  5.98518	 -0.35136	 11.05042	702.89697	 23.30	
 11.990	-28.440	 10.34632	  8.80299	  2.06748	  3.37766	  7.25434	 -0.35195	 11.06671	704.38501	 23.30	
 12.012	-47.388	 10.30471	  7.91296	  2.74009	  2.47210	  8.31186	 -0.38122	 11.03918	704.20001	 23.30	
 12.013	-66.294	 10.29858	  6.75057	  3.71337	  1.87083	  9.07820	 -0.40822	 11.05161	702.80103	 23.30	
 11.989	-85.301	 10.29233	  5.46497	  4.91177	  1.61753	  9.42080	 -0.41636	 11.05861	703.35498	 23.30	
 12.007	-104.200	 10.27624	  4.20972	  6.19624	  1.69959	  9.30897	 -0.39367	 11.05133	702.70001	 23.30	
 12.006	-123.113	 10.25703	  3.13562	  7.41493	  2.12442	  8.75053	 -0.33905	 11.03668	702.56799	 23.30	
 12.013	-142.081	 10.29991	  2.34257	  8.45622	  2.90941	  7.83223	 -0.33607	 11.06359	702.64600	 23.30	
 12.009	-161.059	 10.32583	  1.86635	  9.11958	  3.95814	  6.64181	 -0.35391	 11.05387	703.81897	 23.30	
 16.000	180.000	  9.70959	  0.25837	 10.09447	  4.63349	  4.77884	 -0.53470	 11.03700	703.17200	 23.30	
 15.990	-165.604	  9.67651	  0.33795	  9.94402	  3.40407	  6.05754	 -0.54641	 11.06270	702.69397	 23.30	
 16.002	-151.165	  9.61973	  0.65967	  9.40732	  2.29302	  7.30552	 -0.53555	 11.05045	704.26202	 23.30	
 16.002	-136.836	  9.58024	  1.21125	  8.57173	  1.39070	  8.41595	 -0.50090	 11.04066	704.43903	 23.30	
 15.995	-122.439	  9.59585	  2.02002	  7.51005	  0.73685	  9.32748	 -0.49354	 11.06666	703.17200	 23.30	
 15.993	-107.966	  9.59937	  3.03621	  6.26454	  0.30722	  9.93046	 -0.50742	 11.07101	702.84399	 23.30	
 16.005	-93.629	  9.59095	  4.20346	  4.96450	  0.11723	 10.17736	 -0.48278	 11.05740	703.42902	 23.30	
 15.992	-79.234	  9.60933	  5.49512	  3.71311	  0.17154	 10.09698	 -0.43105	 11.06311	702.76202	 23.30	
 16.009	-64.774	  9.62722	  6.78882	  2.58641	  0.46790	  9.67282	 -0.41916	 11.06644	702.72699	 23.30	
 15.997	-50.364	  9.63990	  7.98032	  1.65045	  1.01689	  8.90633	 -0.43830	 11.05128	704.21698	 23.30	
 15.997	-36.045	  9.66633	  8.97007	  0.93472	  1.78960	  7.89643	 -0.44103	 11.05469	702.67200	 23.30	
 16.000	-21.597	  9.72445	  9.70892	  0.45874	  2.78683	  6.71673	 -0.43275	 11.08979	702.81799	 23.30	
 16.003	 -7.169	  9.74156	 10.06540	  0.21655	  3.95028	  5.41207	 -0.42863	 11.06009	702.78101	 23.30	
 16.003	  7.169	  9.78026	 10.08850	  0.21805	  5.21629	  4.14099	 -0.44084	 11.05087	702.70801	 23.30	
 16.000	 21.597	  9.82672	  9.79284	  0.45105	  6.51085	  2.98889	 -0.45883	 11.06479	702.88000	 23.30	
 15.997	 36.045	  9.82538	  9.13413	  0.92851	  7.70885	  2.00496	 -0.47395	 11.04555	702.85498	 23.30	
 15.997	 50.364	  9.83102	  8.21786	  1.63603	  8.75738	  1.23251	 -0.45277	 11.05684	702.85797	 23.30	
 16.009	 64.774	  9.82316	  7.07489	  2.57202	  9.53212	  0.69048	 -0.45890	 11.05991	702.69897	 23.30	
 15.992	 79.234	  9.82536	  5.80318	  3.71050	  9.99491	  0.39179	 -0.50096	 11.07025	702.76501	 23.30	
 16.005	 93.629	  9.82835	  4.52135	  4.96740	 10.09197	  0.34239	 -0.51952	 11.06676	702.78699	 23.30	
 15.993	107.966	  9.82068	  3.30482	  6.25665	  9.82625	  0.52158	 -0.51614	 11.05405	702.95898	 23.30	
 15.995	122.439	  9.84106	  2.25034	  7.51616	  9.24663	  0.94942	 -0.52352	 11.06792	702.85999	 23.30	
 16.002	136.836	  9.85076	  1.40274	  8.61831	  8.36649	  1.61026	 -0.50993	 11.09194	703.28302	 23.30	
 16.002	151.165	  9.80066	  0.78142	  9.42108	  7.21684	  2.48423	 -0.50792	 11.05590	702.81299	 23.30	
 15.990	165.604	  9.78592	  0.40462	  9.95213	  5.94328	  3.57893	 -0.53111	 11.06836	702.77301	 23.30	
 20.003	168.362	  8.96265	 -1.01915	 10.54065	  5.23179	  2.88881	 -0.58174	 11.06686	703.48798	 23.30	
 20.008	156.764	  9.00274	 -0.75652	 10.14254	  6.52151	  1.80788	 -0.59455	 11.07604	702.77502	 23.30	
 20.000	145.147	  9.03239	 -0.30058	  9.45220	  7.73622	  0.89434	 -0.60175	 11.07919	702.74799	 23.30	
 19.995	133.545	  9.02041	  0.31815	  8.49727	  8.77615	  0.14645	 -0.56169	 11.04881	702.79797	 23.30	
 20.009	121.926	  9.03439	  1.13349	  7.38941	  9.66381	 -0.43351	 -0.50049	 11.07051	702.92102	 23.30	
 20.005	110.327	  9.03332	  2.12222	  6.16304	 10.26227	 -0.80303	 -0.45548	 11.06583	703.91803	 23.30	
 19.989	 98.733	  9.02696	  3.26249	  4.88687	 10.58194	 -1.00500	 -0.43018	 11.06138	702.80902	 23.30	
 19.999	 87.075	  9.03822	  4.49973	  3.62946	 10.65326	 -1.04875	 -0.44506	 11.07844	702.82599	 23.30	
 19.992	 75.457	  9.05731	  5.78115	  2.46685	 10.44554	 -0.92320	 -0.48928	 11.09624	702.81702	 23.30	
 20.009	 63.844	  9.06138	  7.02602	  1.41980	  9.95151	 -0.63682	 -0.51070	 11.10339	702.88300	 23.30	
 19.989	 52.269	  9.06524	  8.17267	  0.53858	  9.17319	 -0.15933	 -0.48576	 11.09436	702.75000	 23.30	
 19.999	 40.602	  9.07206	  9.16701	 -0.16921	  8.17903	  0.49772	 -0.44445	 11.09998	702.78699	 23.30	
 20.004	 29.051	  9.06348	  9.93676	 -0.68234	  7.01507	  1.33792	 -0.37517	 11.09189	702.89697	 23.30	
 20.005	 17.433	  9.03432	 10.43613	 -1.01194	  5.77555	  2.33011	 -0.36004	 11.07652	702.67499	 23.30	
 20.006	  5.780	  8.99788	 10.67120	 -1.17452	  4.50587	  3.46919	 -0.37522	 11.08416	702.73297	 23.30	
 20.006	 -5.780	  8.94321	 10.62991	 -1.16387	  3.27550	  4.69637	 -0.36868	 11.07637	702.80902	 23.30	
 20.005	-17.433	  8.88243	 10.32079	 -1.00495	  2.12037	  5.97422	 -0.37993	 11.06303	704.40302	 23.30	
 20.004	-29.051	  8.84892	  9.74782	 -0.67268	  1.11953	  7.21121	 -0.40130	 11.06841	702.79498	 23.30	
 19.999	-40.602	  8.81631	  8.90648	 -0.15671	  0.29354	  8.33396	 -0.38535	 11.07019	702.85999	 23.30	
 19.989	-52.269	  8.79063	  7.84423	  0.54676	 -0.37013	  9.30154	 -0.35841	 11.06424	702.80298	 23.30	
 20.009	-63.844	  8.79201	  6.66911	  1.42761	 -0.84490	 10.05195	 -0.33454	 11.09214	703.34601	 23.30	
 19.992	-75.457	  8.76397	  5.38931	  2.47112	 -1.12782	 10.50120	 -0.33311	 11.06579	702.77197	 23.30	
 19.999	-87.075	  8.74331	  4.12360	  3.62645	 -1.27022	 10.70955	 -0.36713	 11.07351	702.74701	 23.30	
 19.989	-98.733	  8.72518	  2.90694	  4.88995	 -1.22552	 10.63503	 -0.40484	 11.06193	702.78101	 23.30	
 20.005	-110.327	  8.71931	  1.80740	  6.16877	 -1.01304	 10.30677	 -0.46723	 11.07206	702.79797	 23.30	
 20.009	-121.926	  8.70961	  0.86765	  7.39304	 -0.62709	  9.69506	 -0.53582	 11.06534	702.79303	 23.30	
 19.995	-133.545	  8.72924	  0.11408	  8.51131	 -0.04719	  8.84253	 -0.56180	 11.07279	702.73102	 23.30	
 20.000	-145.147	  8.75985	 -0.46966	  9.44829	  0.71787	  7.78693	 -0.55924	 11.08354	702.78101	 23.30	
 20.008	-156.764	  8.79528	 -0.86365	 10.13089	  1.66345	  6.59294	 -0.52825	 11.07579	702.80103	 23.30	
 20.003	-168.362	  8.84453	 -1.07919	 10.53447	  2.75477	  5.33274	 -0.53910	 11.06732	702.88202	 23.30	
 20.000	180.000	  8.88919	 -1.13416	 10.65608	  3.95181	  4.06289	 -0.55713	 11.05642	702.87598	 23.30	
