FileType=PCF
NHL=14
Date=08/30/17	17:20:37
Facility=APL
Serial=16328-20
Customer=NASA
NP=6
Mach=0.100000
Calibration=1:1
CalPts=490
TstPts=95
PortNumbering=AP Standard
Units=Torr C m/s kg/m^3 deg mm 
Theta[deg]	Phi[deg]	P1[Torr]	P2[Torr]	P3[Torr]	P4[Torr]	P5[Torr]	P6[Torr]	Pt[Torr]	Ps[Abs,Torr]	Ts[C]	
  0.000	  0.000	  4.96913	  2.77106	  2.69684	  2.69170	  2.80359	  0.04281	  4.96883	703.20398	 24.00	
  1.691	128.401	  4.96922	  2.62812	  2.83364	  2.85859	  2.62989	  0.04018	  4.97218	704.74500	 24.00	
  1.692	 77.194	  4.97208	  2.81435	  2.64614	  2.90504	  2.58693	  0.04171	  4.97480	704.76801	 24.00	
  1.699	 26.182	  4.97441	  2.96379	  2.49466	  2.78582	  2.69405	  0.03553	  4.97886	704.71802	 24.00	
  1.699	-26.182	  4.97865	  2.96476	  2.48856	  2.58876	  2.88100	  0.03053	  4.98012	704.85199	 24.00	
  1.692	-77.194	  4.97442	  2.80021	  2.63797	  2.46975	  3.00515	  0.03196	  4.97457	704.88300	 24.00	
  1.691	-128.401	  4.97930	  2.62270	  2.83215	  2.51416	  2.97048	  0.03322	  4.98226	704.24402	 24.00	
  1.700	180.000	  4.97750	  2.54945	  2.91556	  2.68213	  2.81139	  0.03962	  4.97900	704.85199	 24.00	
  3.400	180.000	  4.97501	  2.28949	  3.14939	  2.64401	  2.78927	  0.02302	  4.98192	704.77002	 24.00	
  3.388	-152.325	  4.96998	  2.33372	  3.08251	  2.43310	  2.99714	  0.02072	  4.97931	704.82202	 24.00	
  3.397	-124.529	  4.96492	  2.46699	  2.91695	  2.26874	  3.16589	  0.01678	  4.97606	704.74597	 24.00	
  3.399	-96.763	  4.96746	  2.67041	  2.69598	  2.20148	  3.24257	  0.01354	  4.97832	704.76001	 24.00	
  3.394	-69.283	  4.97042	  2.89930	  2.47680	  2.22419	  3.20849	  0.01304	  4.98054	704.96503	 24.00	
  3.400	-41.398	  4.96808	  3.08921	  2.30074	  2.34238	  3.06659	  0.01305	  4.97889	704.85303	 23.90	
  3.401	-14.021	  4.97166	  3.20570	  2.21368	  2.53567	  2.86183	  0.01461	  4.98445	704.78003	 23.90	
  3.401	 14.021	  4.97604	  3.20827	  2.22391	  2.76907	  2.63916	  0.01702	  4.98557	704.93701	 23.90	
  3.400	 41.398	  4.96487	  3.08534	  2.32134	  2.97037	  2.45208	  0.02088	  4.97242	704.91498	 23.90	
  3.394	 69.283	  4.96484	  2.89398	  2.50135	  3.10500	  2.34507	  0.02330	  4.97258	704.89502	 23.90	
  3.399	 96.763	  4.98083	  2.67828	  2.72782	  3.14574	  2.33499	  0.02451	  4.98630	704.90900	 23.90	
  3.397	124.529	  4.96492	  2.47661	  2.92906	  3.04503	  2.40987	  0.02498	  4.97385	704.88702	 23.90	
  3.388	152.325	  4.96594	  2.34304	  3.08775	  2.86914	  2.56085	  0.02509	  4.97442	704.83002	 23.90	
  5.099	161.165	  4.93974	  2.04779	  3.33154	  2.84028	  2.51380	  0.00676	  4.96927	704.87500	 23.90	
  5.109	142.013	  4.94433	  2.15033	  3.21676	  3.06533	  2.31955	  0.00606	  4.97332	704.78400	 23.90	
  5.095	123.033	  4.94547	  2.31355	  3.03420	  3.23979	  2.17057	  0.00736	  4.97241	704.56500	 23.90	
  5.105	104.191	  4.94680	  2.51827	  2.80926	  3.34665	  2.08145	  0.00725	  4.97444	704.09900	 23.90	
  5.093	 85.207	  4.93900	  2.75408	  2.56665	  3.36138	  2.05970	  0.00626	  4.96890	703.81097	 23.90	
  5.104	 66.290	  4.93995	  2.98305	  2.34404	  3.30345	  2.09921	  0.00590	  4.97036	704.13202	 23.90	
  5.094	 47.331	  4.93988	  3.19369	  2.15374	  3.16304	  2.20716	  0.00392	  4.96932	703.80603	 23.90	
  5.089	 28.397	  4.93516	  3.34457	  2.01349	  2.96655	  2.37043	  0.00108	  4.96939	704.89502	 23.90	
  5.096	  9.576	  4.94954	  3.44174	  1.94060	  2.74515	  2.58750	 -0.00118	  4.98593	704.33197	 23.90	
  5.096	 -9.576	  4.94692	  3.43854	  1.93568	  2.49420	  2.83000	 -0.00510	  4.98355	703.66199	 23.90	
  5.089	-28.397	  4.94151	  3.35124	  2.00122	  2.27633	  3.04945	 -0.00752	  4.97737	704.92603	 23.90	
  5.094	-47.331	  4.92988	  3.18802	  2.12111	  2.09165	  3.24520	 -0.01165	  4.96553	704.28601	 23.90	
  5.104	-66.290	  4.94291	  2.98995	  2.31175	  1.97079	  3.40207	 -0.01243	  4.98106	704.92603	 23.90	
  5.093	-85.207	  4.94030	  2.75308	  2.53132	  1.91704	  3.46947	 -0.01054	  4.97556	703.32703	 23.90	
  5.105	-104.191	  4.93768	  2.51677	  2.77360	  1.93141	  3.45663	 -0.00732	  4.97408	704.96002	 23.90	
  5.095	-123.033	  4.94883	  2.31421	  3.01142	  2.02023	  3.36866	 -0.00215	  4.98236	704.95398	 23.90	
  5.109	-142.013	  4.93781	  2.14590	  3.19668	  2.16931	  3.19394	  0.00167	  4.97429	704.98999	 23.90	
  5.099	-161.165	  4.94097	  2.04619	  3.32467	  2.37032	  2.98448	  0.00242	  4.97505	703.33502	 23.90	
  5.100	180.000	  4.93877	  2.01025	  3.37138	  2.59800	  2.74936	  0.00533	  4.97073	704.95398	 23.90	
  6.800	180.000	  4.90217	  1.73099	  3.59491	  2.54944	  2.71035	 -0.02039	  4.97321	704.92603	 23.90	
  6.796	-166.229	  4.90440	  1.75211	  3.56560	  2.31858	  2.94638	 -0.02460	  4.98087	704.03101	 23.90	
  6.808	-152.311	  4.90078	  1.82326	  3.46803	  2.10462	  3.16723	 -0.02644	  4.97968	704.88397	 23.90	
  6.795	-138.383	  4.88660	  1.93599	  3.30829	  1.91527	  3.35815	 -0.02621	  4.96461	704.30103	 23.90	
  6.792	-124.591	  4.89997	  2.10583	  3.12122	  1.77647	  3.52892	 -0.03407	  4.98187	704.94598	 23.90	
  6.787	-110.754	  4.89746	  2.30507	  2.89387	  1.68025	  3.63430	 -0.03990	  4.97713	704.86401	 23.90	
  6.800	-96.985	  4.89140	  2.52142	  2.65634	  1.62603	  3.68561	 -0.04127	  4.97310	704.97900	 23.90	
  6.800	-83.015	  4.88909	  2.76063	  2.41769	  1.62958	  3.67384	 -0.04496	  4.97208	704.92297	 23.90	
  6.787	-69.246	  4.89851	  2.99477	  2.20257	  1.68446	  3.61520	 -0.05007	  4.98196	704.96997	 23.90	
  6.792	-55.409	  4.89407	  3.21339	  2.00468	  1.78384	  3.48858	 -0.04843	  4.97916	705.01898	 23.90	
  6.795	-41.617	  4.89757	  3.39793	  1.85049	  1.93188	  3.32148	 -0.04011	  4.98048	704.82703	 23.90	
  6.808	-27.689	  4.90127	  3.54783	  1.73204	  2.12231	  3.11188	 -0.03859	  4.98465	704.15503	 23.90	
  6.796	-13.771	  4.89126	  3.63331	  1.65820	  2.33182	  2.87757	 -0.03721	  4.97620	703.96002	 23.90	
  6.800	  0.000	  4.89964	  3.66612	  1.64259	  2.56877	  2.64791	 -0.03219	  4.98077	703.81897	 23.90	
  6.796	 13.771	  4.90308	  3.63880	  1.67189	  2.81071	  2.42273	 -0.02999	  4.98140	705.00098	 23.90	
  6.808	 27.689	  4.89850	  3.54804	  1.74733	  3.03372	  2.21643	 -0.02962	  4.97729	704.13000	 23.90	
  6.795	 41.617	  4.90139	  3.39977	  1.87815	  3.24387	  2.04044	 -0.02425	  4.97725	703.34998	 23.90	
  6.792	 55.409	  4.90741	  3.21359	  2.04683	  3.41289	  1.91102	 -0.01898	  4.97934	703.62799	 23.90	
  6.787	 69.246	  4.90923	  3.00098	  2.24489	  3.53012	  1.82171	 -0.02066	  4.97886	705.03198	 23.90	
  6.800	 83.015	  4.89878	  2.75845	  2.46447	  3.58721	  1.77234	 -0.02025	  4.96839	703.29102	 23.80	
  6.800	 96.985	  4.91414	  2.53277	  2.70946	  3.59537	  1.78596	 -0.02233	  4.98455	704.88702	 23.90	
  6.787	110.754	  4.90740	  2.30845	  2.93889	  3.52317	  1.84336	 -0.02213	  4.97558	704.65802	 23.90	
  6.792	124.591	  4.90567	  2.11402	  3.15348	  3.39962	  1.94453	 -0.01928	  4.97246	703.22803	 23.90	
  6.795	138.383	  4.91151	  1.96056	  3.33849	  3.23026	  2.09494	 -0.01661	  4.97793	704.96503	 23.90	
  6.808	152.311	  4.90516	  1.83574	  3.47938	  3.01981	  2.27151	 -0.01848	  4.97165	704.97302	 23.90	
  6.796	166.229	  4.90673	  1.75957	  3.56994	  2.79517	  2.47907	 -0.01895	  4.97733	705.01300	 23.90	
  8.491	168.704	  4.85240	  1.46270	  3.78892	  2.73386	  2.42569	 -0.05390	  4.98028	705.05798	 23.80	
  8.502	157.493	  4.84142	  1.51689	  3.70859	  2.96741	  2.19722	 -0.05552	  4.96624	703.25897	 23.80	
  8.494	146.194	  4.85582	  1.62740	  3.59524	  3.20165	  2.00606	 -0.05269	  4.97928	705.03302	 23.90	
  8.495	135.039	  4.85167	  1.75920	  3.43163	  3.40255	  1.82832	 -0.05274	  4.97525	703.88702	 23.90	
  8.487	123.723	  4.86083	  1.93032	  3.24060	  3.57917	  1.69349	 -0.05780	  4.98554	703.36102	 23.90	
  8.492	112.575	  4.85023	  2.12779	  3.00940	  3.70162	  1.57993	 -0.06589	  4.98005	703.33801	 23.90	
  8.510	101.220	  4.85688	  2.35286	  2.77324	  3.78990	  1.51337	 -0.06422	  4.98332	704.95697	 23.90	
  8.500	 90.000	  4.84684	  2.58400	  2.52624	  3.80499	  1.48964	 -0.05883	  4.97260	703.31299	 23.90	
  8.510	 78.780	  4.85621	  2.82956	  2.29472	  3.79036	  1.50200	 -0.05858	  4.98663	703.44202	 23.90	
  8.492	 67.425	  4.85127	  3.06463	  2.06770	  3.71301	  1.55261	 -0.05890	  4.98448	703.38397	 23.90	
  8.487	 56.277	  4.84997	  3.28417	  1.86710	  3.58940	  1.64477	 -0.05490	  4.98512	704.92499	 23.90	
  8.495	 44.961	  4.84444	  3.48697	  1.68537	  3.42106	  1.77220	 -0.05549	  4.98179	703.54999	 23.90	
  8.494	 33.806	  4.84613	  3.64943	  1.55167	  3.22120	  1.93912	 -0.06276	  4.98443	705.09998	 23.90	
  8.502	 22.507	  4.85160	  3.77777	  1.44871	  2.99843	  2.13675	 -0.06955	  4.99185	704.97101	 23.90	
  8.491	 11.296	  4.83753	  3.84256	  1.38014	  2.74891	  2.34788	 -0.06786	  4.97781	703.44800	 23.90	
  8.500	  0.000	  4.85057	  3.87846	  1.35861	  2.50845	  2.59171	 -0.06838	  4.99400	703.47302	 23.90	
  8.491	-11.296	  4.84905	  3.85662	  1.37197	  2.26775	  2.83242	 -0.07359	  4.99563	703.39398	 23.90	
  8.502	-22.507	  4.85096	  3.78234	  1.42840	  2.04130	  3.07003	 -0.07445	  4.99532	703.50403	 23.90	
  8.494	-33.806	  4.83866	  3.64962	  1.52023	  1.83216	  3.28948	 -0.07425	  4.98447	703.46198	 23.90	
  8.495	-44.961	  4.83878	  3.48925	  1.64822	  1.65947	  3.48953	 -0.08229	  4.99144	703.43402	 23.80	
  8.487	-56.277	  4.84091	  3.28418	  1.81987	  1.51880	  3.66294	 -0.08845	  4.98880	703.35498	 23.90	
  8.492	-67.425	  4.84694	  3.06815	  2.02270	  1.42123	  3.78917	 -0.09213	  4.99288	703.45398	 23.80	
  8.510	-78.780	  4.84520	  2.82874	  2.24062	  1.35233	  3.87403	 -0.08958	  4.99254	703.48700	 23.90	
  8.500	-90.000	  4.83862	  2.57914	  2.47340	  1.33109	  3.90006	 -0.08449	  4.98288	703.38599	 23.80	
  8.510	-101.220	  4.84399	  2.34496	  2.71984	  1.34206	  3.89221	 -0.08266	  4.99001	705.07800	 23.80	
  8.492	-112.575	  4.85307	  2.12567	  2.97331	  1.41024	  3.82567	 -0.07789	  4.99687	703.35797	 23.90	
  8.487	-123.723	  4.84991	  1.92640	  3.19693	  1.50545	  3.71408	 -0.07018	  4.99483	703.45599	 23.90	
  8.495	-135.039	  4.84350	  1.75310	  3.39836	  1.64571	  3.54990	 -0.06141	  4.98554	704.24103	 23.90	
  8.494	-146.194	  4.84308	  1.61584	  3.57321	  1.80809	  3.36202	 -0.06433	  4.98392	703.59802	 23.90	
  8.502	-157.493	  4.84881	  1.52237	  3.69990	  2.02714	  3.13853	 -0.06671	  4.98740	703.56299	 23.90	
  8.491	-168.704	  4.86225	  1.46509	  3.79252	  2.25070	  2.91430	 -0.06294	  4.99631	703.45599	 23.80	
  8.500	180.000	  4.86442	  1.44510	  3.82495	  2.48907	  2.67392	 -0.05474	  4.99518	704.91400	 23.90	
 10.200	180.000	  4.78195	  1.15200	  4.01432	  2.40636	  2.60500	 -0.09411	  4.98893	703.57202	 23.80	
 10.191	-170.497	  4.78106	  1.16831	  3.98843	  2.17044	  2.84842	 -0.10125	  4.99609	703.63599	 23.90	
 10.210	-161.034	  4.77956	  1.21526	  3.92251	  1.93565	  3.09099	 -0.11008	  4.99699	703.72101	 23.80	
 10.194	-151.526	  4.76867	  1.29567	  3.79958	  1.71680	  3.31738	 -0.10832	  4.99137	703.55701	 23.80	
 10.190	-142.105	  4.77003	  1.41360	  3.64520	  1.53160	  3.52982	 -0.10136	  4.99490	703.42603	 23.80	
 10.215	-132.646	  4.76714	  1.55938	  3.45755	  1.37304	  3.71034	 -0.10215	  4.99402	703.55499	 23.80	
 10.203	-123.092	  4.76082	  1.73094	  3.23929	  1.23463	  3.86197	 -0.11028	  4.98695	703.54999	 23.90	
 10.192	-113.678	  4.76828	  1.93696	  3.00968	  1.13876	  3.98210	 -0.11742	  4.99375	703.53302	 23.80	
 10.208	-104.249	  4.75611	  2.14517	  2.76277	  1.06125	  4.05890	 -0.12590	  4.98703	703.38599	 23.90	
 10.210	-94.801	  4.76249	  2.38191	  2.51856	  1.02836	  4.09992	 -0.13255	  4.99488	703.57397	 23.80	
 10.210	-85.199	  4.76499	  2.63149	  2.27408	  1.02870	  4.09426	 -0.13397	  4.99722	703.52502	 23.90	
 10.208	-75.751	  4.75178	  2.87291	  2.03275	  1.06637	  4.03012	 -0.13544	  4.98532	703.55499	 23.80	
 10.192	-66.322	  4.75347	  3.11563	  1.81506	  1.14174	  3.93599	 -0.13486	  4.98602	703.56000	 23.80	
 10.203	-56.908	  4.75992	  3.34334	  1.62416	  1.25015	  3.81049	 -0.13307	  4.99196	703.50500	 23.80	
 10.215	-47.354	  4.75572	  3.54927	  1.45170	  1.38583	  3.63897	 -0.11942	  4.98823	703.62799	 23.80	
 10.190	-37.895	  4.75261	  3.72133	  1.30821	  1.54859	  3.44044	 -0.11314	  4.98440	703.49103	 23.80	
 10.194	-28.474	  4.75236	  3.86174	  1.19827	  1.74358	  3.22092	 -0.11159	  4.98087	703.59497	 23.90	
 10.210	-18.966	  4.75873	  3.97590	  1.12198	  1.95296	  2.99374	 -0.11053	  4.98772	703.53302	 23.80	
 10.191	 -9.503	  4.76158	  4.04418	  1.07464	  2.19296	  2.74652	 -0.11176	  4.98847	703.54401	 23.80	
 10.200	  0.000	  4.76479	  4.06828	  1.06290	  2.43350	  2.50975	 -0.10598	  4.99194	703.58099	 23.80	
 10.191	  9.503	  4.77105	  4.04856	  1.08749	  2.68823	  2.27112	 -0.10756	  4.99397	703.54401	 23.90	
 10.210	 18.966	  4.77378	  3.98342	  1.14331	  2.93708	  2.04981	 -0.10938	  4.99858	703.47302	 23.80	
 10.194	 28.474	  4.76776	  3.86953	  1.22933	  3.16946	  1.84000	 -0.10728	  4.98597	703.54401	 23.90	
 10.190	 37.895	  4.77975	  3.73475	  1.35095	  3.39862	  1.66107	 -0.09729	  4.99835	703.60498	 23.90	
 10.215	 47.354	  4.77206	  3.55433	  1.49714	  3.58303	  1.50543	 -0.09096	  4.98708	704.14099	 23.90	
 10.203	 56.908	  4.78115	  3.35121	  1.68277	  3.74940	  1.38335	 -0.08923	  4.99017	703.48798	 23.90	
 10.192	 66.322	  4.78400	  3.12450	  1.88679	  3.87668	  1.29400	 -0.09327	  4.99112	703.50800	 23.80	
 10.208	 75.751	  4.78618	  2.88497	  2.10834	  3.96445	  1.23407	 -0.09757	  4.98936	703.58801	 23.80	
 10.210	 85.199	  4.79038	  2.64485	  2.34324	  4.01401	  1.20474	 -0.09997	  4.99409	703.57001	 23.90	
 10.210	 94.801	  4.79453	  2.39557	  2.60077	  4.01068	  1.21221	 -0.10332	  4.99467	703.46503	 23.80	
 10.208	104.249	  4.80030	  2.16724	  2.84410	  3.96882	  1.25436	 -0.10900	  5.00170	703.52399	 23.80	
 10.192	113.678	  4.79645	  1.94645	  3.08240	  3.87183	  1.33026	 -0.10653	  4.99561	704.12598	 23.80	
 10.203	123.092	  4.79665	  1.74553	  3.31085	  3.74311	  1.43559	 -0.09867	  4.99520	703.57501	 23.80	
 10.215	132.646	  4.79081	  1.56879	  3.51337	  3.57256	  1.56341	 -0.09179	  4.98885	703.55798	 23.80	
 10.190	142.105	  4.79331	  1.42360	  3.69117	  3.37189	  1.73298	 -0.09011	  4.99018	703.56299	 23.80	
 10.194	151.526	  4.79518	  1.30934	  3.83583	  3.14617	  1.92957	 -0.09186	  4.99355	703.48798	 23.80	
 10.210	161.034	  4.79052	  1.22262	  3.93895	  2.90779	  2.13690	 -0.09545	  4.98997	703.51801	 23.80	
 10.191	170.497	  4.78027	  1.17257	  3.99151	  2.66083	  2.35887	 -0.09361	  4.98235	703.49597	 23.80	
 11.899	171.783	  4.69588	  0.87710	  4.18181	  2.57638	  2.28286	 -0.13590	  4.99512	703.51001	 23.80	
 11.890	163.610	  4.70021	  0.92025	  4.13001	  2.82178	  2.05895	 -0.13362	  4.99279	703.60498	 23.80	
 11.889	155.445	  4.69692	  0.99344	  4.03427	  3.06489	  1.83593	 -0.13106	  4.98417	703.57800	 23.80	
 11.909	147.299	  4.70293	  1.08919	  3.91598	  3.30083	  1.63837	 -0.12958	  4.99107	703.51202	 23.80	
 11.902	139.148	  4.70330	  1.21746	  3.75760	  3.52112	  1.45702	 -0.12860	  4.99192	703.66199	 23.80	
 11.894	130.867	  4.70999	  1.37202	  3.57548	  3.71466	  1.30792	 -0.13409	  4.99691	703.60602	 23.80	
 11.897	122.732	  4.70729	  1.54570	  3.36248	  3.88452	  1.16975	 -0.14471	  4.99832	703.51801	 23.80	
 11.903	114.597	  4.69183	  1.73919	  3.12530	  4.00643	  1.06117	 -0.15082	  4.98461	703.61902	 23.80	
 11.893	106.346	  4.69844	  1.95919	  2.88605	  4.11574	  0.98305	 -0.15350	  4.99299	703.60901	 23.80	
 11.892	 98.155	  4.69167	  2.18649	  2.63342	  4.16918	  0.93498	 -0.15406	  4.98858	703.60602	 23.80	
 11.900	 90.000	  4.69019	  2.42594	  2.38438	  4.19378	  0.91152	 -0.14795	  4.98623	703.64502	 23.80	
 11.892	 81.845	  4.70318	  2.68178	  2.14675	  4.18285	  0.92524	 -0.14073	  5.00221	703.68201	 23.80	
 11.893	 73.654	  4.69396	  2.92309	  1.90930	  4.11897	  0.95901	 -0.13628	  4.99436	703.65698	 23.80	
 11.903	 65.403	  4.68362	  3.15981	  1.68298	  4.02231	  1.01956	 -0.13104	  4.99009	703.56403	 23.80	
 11.897	 57.268	  4.68596	  3.39083	  1.48526	  3.89756	  1.10971	 -0.12748	  4.99572	703.62598	 23.80	
 11.894	 49.133	  4.68079	  3.59585	  1.30883	  3.72776	  1.23699	 -0.12469	  4.98947	703.64600	 23.80	
 11.902	 40.852	  4.68248	  3.78816	  1.15148	  3.54194	  1.37998	 -0.13283	  4.99602	703.56702	 23.80	
 11.909	 32.701	  4.68135	  3.94702	  1.02538	  3.33333	  1.54886	 -0.13902	  4.99753	703.45697	 23.80	
 11.889	 24.555	  4.67101	  4.06776	  0.91942	  3.09104	  1.74376	 -0.14795	  4.98800	703.60498	 23.80	
 11.890	 16.390	  4.66663	  4.16056	  0.84268	  2.84885	  1.95106	 -0.14949	  4.98778	703.56702	 23.80	
 11.899	  8.217	  4.67141	  4.22235	  0.79317	  2.60663	  2.17320	 -0.14657	  4.99569	703.69598	 23.80	
 11.900	  0.000	  4.66557	  4.24035	  0.77179	  2.34769	  2.41403	 -0.14514	  4.98913	703.53302	 23.80	
 11.899	 -8.217	  4.66475	  4.21910	  0.78444	  2.10470	  2.65987	 -0.14466	  4.99171	703.65997	 23.80	
 11.890	-16.390	  4.66601	  4.16523	  0.82331	  1.87176	  2.90263	 -0.14521	  4.99430	703.67603	 23.80	
 11.889	-24.555	  4.65672	  4.06762	  0.88544	  1.64710	  3.14047	 -0.14339	  4.98837	703.68201	 23.80	
 11.909	-32.701	  4.65552	  3.94050	  0.97447	  1.45039	  3.36582	 -0.14374	  4.98813	703.68201	 23.80	
 11.902	-40.852	  4.65898	  3.78785	  1.09667	  1.27150	  3.58008	 -0.14860	  4.99332	703.74902	 23.80	
 11.894	-49.133	  4.66270	  3.59658	  1.24815	  1.11597	  3.77363	 -0.15313	  4.99474	703.63898	 23.80	
 11.897	-57.268	  4.66083	  3.38852	  1.41487	  0.98208	  3.94030	 -0.16762	  4.99464	703.77802	 23.80	
 11.903	-65.403	  4.66281	  3.15689	  1.61317	  0.87945	  4.07815	 -0.17136	  4.99810	703.66498	 23.80	
 11.893	-73.654	  4.65055	  2.91063	  1.82244	  0.80540	  4.16239	 -0.16962	  4.98155	703.75702	 23.80	
 11.892	-81.845	  4.66095	  2.66881	  2.05625	  0.76002	  4.23540	 -0.17365	  4.99153	703.57202	 23.80	
 11.900	-90.000	  4.65889	  2.41956	  2.29559	  0.74225	  4.25745	 -0.17341	  4.98811	703.69598	 23.80	
 11.892	-98.155	  4.66025	  2.17812	  2.54326	  0.75199	  4.25205	 -0.17006	  4.98780	703.70398	 23.80	
 11.893	-106.346	  4.66188	  1.94742	  2.79515	  0.79094	  4.20559	 -0.16328	  4.98990	703.83301	 23.80	
 11.903	-114.597	  4.66225	  1.73126	  3.03928	  0.86295	  4.12463	 -0.15520	  4.99136	703.73499	 23.80	
 11.897	-122.732	  4.66558	  1.53478	  3.27700	  0.96070	  4.00869	 -0.14671	  4.99447	703.74298	 23.80	
 11.894	-130.867	  4.66255	  1.35764	  3.49520	  1.08402	  3.85461	 -0.14229	  4.99185	703.74298	 23.80	
 11.902	-139.148	  4.66564	  1.20852	  3.69195	  1.24811	  3.67009	 -0.14037	  4.98716	703.77197	 23.80	
 11.909	-147.299	  4.67090	  1.08183	  3.86490	  1.42133	  3.47355	 -0.15025	  4.99539	703.77197	 23.80	
 11.889	-155.445	  4.67531	  0.98795	  3.99967	  1.62129	  3.25193	 -0.15176	  4.99418	703.83698	 23.80	
 11.890	-163.610	  4.68007	  0.91641	  4.10272	  1.85014	  3.01193	 -0.15078	  4.99471	703.57397	 23.80	
 11.899	-171.783	  4.67532	  0.87364	  4.16014	  2.07065	  2.76744	 -0.14514	  4.98427	703.71899	 23.80	
 11.900	180.000	  4.69068	  0.86148	  4.19748	  2.32121	  2.52815	 -0.13772	  4.99297	703.70398	 23.80	
 13.600	180.000	  4.57420	  0.57194	  4.35218	  2.22096	  2.43373	 -0.17897	  4.98998	703.72900	 23.80	
 13.608	-172.853	  4.56847	  0.58379	  4.32866	  1.97989	  2.67325	 -0.18815	  4.99066	703.70099	 23.80	
 13.611	-165.583	  4.56902	  0.61647	  4.27842	  1.74410	  2.92314	 -0.19445	  4.99693	703.71198	 23.80	
 13.601	-158.353	  4.55636	  0.67757	  4.18019	  1.51404	  3.16285	 -0.19602	  4.98961	703.64203	 23.80	
 13.609	-151.210	  4.55214	  0.75835	  4.05588	  1.31333	  3.38629	 -0.19442	  4.98926	703.87299	 23.80	
 13.611	-143.999	  4.55395	  0.86773	  3.90660	  1.12237	  3.60925	 -0.18624	  4.99470	703.76898	 23.80	
 13.601	-136.825	  4.54552	  0.99527	  3.72225	  0.95334	  3.80219	 -0.17826	  4.98982	703.84003	 23.80	
 13.596	-129.640	  4.55103	  1.15358	  3.52071	  0.81486	  3.97890	 -0.17622	  4.99562	703.81598	 23.80	
 13.611	-122.431	  4.54467	  1.32674	  3.29303	  0.69064	  4.12428	 -0.18168	  4.99107	703.67603	 23.80	
 13.604	-115.211	  4.54892	  1.52624	  3.05972	  0.59509	  4.24801	 -0.18950	  4.99649	703.82202	 23.80	
 13.595	-108.042	  4.54401	  1.73143	  2.81484	  0.51823	  4.33301	 -0.19670	  4.99043	703.83899	 23.80	
 13.607	-100.793	  4.54806	  1.96107	  2.56476	  0.47269	  4.39558	 -0.20497	  4.99446	703.82501	 23.80	
 13.601	-93.617	  4.54726	  2.19779	  2.31752	  0.44852	  4.41955	 -0.20598	  4.99692	703.81897	 23.80	
 13.601	-86.383	  4.54586	  2.44942	  2.06674	  0.45322	  4.41118	 -0.20404	  4.99555	703.75500	 23.80	
 13.607	-79.207	  4.53941	  2.69092	  1.82832	  0.48023	  4.36539	 -0.19906	  4.99011	703.87000	 23.90	
 13.595	-71.958	  4.53833	  2.93622	  1.60631	  0.53007	  4.29184	 -0.19381	  4.99011	703.64502	 23.90	
 13.604	-64.789	  4.55459	  3.18879	  1.40235	  0.60958	  4.20255	 -0.18855	  5.01024	703.91803	 23.90	
 13.611	-57.569	  4.53867	  3.40956	  1.20232	  0.70536	  4.05639	 -0.18520	  4.99228	703.73999	 23.90	
 13.596	-50.360	  4.54825	  3.62655	  1.04015	  0.83058	  3.90567	 -0.18357	  5.00445	703.81097	 23.90	
 13.601	-43.175	  4.53488	  3.81100	  0.88846	  0.97834	  3.70264	 -0.17645	  4.98714	703.72699	 23.90	
 13.611	-36.001	  4.53575	  3.98136	  0.76035	  1.14643	  3.49760	 -0.17225	  4.98572	703.70502	 23.90	
 13.609	-28.790	  4.54353	  4.13657	  0.65603	  1.34254	  3.27466	 -0.17112	  4.99524	703.68103	 23.90	
 13.601	-21.647	  4.54472	  4.24681	  0.58009	  1.54643	  3.04306	 -0.17004	  4.99331	703.77698	 23.90	
 13.611	-14.417	  4.54460	  4.32834	  0.52572	  1.77514	  2.79026	 -0.17095	  4.98850	703.60901	 23.90	
 13.608	 -7.147	  4.53633	  4.36960	  0.49111	  2.00545	  2.54210	 -0.16771	  4.98244	703.64301	 23.90	
 13.600	  0.000	  4.54073	  4.38609	  0.48707	  2.25118	  2.30413	 -0.17052	  4.98287	703.70697	 23.90	
 13.608	  7.147	  4.54774	  4.37702	  0.50391	  2.49904	  2.06943	 -0.17468	  4.98829	703.79401	 23.90	
 13.611	 14.417	  4.56330	  4.33794	  0.54698	  2.75678	  1.84853	 -0.18067	  5.00026	703.70502	 23.90	
 13.601	 21.647	  4.55632	  4.24861	  0.60918	  3.00434	  1.62423	 -0.18010	  4.99304	703.86401	 23.90	
 13.609	 28.790	  4.55345	  4.13156	  0.69321	  3.24036	  1.42679	 -0.17559	  4.98786	703.76703	 23.90	
 13.611	 36.001	  4.55690	  3.99038	  0.80435	  3.46864	  1.24577	 -0.16978	  4.99019	703.75500	 23.90	
 13.601	 43.175	  4.56446	  3.82100	  0.94385	  3.67682	  1.09208	 -0.16468	  4.99188	703.76099	 23.90	
 13.596	 50.360	  4.57197	  3.62919	  1.10407	  3.86614	  0.95366	 -0.16170	  4.99676	703.85602	 23.90	
 13.611	 57.569	  4.57350	  3.41836	  1.27619	  4.03166	  0.83421	 -0.16376	  4.99948	703.86798	 23.90	
 13.604	 64.789	  4.56850	  3.18168	  1.47666	  4.14869	  0.74773	 -0.16676	  4.98754	703.73602	 23.90	
 13.595	 71.958	  4.57519	  2.94358	  1.69595	  4.25377	  0.68165	 -0.17077	  4.99353	703.89301	 23.90	
 13.607	 79.207	  4.57673	  2.69791	  1.92354	  4.31802	  0.63935	 -0.17836	  4.98780	703.77698	 23.90	
 13.601	 86.383	  4.58475	  2.45652	  2.16829	  4.35334	  0.62897	 -0.18621	  4.99317	703.77197	 23.90	
 13.601	 93.617	  4.58059	  2.20572	  2.41522	  4.34842	  0.63185	 -0.19337	  4.98711	703.81702	 23.90	
 13.607	100.793	  4.59003	  1.97334	  2.67139	  4.31877	  0.66629	 -0.19625	  4.99708	703.87000	 23.90	
 13.595	108.042	  4.58844	  1.74581	  2.91806	  4.24333	  0.72100	 -0.19717	  4.99257	703.88501	 23.90	
 13.604	115.211	  4.58981	  1.53560	  3.16024	  4.14066	  0.79890	 -0.19278	  4.99027	703.73798	 23.90	
 13.611	122.431	  4.59293	  1.33976	  3.39133	  4.01174	  0.89972	 -0.18675	  4.99643	703.72998	 23.90	
 13.596	129.640	  4.58045	  1.16699	  3.59208	  3.83227	  1.02654	 -0.17600	  4.97751	703.73999	 23.90	
 13.601	136.825	  4.59873	  1.01291	  3.80202	  3.65228	  1.18221	 -0.16745	  4.99661	703.72101	 23.90	
 13.611	143.999	  4.59919	  0.88434	  3.97033	  3.44472	  1.34831	 -0.16798	  4.99469	703.76300	 23.90	
 13.609	151.210	  4.58659	  0.76990	  4.10199	  3.21131	  1.53240	 -0.16880	  4.98660	703.76099	 23.90	
 13.601	158.353	  4.59112	  0.68846	  4.21828	  2.96912	  1.74355	 -0.17226	  4.99117	703.80298	 23.90	
 13.611	165.583	  4.58737	  0.62292	  4.30075	  2.71926	  1.96232	 -0.17614	  4.99185	703.74701	 23.90	
 13.608	172.853	  4.59041	  0.59059	  4.35076	  2.47557	  2.20108	 -0.17657	  5.00104	703.86200	 23.90	
 15.298	173.587	  4.45647	  0.30337	  4.48713	  2.36352	  2.09244	 -0.21220	  4.99441	703.75500	 23.90	
 15.291	167.167	  4.45654	  0.33352	  4.44729	  2.60579	  1.86060	 -0.21305	  4.98848	703.86798	 23.90	
 15.307	160.676	  4.45206	  0.38542	  4.36777	  2.85099	  1.63438	 -0.20972	  4.97945	703.84698	 23.90	
 15.300	154.261	  4.46215	  0.46353	  4.27388	  3.10438	  1.42397	 -0.20575	  4.98699	703.97400	 23.90	
 15.288	147.854	  4.46988	  0.55681	  4.15286	  3.34151	  1.23792	 -0.20263	  4.99201	703.87299	 23.90	
 15.293	141.428	  4.46900	  0.66875	  4.00206	  3.55973	  1.06124	 -0.20162	  4.99252	703.89001	 23.90	
 15.299	134.985	  4.46463	  0.80530	  3.82243	  3.75996	  0.90043	 -0.20418	  4.98617	703.80798	 23.90	
 15.305	128.583	  4.46288	  0.95624	  3.62243	  3.94985	  0.75836	 -0.21188	  4.98872	703.79199	 23.90	
 15.309	122.142	  4.45995	  1.13239	  3.40293	  4.10840	  0.63635	 -0.21742	  4.98532	703.96301	 23.80	
 15.304	115.711	  4.46311	  1.32035	  3.17746	  4.24849	  0.54073	 -0.22230	  4.99183	703.76099	 23.90	
 15.297	109.291	  4.46123	  1.52871	  2.93518	  4.35114	  0.46192	 -0.22186	  4.98827	703.95697	 23.90	
 15.293	102.897	  4.46832	  1.75313	  2.69136	  4.44038	  0.40419	 -0.22407	  4.99953	703.82202	 23.90	
 15.293	 96.458	  4.45283	  1.97994	  2.43168	  4.48173	  0.35925	 -0.22029	  4.98891	703.93500	 23.90	
 15.300	 90.000	  4.45707	  2.21674	  2.18823	  4.50403	  0.34323	 -0.21543	  4.99511	703.86401	 23.90	
 15.293	 83.542	  4.45121	  2.46376	  1.93872	  4.48503	  0.34966	 -0.21264	  4.99263	703.86200	 23.90	
 15.293	 77.103	  4.45316	  2.71131	  1.71094	  4.43799	  0.37611	 -0.20916	  4.98851	704.03900	 23.90	
 15.297	 70.709	  4.45357	  2.95449	  1.48982	  4.36411	  0.42774	 -0.20285	  4.99211	703.98798	 23.80	
 15.304	 64.289	  4.44580	  3.19185	  1.27123	  4.26319	  0.48783	 -0.19788	  4.99252	703.89502	 23.80	
 15.309	 57.858	  4.43948	  3.41882	  1.07766	  4.13140	  0.57198	 -0.19337	  4.98978	703.77802	 23.80	
 15.305	 51.417	  4.44372	  3.63767	  0.90247	  3.97703	  0.68348	 -0.19458	  4.99372	703.93201	 23.80	
 15.299	 45.015	  4.43447	  3.83452	  0.73962	  3.79343	  0.81033	 -0.19173	  4.99067	703.93201	 23.80	
 15.293	 38.572	  4.42975	  4.00990	  0.60509	  3.58679	  0.96224	 -0.19218	  4.98821	703.97400	 23.80	
 15.288	 32.146	  4.43547	  4.17290	  0.48999	  3.37346	  1.13222	 -0.19365	  4.99647	703.90198	 23.80	
 15.300	 25.739	  4.42360	  4.29296	  0.39177	  3.13509	  1.31100	 -0.19423	  4.98578	704.01300	 23.80	
 15.307	 19.324	  4.41736	  4.39329	  0.31369	  2.88616	  1.51380	 -0.19257	  4.98387	703.91302	 23.80	
 15.291	 12.833	  4.41901	  4.46879	  0.26067	  2.64255	  1.72976	 -0.19221	  4.98648	703.89600	 23.80	
 15.298	  6.413	  4.40892	  4.50923	  0.22022	  2.39257	  1.94718	 -0.18658	  4.98025	703.99402	 23.80	
 15.300	  0.000	  4.40209	  4.52107	  0.20227	  2.13894	  2.18429	 -0.18299	  4.97881	703.88702	 23.90	
 15.298	 -6.413	  4.40451	  4.51135	  0.20812	  1.89892	  2.42460	 -0.18179	  4.98298	704.04199	 23.80	
 15.291	-12.833	  4.40868	  4.47100	  0.23843	  1.66743	  2.67323	 -0.18193	  4.98583	703.96802	 23.80	
 15.307	-19.324	  4.40902	  4.40227	  0.28101	  1.44591	  2.91452	 -0.18762	  4.99515	703.88202	 23.80	
 15.300	-25.739	  4.41364	  4.30439	  0.35013	  1.23509	  3.16257	 -0.18719	  5.00005	703.92700	 23.90	
 15.288	-32.146	  4.40763	  4.17172	  0.43823	  1.03920	  3.38841	 -0.18436	  4.99354	703.96002	 23.80	
 15.293	-38.572	  4.41168	  4.02123	  0.54592	  0.86653	  3.60783	 -0.18323	  5.00037	704.00598	 23.80	
 15.299	-45.015	  4.40494	  3.83957	  0.67004	  0.69715	  3.81005	 -0.18309	  4.99572	703.86401	 23.80	
 15.305	-51.417	  4.40476	  3.63889	  0.82316	  0.56749	  3.98736	 -0.18909	  4.99174	703.78497	 23.80	
 15.309	-57.858	  4.40499	  3.42459	  0.99016	  0.44736	  4.14771	 -0.18870	  4.98932	704.08502	 23.90	
 15.304	-64.289	  4.40409	  3.19185	  1.17430	  0.35122	  4.28109	 -0.18964	  4.98938	703.92401	 23.90	
 15.297	-70.709	  4.40311	  2.94919	  1.37817	  0.27262	  4.38943	 -0.19210	  4.98823	703.95203	 23.80	
 15.293	-77.103	  4.41116	  2.71018	  1.59717	  0.22224	  4.47345	 -0.19719	  4.99197	703.88501	 23.80	
 15.293	-83.542	  4.40838	  2.46106	  1.82296	  0.17868	  4.52744	 -0.20191	  4.99255	703.98297	 23.90	
 15.300	-90.000	  4.40268	  2.20649	  2.06640	  0.16460	  4.54635	 -0.20957	  4.98502	703.90601	 23.80	
 15.293	-96.458	  4.40762	  1.96647	  2.31631	  0.17077	  4.54527	 -0.21543	  4.98829	704.00299	 23.80	
 15.293	-102.897	  4.40687	  1.73479	  2.56739	  0.20106	  4.50764	 -0.21913	  4.98790	704.00598	 23.80	
 15.297	-109.291	  4.41407	  1.51979	  2.81851	  0.25186	  4.44970	 -0.21830	  4.99686	704.06702	 23.80	
 15.304	-115.711	  4.40905	  1.30852	  3.06067	  0.32392	  4.35408	 -0.21563	  4.99002	703.94897	 23.80	
 15.309	-122.142	  4.41696	  1.12115	  3.30067	  0.42694	  4.23372	 -0.21009	  4.99536	704.03003	 23.80	
 15.305	-128.583	  4.41105	  0.94870	  3.52147	  0.53628	  4.08714	 -0.20868	  4.99064	703.98199	 23.80	
 15.299	-134.985	  4.41286	  0.79275	  3.73064	  0.66676	  3.92159	 -0.21131	  4.99327	703.90399	 23.80	
 15.293	-141.428	  4.41933	  0.66359	  3.91870	  0.83237	  3.72963	 -0.22004	  4.99391	703.99902	 23.80	
 15.288	-147.854	  4.41799	  0.55133	  4.07950	  1.01189	  3.51060	 -0.22743	  4.98707	703.94397	 23.80	
 15.300	-154.261	  4.42509	  0.45454	  4.22601	  1.20058	  3.29486	 -0.23084	  4.99303	703.99402	 23.80	
 15.307	-160.676	  4.43477	  0.38642	  4.34342	  1.41092	  3.06388	 -0.23434	  4.99691	703.83398	 23.80	
 15.291	-167.167	  4.43557	  0.33464	  4.42109	  1.63802	  2.81563	 -0.23133	  4.99166	703.97400	 23.80	
 15.298	-173.587	  4.44354	  0.30118	  4.47893	  1.86353	  2.57806	 -0.22350	  4.99455	703.91803	 23.80	
 15.300	180.000	  4.44111	  0.29324	  4.48845	  2.10624	  2.32873	 -0.21456	  4.98386	703.83301	 23.80	
 17.000	180.000	  4.30261	  0.02052	  4.62267	  1.98904	  2.21794	 -0.24148	  4.99028	703.96802	 23.80	
 16.990	-174.179	  4.30018	  0.02801	  4.60591	  1.74843	  2.46520	 -0.24547	  4.99676	704.04498	 23.80	
 17.009	-168.383	  4.29544	  0.05403	  4.56288	  1.52091	  2.70348	 -0.25373	  4.99948	704.00500	 23.80	
 17.000	-162.596	  4.28856	  0.09755	  4.48518	  1.29430	  2.94932	 -0.25667	  4.99762	704.02197	 23.80	
 16.990	-156.759	  4.27866	  0.16245	  4.37618	  1.08470	  3.18100	 -0.25515	  4.99235	703.94000	 23.80	
 16.995	-150.919	  4.27364	  0.24288	  4.24761	  0.89125	  3.41030	 -0.25204	  4.99322	703.94299	 23.80	
 16.988	-145.161	  4.27315	  0.33992	  4.09905	  0.70414	  3.63291	 -0.24753	  4.99889	704.01898	 23.80	
 17.014	-139.343	  4.26837	  0.45059	  3.92739	  0.53824	  3.83632	 -0.24237	  4.99860	703.86200	 23.80	
 17.007	-133.546	  4.26712	  0.58811	  3.72974	  0.39746	  4.01825	 -0.23665	  4.99545	703.99701	 23.80	
 17.001	-127.699	  4.26169	  0.74150	  3.51340	  0.26724	  4.18329	 -0.23527	  4.99385	703.91602	 23.80	
 17.006	-121.937	  4.26025	  0.90956	  3.28919	  0.15588	  4.32735	 -0.23121	  4.99248	703.95801	 23.80	
 17.002	-116.134	  4.26467	  1.09493	  3.05448	  0.06910	  4.44978	 -0.22765	  4.99807	703.93298	 23.80	
 17.001	-110.310	  4.25606	  1.29808	  2.80154	 -0.00210	  4.53957	 -0.22786	  4.98756	703.83398	 23.80	
 16.988	-104.517	  4.26312	  1.51283	  2.56301	 -0.05729	  4.61445	 -0.22243	  4.99626	704.03900	 23.80	
 17.008	-98.662	  4.25105	  1.74063	  2.30256	 -0.09039	  4.64616	 -0.21143	  4.98409	703.99103	 23.80	
 16.996	-92.909	  4.26307	  1.97750	  2.06693	 -0.09939	  4.67135	 -0.20026	  4.99224	703.83899	 23.80	
 16.996	-87.091	  4.25927	  2.21649	  1.82264	 -0.10213	  4.66390	 -0.19177	  4.99466	704.04999	 23.80	
 17.012	-81.253	  4.25242	  2.45624	  1.58558	 -0.08804	  4.62983	 -0.18570	  4.99011	704.12598	 23.90	
 16.988	-75.483	  4.24749	  2.69749	  1.36412	 -0.04267	  4.56085	 -0.17836	  4.98390	703.91302	 23.90	
 17.001	-69.690	  4.24932	  2.94251	  1.15497	  0.00923	  4.48450	 -0.17715	  4.98760	703.97803	 23.90	
 17.002	-63.866	  4.24409	  3.17987	  0.95282	  0.08975	  4.36469	 -0.17481	  4.98326	703.91302	 23.90	
 17.006	-58.063	  4.25317	  3.41422	  0.77922	  0.18439	  4.23946	 -0.18065	  4.99356	704.02802	 23.90	
 17.001	-52.301	  4.25696	  3.63138	  0.62038	  0.29698	  4.08719	 -0.17823	  4.99541	704.03400	 23.90	
 17.007	-46.454	  4.25727	  3.84104	  0.46706	  0.42860	  3.89965	 -0.18069	  4.99555	704.00800	 23.90	
 17.014	-40.657	  4.25090	  4.01943	  0.33738	  0.57558	  3.69836	 -0.17963	  4.98949	704.00598	 23.90	
 16.988	-34.839	  4.25680	  4.18411	  0.23007	  0.74443	  3.48833	 -0.18351	  4.99359	703.95203	 23.90	
 16.995	-29.081	  4.26415	  4.33282	  0.13816	  0.92341	  3.27340	 -0.18300	  4.99743	704.01898	 23.90	
 16.990	-23.241	  4.26210	  4.44548	  0.06070	  1.12548	  3.03237	 -0.18931	  4.99514	704.09003	 23.90	
 17.000	-17.404	  4.25317	  4.53227	 -0.00157	  1.32794	  2.78754	 -0.18684	  4.98622	704.04401	 23.90	
 17.009	-11.617	  4.26316	  4.60541	 -0.03962	  1.55421	  2.54683	 -0.18359	  4.99619	703.98798	 23.90	
 16.990	 -5.821	  4.26547	  4.64428	 -0.06175	  1.79049	  2.30301	 -0.17849	  4.99527	704.08502	 23.90	
 17.000	  0.000	  4.25474	  4.64220	 -0.06359	  2.02271	  2.06024	 -0.17880	  4.97966	704.00000	 23.90	
 16.990	  5.821	  4.27477	  4.64798	 -0.05356	  2.27965	  1.83180	 -0.18192	  4.99791	703.92603	 23.90	
 17.009	 11.617	  4.27642	  4.60921	 -0.02380	  2.52567	  1.60853	 -0.18360	  4.99926	704.05402	 23.90	
 17.000	 17.404	  4.26900	  4.53162	  0.02869	  2.76402	  1.39431	 -0.18504	  4.98392	703.98798	 23.90	
 16.990	 23.241	  4.27755	  4.44363	  0.09567	  3.01776	  1.19061	 -0.18994	  4.99163	703.97400	 23.90	
 16.995	 29.081	  4.28826	  4.33047	  0.18122	  3.26139	  1.00594	 -0.19276	  4.99843	703.94897	 23.90	
 16.988	 34.839	  4.28391	  4.18486	  0.27965	  3.48404	  0.83186	 -0.19926	  4.99398	704.03101	 23.90	
 17.014	 40.657	  4.28265	  4.01785	  0.39839	  3.69776	  0.66883	 -0.20070	  4.98888	703.91803	 23.90	
 17.007	 46.454	  4.28996	  3.83670	  0.53719	  3.89647	  0.53097	 -0.20811	  4.99320	703.96802	 23.90	
 17.001	 52.301	  4.29713	  3.63784	  0.69773	  4.07355	  0.41844	 -0.21170	  4.99492	704.04700	 23.90	
 17.006	 58.063	  4.29304	  3.41562	  0.86809	  4.22339	  0.31161	 -0.21417	  4.98593	704.04401	 23.90	
 17.002	 63.866	  4.29528	  3.18760	  1.04971	  4.36285	  0.21831	 -0.21878	  4.99296	704.16498	 23.90	
 17.001	 69.690	  4.30495	  2.95151	  1.26540	  4.47163	  0.15906	 -0.22341	  4.99657	704.05402	 23.90	
 16.988	 75.483	  4.30399	  2.70725	  1.48181	  4.54532	  0.10916	 -0.22583	  4.98890	703.97803	 23.90	
 17.012	 81.253	  4.29840	  2.45992	  1.69994	  4.59521	  0.07419	 -0.22915	  4.98250	704.11603	 23.90	
 16.996	 87.091	  4.30165	  2.21756	  1.93904	  4.62132	  0.06356	 -0.22548	  4.98711	704.16101	 23.90	
 16.996	 92.909	  4.30675	  1.97517	  2.18981	  4.62327	  0.06959	 -0.22261	  4.98986	704.03003	 23.90	
 17.008	 98.662	  4.30981	  1.74875	  2.42967	  4.59876	  0.08985	 -0.22649	  4.99241	704.02002	 23.90	
 16.988	104.517	  4.31215	  1.52445	  2.68394	  4.53309	  0.14259	 -0.22888	  4.98497	704.10699	 23.90	
 17.001	110.310	  4.31881	  1.31164	  2.93449	  4.45155	  0.20629	 -0.23287	  4.98855	704.09003	 23.90	
 17.002	116.134	  4.32058	  1.11442	  3.17093	  4.33882	  0.28514	 -0.23191	  4.98569	704.08099	 23.90	
 17.006	121.937	  4.33124	  0.93082	  3.41019	  4.21083	  0.38538	 -0.23147	  4.99006	704.18500	 23.90	
 17.001	127.699	  4.34073	  0.76540	  3.63007	  4.05995	  0.49998	 -0.23081	  4.99925	704.16302	 23.90	
 17.007	133.546	  4.31981	  0.60382	  3.82053	  3.86324	  0.62472	 -0.23110	  4.98113	704.07001	 23.90	
 17.014	139.343	  4.32855	  0.46954	  4.01063	  3.67036	  0.77154	 -0.22681	  4.98970	704.05798	 23.90	
 16.988	145.161	  4.33440	  0.35267	  4.17970	  3.45093	  0.94793	 -0.22801	  4.99224	703.96802	 23.90	
 16.995	150.919	  4.33103	  0.25569	  4.31542	  3.22208	  1.12334	 -0.22947	  4.98747	703.99103	 23.90	
 16.990	156.759	  4.32291	  0.17113	  4.42559	  2.98159	  1.31963	 -0.23442	  4.98411	704.03400	 23.90	
 17.000	162.596	  4.31776	  0.10635	  4.51344	  2.73011	  1.52843	 -0.23754	  4.98439	704.11200	 23.90	
 17.009	168.383	  4.31270	  0.05742	  4.57624	  2.48071	  1.75147	 -0.23748	  4.98324	704.08502	 24.00	
 16.990	174.179	  4.31278	  0.03235	  4.61288	  2.23802	  1.97729	 -0.23774	  4.99060	704.05103	 24.00	
 18.709	174.675	  4.15446	 -0.23255	  4.72481	  2.10412	  1.86183	 -0.25305	  4.99019	704.12299	 24.00	
 18.703	169.441	  4.16054	 -0.20863	  4.69393	  2.35006	  1.63738	 -0.25784	  4.98986	704.03601	 24.00	
 18.691	164.085	  4.16758	 -0.16850	  4.64171	  2.59922	  1.41751	 -0.25492	  4.99238	704.09802	 24.00	
 18.706	158.818	  4.16544	 -0.11269	  4.56022	  2.84120	  1.21045	 -0.25563	  4.98692	704.15198	 24.00	
 18.695	153.537	  4.17270	 -0.03617	  4.45588	  3.07990	  1.01818	 -0.24867	  4.98381	704.00000	 24.00	
 18.704	148.255	  4.17027	  0.04606	  4.32893	  3.31428	  0.83090	 -0.24824	  4.98433	704.00800	 24.00	
 18.698	142.952	  4.17434	  0.15340	  4.17988	  3.54345	  0.66116	 -0.24954	  4.98988	703.85602	 24.00	
 18.699	137.625	  4.17718	  0.27072	  4.01037	  3.76068	  0.49854	 -0.24602	  4.99406	704.01599	 24.00	
 18.705	132.343	  4.17405	  0.40333	  3.82328	  3.94592	  0.36703	 -0.24137	  4.98638	704.01099	 24.00	
 18.713	127.067	  4.18079	  0.55551	  3.62402	  4.12754	  0.24327	 -0.23920	  4.99578	703.97101	 24.00	
 18.700	121.794	  4.16548	  0.71979	  3.39287	  4.27966	  0.13009	 -0.23483	  4.98388	704.13202	 24.00	
 18.698	116.504	  4.16808	  0.89680	  3.16701	  4.41493	  0.03794	 -0.22426	  4.98697	704.00800	 24.00	
 18.707	111.165	  4.16150	  1.08892	  2.92153	  4.53221	 -0.04725	 -0.22033	  4.98811	704.13202	 24.00	
 18.690	105.863	  4.17246	  1.30330	  2.68847	  4.62188	 -0.09625	 -0.21519	  4.99563	704.10101	 24.00	
 18.696	100.583	  4.15726	  1.51302	  2.43281	  4.67769	 -0.14785	 -0.21551	  4.98407	704.21600	 24.00	
 18.700	 95.309	  4.15736	  1.73941	  2.18755	  4.72166	 -0.17951	 -0.21578	  4.98981	704.18298	 24.00	
 18.700	 90.000	  4.16092	  1.97459	  1.94635	  4.73967	 -0.19307	 -0.21464	  4.99354	704.14099	 24.00	
 18.700	 84.691	  4.14845	  2.20884	  1.70489	  4.71626	 -0.18935	 -0.22031	  4.98051	704.15997	 24.00	
 18.696	 79.417	  4.14844	  2.45240	  1.47788	  4.68556	 -0.17190	 -0.22915	  4.98531	704.14899	 24.00	
 18.690	 74.137	  4.14592	  2.69339	  1.25533	  4.62542	 -0.13617	 -0.22953	  4.98433	704.05103	 24.00	
 18.707	 68.835	  4.14481	  2.93682	  1.04497	  4.54786	 -0.09094	 -0.23173	  4.98921	704.17999	 24.00	
 18.698	 63.496	  4.13352	  3.16490	  0.84356	  4.42865	 -0.02424	 -0.22529	  4.97767	704.14600	 24.00	
 18.700	 58.206	  4.13772	  3.39621	  0.66540	  4.30249	  0.06110	 -0.22364	  4.98407	704.05103	 24.00	
 18.713	 52.933	  4.14131	  3.61923	  0.49732	  4.15482	  0.15791	 -0.21877	  4.99020	704.11200	 24.00	
 18.705	 47.657	  4.13234	  3.82044	  0.34206	  3.97390	  0.27374	 -0.21904	  4.98546	704.09802	 24.00	
 18.699	 42.375	  4.13032	  4.00788	  0.20617	  3.78969	  0.39924	 -0.20743	  4.98596	703.98798	 24.00	
 18.698	 37.048	  4.13142	  4.18459	  0.08680	  3.57661	  0.54865	 -0.19974	  4.98845	704.08197	 24.00	
 18.704	 31.745	  4.12022	  4.32736	 -0.01730	  3.34395	  0.71067	 -0.18627	  4.97998	704.25098	 24.00	
 18.695	 26.463	  4.12251	  4.46660	 -0.11317	  3.12449	  0.88101	 -0.17707	  4.99101	704.21899	 24.00	
 18.706	 21.182	  4.11754	  4.57330	 -0.19049	  2.88518	  1.06659	 -0.17478	  4.99131	704.18500	 24.00	
 18.691	 15.915	  4.10945	  4.64780	 -0.24535	  2.64077	  1.26402	 -0.17309	  4.98591	704.27802	 24.00	
 18.703	 10.559	  4.10834	  4.70866	 -0.29118	  2.38773	  1.48203	 -0.16868	  4.98645	704.21399	 24.10	
 18.709	  5.325	  4.10800	  4.74896	 -0.31804	  2.14848	  1.69881	 -0.16926	  4.99111	704.13000	 24.10	
 18.700	  0.000	  4.10061	  4.75650	 -0.32961	  1.89884	  1.92908	 -0.17094	  4.98519	704.10602	 24.00	
 18.709	 -5.325	  4.09807	  4.74300	 -0.32705	  1.66436	  2.16263	 -0.17373	  4.98755	704.28198	 24.10	
 18.703	-10.559	  4.09632	  4.70930	 -0.30709	  1.43537	  2.40092	 -0.17111	  4.98706	704.09900	 24.10	
 18.691	-15.915	  4.09420	  4.64738	 -0.27591	  1.20886	  2.64614	 -0.17251	  4.98483	704.19299	 24.10	
 18.706	-21.182	  4.09573	  4.57231	 -0.22669	  1.00370	  2.88699	 -0.17956	  4.99089	704.28601	 24.10	
 18.695	-26.463	  4.09546	  4.46426	 -0.15467	  0.80533	  3.12432	 -0.17745	  4.99035	704.20300	 24.10	
 18.704	-31.745	  4.09280	  4.33156	 -0.07908	  0.62177	  3.34960	 -0.17358	  4.98819	704.28101	 24.10	
 18.698	-37.048	  4.09668	  4.18817	  0.01729	  0.45359	  3.57328	 -0.17197	  4.99563	704.19098	 24.10	
 18.699	-42.375	  4.08495	  4.00631	  0.13194	  0.30150	  3.76954	 -0.17073	  4.98126	704.17999	 24.10	
 18.705	-47.657	  4.08898	  3.82098	  0.25553	  0.15880	  3.97030	 -0.17082	  4.98750	704.07300	 24.10	
 18.713	-52.933	  4.08567	  3.61564	  0.39549	  0.03179	  4.14085	 -0.16477	  4.98507	704.08899	 24.10	
 18.700	-58.206	  4.09268	  3.40218	  0.55917	 -0.07242	  4.30767	 -0.16393	  4.99473	704.17102	 24.10	
 18.698	-63.496	  4.09741	  3.17743	  0.73400	 -0.15711	  4.43932	 -0.16011	  4.99483	704.24402	 24.10	
 18.707	-68.835	  4.08545	  2.93295	  0.91945	 -0.23339	  4.54268	 -0.15825	  4.98159	704.17700	 24.10	
 18.690	-74.137	  4.09063	  2.68879	  1.12942	 -0.28994	  4.63197	 -0.16510	  4.98210	704.23102	 24.10	
 18.696	-79.417	  4.09474	  2.45042	  1.34116	 -0.33002	  4.69864	 -0.16838	  4.98560	704.12903	 24.10	
 18.700	-84.691	  4.08881	  2.20784	  1.56560	 -0.36200	  4.73997	 -0.17383	  4.98059	704.17902	 24.10	
 18.700	-90.000	  4.09029	  1.96337	  1.80073	 -0.36732	  4.75830	 -0.18143	  4.97911	704.26202	 24.10	
 18.700	-95.309	  4.10181	  1.73249	  2.04692	 -0.36192	  4.76638	 -0.19203	  4.99315	704.28601	 24.10	
 18.696	-100.583	  4.10337	  1.50574	  2.29486	 -0.34053	  4.73793	 -0.20307	  4.99117	704.20001	 24.10	
 18.690	-105.863	  4.10844	  1.29064	  2.54215	 -0.30637	  4.70014	 -0.21264	  5.00235	704.11200	 24.10	
 18.707	-111.165	  4.09355	  1.07739	  2.77872	 -0.25515	  4.61109	 -0.22642	  4.98446	704.23700	 24.10	
 18.698	-116.504	  4.09364	  0.88274	  3.02203	 -0.17792	  4.51148	 -0.23257	  4.98041	704.26501	 24.10	
 18.700	-121.794	  4.10719	  0.70332	  3.26818	 -0.09584	  4.40844	 -0.24192	  4.99903	704.14398	 24.10	
 18.713	-127.067	  4.09409	  0.53378	  3.48509	 -0.00158	  4.25754	 -0.24623	  4.98628	704.11798	 24.10	
 18.705	-132.343	  4.10134	  0.38572	  3.70141	  0.12366	  4.09706	 -0.25397	  4.98948	704.24103	 24.10	
 18.699	-137.625	  4.10719	  0.25351	  3.90529	  0.26341	  3.91918	 -0.25773	  4.99291	704.21698	 24.10	
 18.698	-142.952	  4.10572	  0.13757	  4.08217	  0.41461	  3.72126	 -0.25665	  4.99197	704.11200	 24.20	
 18.704	-148.255	  4.11737	  0.03396	  4.25145	  0.58744	  3.51340	 -0.25731	  4.99735	704.14099	 24.20	
 18.695	-153.537	  4.12388	 -0.04677	  4.39269	  0.77109	  3.28935	 -0.25567	  4.99423	704.18500	 24.20	
 18.706	-158.818	  4.12067	 -0.12246	  4.50844	  0.95933	  3.05722	 -0.25559	  4.99108	704.15997	 24.20	
 18.691	-164.085	  4.13055	 -0.17442	  4.60284	  1.16729	  2.82355	 -0.25489	  4.99580	704.15698	 24.20	
 18.703	-169.441	  4.13766	 -0.21342	  4.67655	  1.39472	  2.57962	 -0.25435	  4.99718	704.08099	 24.20	
 18.709	-174.675	  4.14914	 -0.23546	  4.72693	  1.61972	  2.34440	 -0.25050	  5.00425	704.14099	 24.20	
 18.700	180.000	  4.14454	 -0.23771	  4.72503	  1.85586	  2.10000	 -0.25046	  4.98713	704.22998	 24.20	
 20.400	180.000	  3.96857	 -0.51785	  4.81801	  1.70765	  1.95827	 -0.24820	  4.98748	704.39099	 24.20	
 20.401	-175.153	  3.96042	 -0.51942	  4.80533	  1.47520	  2.18784	 -0.24408	  4.99033	704.25598	 24.20	
 20.407	-170.264	  3.95504	 -0.50161	  4.77142	  1.24483	  2.43007	 -0.24098	  4.99504	704.38202	 24.20	
 20.410	-165.423	  3.94148	 -0.46701	  4.69810	  1.03001	  2.66603	 -0.23764	  4.98633	704.35101	 24.20	
 20.392	-160.496	  3.93859	 -0.42125	  4.61602	  0.81473	  2.90755	 -0.23670	  4.99093	704.20300	 24.20	
 20.401	-155.705	  3.93163	 -0.36176	  4.50544	  0.62097	  3.13653	 -0.23946	  4.98724	704.20801	 24.20	
 20.405	-150.835	  3.93035	 -0.28843	  4.38373	  0.43242	  3.36854	 -0.24315	  4.99499	704.24402	 24.20	
 20.397	-145.903	  3.92943	 -0.19763	  4.22938	  0.26222	  3.59015	 -0.25233	  4.99603	704.36603	 24.20	
 20.392	-141.062	  3.92914	 -0.08851	  4.06113	  0.11374	  3.79397	 -0.25602	  4.99597	704.16498	 24.20	
 20.396	-136.227	  3.92087	  0.02467	  3.87000	 -0.03245	  3.98136	 -0.25593	  4.98999	704.25897	 24.20	
 20.408	-131.372	  3.91209	  0.15253	  3.66029	 -0.16662	  4.15788	 -0.25336	  4.98673	704.23297	 24.20	
 20.410	-126.511	  3.90891	  0.30317	  3.44420	 -0.28059	  4.31280	 -0.24581	  4.98326	704.25500	 24.20	
 20.400	-121.604	  3.91963	  0.46705	  3.22393	 -0.37351	  4.46251	 -0.24015	  4.99662	704.19299	 24.20	
 20.403	-116.741	  3.91714	  0.64447	  2.98397	 -0.45438	  4.57643	 -0.22488	  4.98951	704.24701	 24.20	
 20.413	-111.900	  3.91003	  0.82882	  2.74022	 -0.53589	  4.67560	 -0.21529	  4.98817	704.33197	 24.20	
 20.398	-107.004	  3.90570	  1.03227	  2.49185	 -0.58611	  4.74518	 -0.20173	  4.98373	704.22198	 24.20	
 20.394	-102.132	  3.90973	  1.24571	  2.24668	 -0.63105	  4.80653	 -0.18501	  4.98891	704.20203	 24.30	
 20.403	-97.332	  3.90556	  1.45582	  2.00459	 -0.65806	  4.83983	 -0.17457	  4.98975	704.24402	 24.20	
 20.392	-92.440	  3.90319	  1.68919	  1.76495	 -0.66199	  4.84299	 -0.16660	  4.98354	704.30902	 24.20	
 20.392	-87.560	  3.90748	  1.93147	  1.52574	 -0.66404	  4.84440	 -0.16239	  4.98949	704.22498	 24.20	
 20.403	-82.668	  3.90168	  2.16913	  1.29899	 -0.65109	  4.81347	 -0.16367	  4.98614	704.20801	 24.30	
 20.394	-77.868	  3.90279	  2.40921	  1.07836	 -0.62312	  4.77089	 -0.15564	  4.98967	704.21698	 24.20	
 20.398	-72.996	  3.89852	  2.64907	  0.87063	 -0.57534	  4.69672	 -0.15074	  4.98602	704.16302	 24.30	
 20.413	-68.100	  3.90193	  2.89559	  0.67065	 -0.51853	  4.60774	 -0.15339	  4.98879	704.21100	 24.30	
 20.403	-63.259	  3.90078	  3.12962	  0.48774	 -0.43806	  4.48530	 -0.14841	  4.98471	704.33698	 24.30	
 20.400	-58.396	  3.89915	  3.35837	  0.31957	 -0.35814	  4.35730	 -0.15157	  4.98581	704.31201	 24.30	
 20.410	-53.489	  3.90599	  3.58292	  0.16062	 -0.25249	  4.20479	 -0.15393	  4.99377	704.26398	 24.30	
 20.408	-48.628	  3.90013	  3.78588	  0.02112	 -0.14184	  4.03000	 -0.15702	  4.98632	704.22998	 24.30	
 20.396	-43.773	  3.90257	  3.97892	 -0.10308	 -0.00342	  3.83731	 -0.16158	  4.98558	704.09802	 24.30	
 20.392	-38.938	  3.90368	  4.15740	 -0.21650	  0.14569	  3.62898	 -0.15841	  4.98725	704.16498	 24.30	
 20.397	-34.097	  3.90951	  4.32110	 -0.31475	  0.29930	  3.42422	 -0.15968	  4.99292	704.11499	 24.30	
 20.405	-29.165	  3.90714	  4.45983	 -0.40339	  0.47467	  3.19279	 -0.16092	  4.98945	704.14001	 24.30	
 20.401	-24.295	  3.90952	  4.57962	 -0.47099	  0.66028	  2.96232	 -0.16015	  4.99257	704.26501	 24.30	
 20.392	-19.504	  3.91071	  4.67268	 -0.52479	  0.85759	  2.72665	 -0.16037	  4.98828	704.31403	 24.30	
 20.410	-14.577	  3.91404	  4.75524	 -0.57405	  1.06852	  2.48405	 -0.17108	  4.99617	704.29797	 24.30	
 20.407	 -9.736	  3.90393	  4.79288	 -0.60165	  1.28657	  2.23508	 -0.16613	  4.98069	704.15198	 24.30	
 20.401	 -4.847	  3.92331	  4.84138	 -0.61273	  1.51974	  2.01111	 -0.16317	  4.99868	704.15698	 24.30	
 20.400	  0.000	  3.91208	  4.83509	 -0.61715	  1.75163	  1.77017	 -0.15770	  4.98479	704.21899	 24.30	
 20.401	  4.847	  3.92034	  4.83235	 -0.60662	  1.99890	  1.54372	 -0.15927	  4.99127	704.19397	 24.30	
 20.407	  9.736	  3.92269	  4.80111	 -0.58060	  2.23691	  1.32855	 -0.15684	  4.98915	704.15198	 24.30	
 20.410	 14.577	  3.93059	  4.75211	 -0.54200	  2.48497	  1.11892	 -0.15747	  4.99166	704.19397	 24.30	
 20.392	 19.504	  3.93043	  4.66972	 -0.48621	  2.73524	  0.91296	 -0.15955	  4.98732	704.22400	 24.30	
 20.401	 24.295	  3.94070	  4.58069	 -0.42173	  2.97130	  0.73419	 -0.16423	  4.99254	704.27002	 24.40	
 20.405	 29.165	  3.93674	  4.45719	 -0.34305	  3.20233	  0.55182	 -0.16869	  4.98524	704.24799	 24.40	
 20.397	 34.097	  3.95322	  4.32869	 -0.24974	  3.44704	  0.38773	 -0.18005	  5.00112	704.23297	 24.40	
 20.392	 38.938	  3.94820	  4.16139	 -0.14330	  3.65819	  0.23658	 -0.19260	  4.99433	704.20203	 24.40	
 20.396	 43.773	  3.95068	  3.98226	 -0.01817	  3.85156	  0.10789	 -0.20507	  4.98575	704.16901	 24.40	
 20.408	 48.628	  3.93856	  3.78059	  0.10797	  4.03638	 -0.02511	 -0.21591	  4.97715	704.03601	 24.40	
 20.410	 53.489	  3.95520	  3.58218	  0.26450	  4.21962	 -0.13129	 -0.21683	  4.99077	704.23297	 24.40	
 20.400	 58.396	  3.96215	  3.36217	  0.43647	  4.36922	 -0.21606	 -0.21880	  4.98839	704.34802	 24.40	
 20.403	 63.259	  3.96620	  3.13972	  0.61662	  4.49821	 -0.29197	 -0.22150	  4.99003	704.25598	 24.40	
 20.413	 68.100	  3.96683	  2.90475	  0.80203	  4.61418	 -0.36125	 -0.22136	  4.99323	704.34302	 24.40	
 20.398	 72.996	  3.96346	  2.65948	  1.00463	  4.69631	 -0.41369	 -0.22665	  4.98835	704.27502	 24.40	
 20.394	 77.868	  3.96629	  2.42165	  1.22040	  4.75941	 -0.44919	 -0.21977	  4.98466	704.32001	 24.40	
 20.403	 82.668	  3.96684	  2.18188	  1.44217	  4.79893	 -0.46898	 -0.20830	  4.98073	704.28699	 24.40	
 20.392	 87.560	  3.97770	  1.94638	  1.67970	  4.82454	 -0.47759	 -0.20120	  4.98836	704.36902	 24.40	
 20.392	 92.440	  3.97425	  1.70863	  1.91281	  4.81945	 -0.47295	 -0.19071	  4.98392	704.40802	 24.40	
 20.403	 97.332	  3.97481	  1.47830	  2.15113	  4.79858	 -0.45513	 -0.19281	  4.98390	704.29797	 24.40	
 20.394	102.132	  3.98687	  1.26660	  2.40482	  4.75966	 -0.41795	 -0.19356	  4.99326	704.24799	 24.40	
 20.398	107.004	  3.99216	  1.05348	  2.65478	  4.69073	 -0.36909	 -0.19541	  4.99276	704.25800	 24.40	
 20.413	111.900	  3.99764	  0.86203	  2.89991	  4.59556	 -0.29944	 -0.20219	  4.99019	704.34900	 24.40	
 20.403	116.741	  3.99450	  0.67264	  3.13088	  4.47950	 -0.22463	 -0.21020	  4.98764	704.34497	 24.40	
 20.400	121.604	  3.99599	  0.49251	  3.36319	  4.34961	 -0.14304	 -0.21357	  4.99050	704.24103	 24.40	
 20.410	126.511	  4.00008	  0.33095	  3.58391	  4.19694	 -0.03836	 -0.22885	  4.99483	704.18500	 24.40	
 20.408	131.372	  4.00002	  0.18711	  3.79244	  4.01649	  0.08281	 -0.23868	  4.98745	704.21399	 24.40	
 20.396	136.227	  4.01033	  0.05563	  3.99112	  3.83001	  0.21812	 -0.24291	  4.99605	704.37201	 24.40	
 20.392	141.062	  4.01273	 -0.06590	  4.17037	  3.62843	  0.36238	 -0.24749	  4.99966	704.32703	 24.40	
 20.397	145.903	  4.00556	 -0.17012	  4.32005	  3.40665	  0.51757	 -0.25043	  4.99289	704.34003	 24.40	
 20.405	150.835	  3.99421	 -0.26339	  4.45210	  3.16656	  0.69336	 -0.25253	  4.97908	704.38800	 24.40	
 20.401	155.705	  3.99836	 -0.33909	  4.57315	  2.93146	  0.88133	 -0.25081	  4.98606	704.35101	 24.40	
 20.392	160.496	  4.00126	 -0.40294	  4.67333	  2.69665	  1.07549	 -0.25657	  4.99436	704.24701	 24.40	
 20.410	165.423	  3.99520	 -0.45287	  4.74523	  2.44717	  1.28653	 -0.25655	  4.99506	704.35199	 24.40	
 20.407	170.264	  3.98756	 -0.48746	  4.79179	  2.19771	  1.50192	 -0.25295	  4.99322	704.34802	 24.40	
 20.401	175.153	  3.97534	 -0.51473	  4.81402	  1.95242	  1.72255	 -0.24981	  4.99053	704.24402	 24.40	
  0.141	 45.000	  4.99859	  2.79949	  2.70244	  2.71578	  2.81194	  0.04508	  4.99565	704.22498	 24.40	
  4.001	128.691	  4.98194	  2.39081	  3.02626	  3.09080	  2.36676	  0.02149	  4.98913	704.16101	 24.40	
  4.002	 76.995	  4.97201	  2.85007	  2.53434	  3.20538	  2.25358	  0.01981	  4.98200	704.15198	 24.40	
  4.002	 25.892	  4.98438	  3.25134	  2.17848	  2.89882	  2.51483	  0.01510	  4.99562	704.25800	 24.40	
  4.002	-25.892	  4.97414	  3.24628	  2.15999	  2.39441	  2.99456	  0.00896	  4.98758	704.27502	 24.40	
  4.002	-76.995	  4.97404	  2.85352	  2.50734	  2.10799	  3.32172	  0.00661	  4.98948	704.32098	 24.40	
  4.001	-128.691	  4.97501	  2.37903	  3.00296	  2.20984	  3.22304	  0.01395	  4.98701	704.33398	 24.40	
  4.000	180.000	  4.97578	  2.19589	  3.23911	  2.62708	  2.78448	  0.01768	  4.98787	704.16302	 24.40	
  8.000	180.000	  4.87645	  1.53082	  3.75591	  2.50506	  2.68573	 -0.04215	  4.98490	704.22699	 24.40	
  7.991	-152.370	  4.87454	  1.64334	  3.60168	  1.98404	  3.22857	 -0.05177	  4.98929	704.31702	 24.40	
  7.997	-124.550	  4.86461	  1.96893	  3.18475	  1.59056	  3.65199	 -0.05667	  4.98499	704.15997	 24.40	
  8.006	-96.837	  4.86646	  2.46723	  2.63741	  1.41957	  3.84776	 -0.06828	  4.98792	704.18500	 24.40	
  7.988	-69.228	  4.86562	  3.02601	  2.09692	  1.48767	  3.75367	 -0.07885	  4.98880	704.25098	 24.40	
  7.997	-41.563	  4.85852	  3.50141	  1.67909	  1.77175	  3.40249	 -0.06487	  4.98263	704.40002	 24.40	
  8.008	-13.821	  4.85701	  3.77680	  1.46036	  2.24898	  2.88128	 -0.06146	  4.97953	704.25897	 24.40	
  8.008	 13.821	  4.87130	  3.78439	  1.47841	  2.81494	  2.34194	 -0.05287	  4.99069	704.37402	 24.40	
  7.997	 41.563	  4.86732	  3.49799	  1.71830	  3.32567	  1.89420	 -0.04484	  4.97906	704.26202	 24.40	
  7.988	 69.228	  4.87784	  3.02689	  2.14891	  3.67023	  1.63317	 -0.04519	  4.98379	704.36798	 24.40	
  8.006	 96.837	  4.87865	  2.47567	  2.69250	  3.74322	  1.58685	 -0.04600	  4.98238	704.38501	 24.40	
  7.997	124.550	  4.89305	  1.98417	  3.24007	  3.52937	  1.78106	 -0.04219	  4.99502	704.37201	 24.40	
  7.991	152.370	  4.89484	  1.65472	  3.63115	  3.07011	  2.17571	 -0.04228	  4.99455	704.34497	 24.50	
 12.009	161.059	  4.69037	  0.92414	  4.11089	  2.89250	  1.97730	 -0.13495	  4.98483	704.26398	 24.40	
 12.013	142.081	  4.70281	  1.15455	  3.82715	  3.45092	  1.50888	 -0.12974	  4.99400	704.39001	 24.40	
 12.006	123.113	  4.69520	  1.52355	  3.36994	  3.87836	  1.15877	 -0.14282	  4.98899	704.26398	 24.50	
 12.007	104.200	  4.69141	  2.00982	  2.82014	  4.13505	  0.95680	 -0.15536	  4.98507	704.23297	 24.50	
 11.989	 85.301	  4.68649	  2.56593	  2.23968	  4.19207	  0.89923	 -0.14302	  4.98434	704.21600	 24.50	
 12.013	 66.294	  4.67983	  3.13370	  1.69940	  4.04171	  0.99684	 -0.13119	  4.98468	704.14398	 24.50	
 12.012	 47.388	  4.68563	  3.64873	  1.26451	  3.70012	  1.25611	 -0.12885	  4.99705	704.24701	 24.50	
 11.990	 28.440	  4.66493	  4.01950	  0.94484	  3.20706	  1.63055	 -0.14400	  4.98585	704.33398	 24.50	
 11.991	  9.464	  4.65926	  4.22237	  0.78058	  2.63636	  2.12923	 -0.14582	  4.98670	704.38300	 24.50	
 11.991	 -9.464	  4.65897	  4.22449	  0.77040	  2.06332	  2.68864	 -0.14281	  4.98876	704.36499	 24.50	
 11.990	-28.440	  4.65312	  4.02268	  0.90805	  1.53975	  3.24951	 -0.14399	  4.98835	704.38800	 24.50	
 12.012	-47.388	  4.65470	  3.64501	  1.19666	  1.12942	  3.74188	 -0.15541	  4.99119	704.28601	 24.50	
 12.013	-66.294	  4.65250	  3.13059	  1.62242	  0.84495	  4.09608	 -0.16737	  4.98877	704.50897	 24.50	
 11.989	-85.301	  4.65796	  2.56268	  2.14984	  0.73200	  4.25995	 -0.17044	  4.99170	704.44702	 24.50	
 12.007	-104.200	  4.65900	  1.99894	  2.72964	  0.76028	  4.23331	 -0.16635	  4.99117	704.48401	 24.50	
 12.006	-123.113	  4.65679	  1.50750	  3.29492	  0.94386	  4.00803	 -0.14665	  4.98862	704.44397	 24.50	
 12.013	-142.081	  4.66394	  1.14549	  3.76429	  1.29813	  3.60559	 -0.14252	  4.99175	704.38202	 24.50	
 12.009	-161.059	  4.67518	  0.92200	  4.08375	  1.76395	  3.09059	 -0.15166	  4.99429	704.45300	 24.50	
 16.000	180.000	  4.39219	  0.18298	  4.54714	  2.06202	  2.28660	 -0.22564	  4.99037	704.42200	 24.50	
 15.990	-165.604	  4.37317	  0.22942	  4.45322	  1.51058	  2.84939	 -0.24083	  4.98712	704.42102	 24.50	
 16.002	-151.165	  4.36607	  0.38943	  4.20177	  1.01885	  3.40607	 -0.23647	  4.99057	704.45001	 24.50	
 16.002	-136.836	  4.35023	  0.64789	  3.80848	  0.61442	  3.88250	 -0.22198	  4.98516	704.42200	 24.50	
 15.995	-122.439	  4.35504	  1.02613	  3.30829	  0.32310	  4.26450	 -0.21822	  4.98921	704.41101	 24.50	
 15.993	-107.966	  4.35454	  1.49103	  2.74583	  0.13104	  4.51130	 -0.21976	  4.99211	704.43799	 24.50	
 16.005	-93.629	  4.35042	  2.02106	  2.15882	  0.04752	  4.60927	 -0.20602	  4.99536	704.41302	 24.50	
 15.992	-79.234	  4.34792	  2.59134	  1.60655	  0.08380	  4.54837	 -0.19107	  4.99003	704.40698	 24.50	
 16.009	-64.774	  4.33846	  3.15855	  1.10534	  0.22864	  4.33296	 -0.18142	  4.98506	704.31799	 24.50	
 15.997	-50.364	  4.35037	  3.68835	  0.70275	  0.48410	  3.99382	 -0.18433	  4.99432	704.32098	 24.50	
 15.997	-36.045	  4.33824	  4.10252	  0.39820	  0.83274	  3.52423	 -0.17894	  4.97814	704.34003	 24.50	
 16.000	-21.597	  4.34326	  4.41196	  0.18930	  1.28163	  2.98783	 -0.18509	  4.98526	704.43903	 24.50	
 16.003	 -7.169	  4.34859	  4.56081	  0.09837	  1.81771	  2.41777	 -0.18163	  4.98396	704.30402	 24.50	
 16.003	  7.169	  4.35631	  4.56506	  0.10884	  2.38605	  1.86207	 -0.18170	  4.98493	704.28101	 24.50	
 16.000	 21.597	  4.36632	  4.41270	  0.22684	  2.96745	  1.36011	 -0.19046	  4.98606	704.28601	 24.50	
 15.997	 36.045	  4.36949	  4.11129	  0.44914	  3.51335	  0.92648	 -0.19487	  4.98816	704.35999	 24.50	
 15.997	 50.364	  4.38085	  3.68212	  0.77740	  3.97776	  0.59731	 -0.19787	  4.98867	704.40503	 24.50	
 16.009	 64.774	  4.39095	  3.17214	  1.20142	  4.32263	  0.36729	 -0.20732	  4.99608	704.45502	 24.60	
 15.992	 79.234	  4.39271	  2.59816	  1.71518	  4.51340	  0.24724	 -0.21670	  4.98846	704.52301	 24.60	
 16.005	 93.629	  4.39380	  2.02964	  2.27706	  4.54671	  0.23159	 -0.22143	  4.98532	704.42999	 24.60	
 15.993	107.966	  4.39925	  1.50305	  2.85890	  4.41664	  0.33324	 -0.22628	  4.98128	704.37201	 24.60	
 15.995	122.439	  4.40845	  1.04060	  3.41908	  4.13710	  0.54250	 -0.22268	  4.98307	704.41901	 24.60	
 16.002	136.836	  4.41767	  0.66752	  3.90235	  3.73733	  0.84529	 -0.21260	  4.99311	704.38501	 24.60	
 16.002	151.165	  4.41365	  0.40093	  4.26353	  3.21845	  1.25382	 -0.21381	  4.99001	704.36200	 24.60	
 15.990	165.604	  4.41845	  0.24026	  4.49412	  2.65118	  1.74849	 -0.22332	  5.00258	704.50000	 24.60	
 20.003	168.362	  4.02599	 -0.41066	  4.74709	  2.31930	  1.46096	 -0.25801	  4.98555	704.48102	 24.60	
 20.008	156.764	  4.03615	 -0.29323	  4.58018	  2.89266	  0.97316	 -0.25347	  4.98754	704.51801	 24.60	
 20.000	145.147	  4.04407	 -0.09535	  4.28691	  3.44059	  0.54895	 -0.25079	  4.98847	704.43799	 24.60	
 19.995	133.545	  4.04960	  0.18353	  3.88588	  3.93109	  0.20485	 -0.24563	  4.99344	704.41302	 24.60	
 20.009	121.926	  4.03881	  0.53746	  3.38671	  4.32810	 -0.07067	 -0.22462	  4.99024	704.45801	 24.60	
 20.005	110.327	  4.03395	  0.97041	  2.83570	  4.60893	 -0.25755	 -0.20884	  4.98794	704.35101	 24.60	
 19.989	 98.733	  4.03007	  1.46544	  2.26425	  4.76842	 -0.36703	 -0.19599	  4.99011	704.45801	 24.60	
 19.999	 87.075	  4.02899	  2.00286	  1.70495	  4.80924	 -0.40159	 -0.20928	  4.99729	704.51099	 24.60	
 19.992	 75.457	  4.02080	  2.56903	  1.17023	  4.71641	 -0.35568	 -0.22590	  4.99319	704.45300	 24.60	
 20.009	 63.844	  4.00389	  3.11778	  0.68984	  4.49689	 -0.23759	 -0.22222	  4.98682	704.53699	 24.60	
 19.989	 52.269	  4.00322	  3.63666	  0.29545	  4.16217	 -0.02588	 -0.21841	  4.98714	704.44501	 24.60	
 19.999	 40.602	  3.98615	  4.08562	 -0.03448	  3.72220	  0.25161	 -0.19704	  4.98264	704.45203	 24.60	
 20.004	 29.051	  3.98108	  4.44694	 -0.27970	  3.21113	  0.61299	 -0.17135	  4.98936	704.43903	 24.70	
 20.005	 17.433	  3.97030	  4.69288	 -0.45031	  2.64866	  1.04307	 -0.15819	  4.99135	704.56201	 24.70	
 20.006	  5.780	  3.95955	  4.80022	 -0.53101	  2.07217	  1.54293	 -0.16100	  4.98308	704.66998	 24.70	
 20.006	 -5.780	  3.96540	  4.81603	 -0.54491	  1.51960	  2.08774	 -0.16938	  4.99649	704.60199	 24.60	
 20.005	-17.433	  3.95152	  4.69088	 -0.48440	  0.99399	  2.64579	 -0.16728	  4.98964	704.55402	 24.70	
 20.004	-29.051	  3.95445	  4.45510	 -0.33885	  0.53808	  3.20184	 -0.16899	  4.99625	704.50897	 24.70	
 19.999	-40.602	  3.94918	  4.09533	 -0.11571	  0.15695	  3.70507	 -0.16355	  4.98760	704.74200	 24.70	
 19.989	-52.269	  3.94971	  3.64230	  0.18582	 -0.15227	  4.14618	 -0.15795	  4.98657	704.46997	 24.70	
 20.009	-63.844	  3.96328	  3.13151	  0.57031	 -0.37928	  4.50367	 -0.15291	  5.00498	704.59998	 24.70	
 19.992	-75.457	  3.95195	  2.56043	  1.02674	 -0.51648	  4.71066	 -0.15231	  4.98388	704.51398	 24.70	
 19.999	-87.075	  3.95023	  1.99140	  1.54364	 -0.59142	  4.82130	 -0.16050	  4.98810	704.48602	 24.70	
 19.989	-98.733	  3.95443	  1.44824	  2.10710	 -0.57483	  4.81134	 -0.18424	  4.98794	704.63300	 24.70	
 20.005	-110.327	  3.95904	  0.94446	  2.68764	 -0.48658	  4.69477	 -0.21502	  4.99650	704.55499	 24.70	
 20.009	-121.926	  3.96191	  0.51939	  3.24332	 -0.29969	  4.44046	 -0.24040	  4.98887	704.56201	 24.70	
 19.995	-133.545	  3.97019	  0.16101	  3.76283	 -0.04392	  4.08398	 -0.25616	  4.99829	704.48999	 24.70	
 20.000	-145.147	  3.97208	 -0.11232	  4.19227	  0.30056	  3.62466	 -0.25446	  4.99326	704.72101	 24.70	
 20.008	-156.764	  3.97688	 -0.30850	  4.51921	  0.71514	  3.10267	 -0.24526	  4.99041	704.62500	 24.70	
 20.003	-168.362	  3.99748	 -0.41609	  4.72349	  1.21057	  2.55357	 -0.24593	  4.99261	704.56299	 24.70	
 20.000	180.000	  4.00922	 -0.44976	  4.79355	  1.74567	  1.98899	 -0.24914	  4.98623	704.53699	 24.70	
