FileType=PCF
NHL=14
Date=08/31/17	07:16:58
Facility=APL
Serial=16328-20
Customer=NASA
NP=6
Mach=0.150000
Calibration=1:1
CalPts=490
TstPts=95
PortNumbering=AP Standard
Units=Torr C m/s kg/m^3 deg mm 
Theta[deg]	Phi[deg]	P1[Torr]	P2[Torr]	P3[Torr]	P4[Torr]	P5[Torr]	P6[Torr]	Pt[Torr]	Ps[Abs,Torr]	Ts[C]	
  0.000	  0.000	 11.33750	  6.25320	  6.10104	  6.03527	  6.34185	  0.08913	 11.32857	705.60101	 23.90	
  1.691	128.401	 11.34771	  5.90769	  6.44175	  6.45978	  5.92695	  0.08942	 11.33672	705.57599	 24.00	
  1.692	 77.194	 11.32367	  6.35421	  5.96744	  6.56746	  5.78942	  0.08993	 11.31637	705.57800	 24.00	
  1.699	 26.182	 11.36189	  6.74561	  5.61290	  6.28673	  6.08655	  0.08489	 11.34970	705.59497	 24.00	
  1.699	-26.182	 11.34044	  6.73344	  5.59390	  5.78506	  6.55254	  0.07933	 11.33307	705.62097	 23.90	
  1.692	-77.194	 11.33999	  6.35470	  5.95916	  5.48815	  6.85559	  0.08033	 11.33183	705.52197	 23.90	
  1.691	-128.401	 11.32979	  5.90291	  6.41502	  5.57821	  6.76408	  0.08338	 11.32078	705.65997	 23.90	
  1.700	180.000	 11.35324	  5.70000	  6.65608	  6.01609	  6.36191	  0.08800	 11.34222	705.55402	 23.90	
  3.400	180.000	 11.32474	  5.13199	  7.16414	  5.93982	  6.33315	  0.05927	 11.33031	705.62097	 23.90	
  3.388	-152.325	 11.32591	  5.24207	  7.02671	  5.44657	  6.82695	  0.05399	 11.33611	705.74103	 23.90	
  3.397	-124.529	 11.33318	  5.56965	  6.65847	  5.07731	  7.21519	  0.04686	 11.34327	705.63202	 23.90	
  3.399	-96.763	 11.30898	  6.04533	  6.12145	  4.88751	  7.37288	  0.03342	 11.32015	705.55103	 23.90	
  3.394	-69.283	 11.34163	  6.57260	  5.63675	  4.96817	  7.31012	  0.03278	 11.35263	705.56201	 23.90	
  3.400	-41.398	 11.34184	  7.03625	  5.21113	  5.26030	  6.97916	  0.03395	 11.34980	705.60901	 23.90	
  3.401	-14.021	 11.31491	  7.25632	  4.99616	  5.68647	  6.50925	  0.03838	 11.32731	705.63800	 23.90	
  3.401	 14.021	 11.33408	  7.27916	  5.01360	  6.25815	  5.97380	  0.04611	 11.33892	705.46100	 23.90	
  3.400	 41.398	 11.32282	  7.01362	  5.24907	  6.72438	  5.54472	  0.05659	 11.32675	705.51599	 23.90	
  3.394	 69.283	 11.33751	  6.58238	  5.67660	  7.03924	  5.29741	  0.06370	 11.34427	705.58698	 23.90	
  3.399	 96.763	 11.32240	  6.06044	  6.17832	  7.09800	  5.24578	  0.06340	 11.32664	705.62903	 23.90	
  3.397	124.529	 11.32995	  5.58669	  6.68465	  6.90622	  5.43166	  0.07253	 11.33319	705.59198	 23.90	
  3.388	152.325	 11.33866	  5.25892	  7.04822	  6.48885	  5.82194	  0.06189	 11.33946	705.53601	 23.90	
  5.099	161.165	 11.27950	  4.59333	  7.60283	  6.41257	  5.71545	  0.01771	 11.32586	705.57300	 23.90	
  5.109	142.013	 11.28006	  4.82426	  7.34075	  6.92975	  5.24922	  0.02017	 11.32684	705.58398	 23.80	
  5.095	123.033	 11.26568	  5.21120	  6.89091	  7.32718	  4.88858	  0.02447	 11.31435	705.49902	 23.80	
  5.105	104.191	 11.27435	  5.68267	  6.37842	  7.57643	  4.67711	  0.01362	 11.32366	705.70599	 23.80	
  5.093	 85.207	 11.28860	  6.23878	  5.83362	  7.63060	  4.62849	  0.00965	 11.33889	705.62598	 23.80	
  5.104	 66.290	 11.26105	  6.76427	  5.29391	  7.47811	  4.71454	  0.01242	 11.31738	705.62903	 23.80	
  5.094	 47.331	 11.28854	  7.26034	  4.86961	  7.17216	  4.98391	  0.00954	 11.34886	705.59302	 23.80	
  5.089	 28.397	 11.26948	  7.61196	  4.53759	  6.70896	  5.35849	  0.00536	 11.33041	705.44897	 23.80	
  5.096	  9.576	 11.27711	  7.80592	  4.37182	  6.16796	  5.85919	 -0.00034	 11.34068	705.58600	 23.80	
  5.096	 -9.576	 11.25751	  7.80104	  4.34225	  5.59562	  6.39927	 -0.00721	 11.32604	705.56097	 23.80	
  5.089	-28.397	 11.26523	  7.61245	  4.49597	  5.09131	  6.93330	 -0.01307	 11.33579	705.47198	 23.80	
  5.094	-47.331	 11.27056	  7.26041	  4.79749	  4.66682	  7.40629	 -0.02200	 11.34587	705.59198	 23.80	
  5.104	-66.290	 11.26390	  6.77203	  5.22961	  4.36897	  7.74543	 -0.02862	 11.33471	705.59198	 23.80	
  5.093	-85.207	 11.25824	  6.22056	  5.74369	  4.24495	  7.89684	 -0.02589	 11.33089	705.60901	 23.80	
  5.105	-104.191	 11.27115	  5.68490	  6.30947	  4.27719	  7.88053	 -0.01579	 11.33800	705.59302	 23.80	
  5.095	-123.033	 11.26431	  5.20080	  6.83445	  4.48792	  7.65486	 -0.00875	 11.33428	705.50800	 23.80	
  5.109	-142.013	 11.27145	  4.81776	  7.28604	  4.85052	  7.27696	  0.00472	 11.33668	705.48798	 23.80	
  5.099	-161.165	 11.26461	  4.58612	  7.57356	  5.30385	  6.78750	  0.00706	 11.32873	705.61798	 23.80	
  5.100	180.000	 11.25875	  4.50389	  7.67891	  5.84109	  6.24434	  0.01677	 11.31608	705.59302	 23.80	
  6.800	180.000	 11.19338	  3.86988	  8.20281	  5.74276	  6.16147	 -0.04893	 11.34589	705.62097	 23.80	
  6.796	-166.229	 11.16875	  3.91337	  8.11301	  5.19117	  6.68581	 -0.06476	 11.32469	705.41998	 23.80	
  6.808	-152.311	 11.17283	  4.08273	  7.89551	  4.71316	  7.19978	 -0.06384	 11.33875	705.51898	 23.70	
  6.795	-138.383	 11.15632	  4.35522	  7.53637	  4.27508	  7.65469	 -0.06260	 11.32350	705.43701	 23.70	
  6.792	-124.591	 11.17400	  4.74724	  7.09655	  3.94029	  8.03569	 -0.07636	 11.34513	705.49597	 23.70	
  6.787	-110.754	 11.14390	  5.18985	  6.56547	  3.70800	  8.25955	 -0.09364	 11.31357	705.51898	 23.70	
  6.800	-96.985	 11.16178	  5.69949	  6.03745	  3.59117	  8.39925	 -0.10275	 11.33239	705.58698	 23.70	
  6.800	-83.015	 11.16747	  6.25627	  5.48460	  3.60636	  8.38250	 -0.11140	 11.34585	705.47198	 23.70	
  6.787	-69.246	 11.15640	  6.77908	  4.97827	  3.72972	  8.21467	 -0.11636	 11.33487	705.48297	 23.70	
  6.792	-55.409	 11.16051	  7.29203	  4.52340	  3.96876	  7.93246	 -0.11437	 11.33980	705.49701	 23.70	
  6.795	-41.617	 11.16055	  7.71164	  4.16361	  4.30286	  7.54166	 -0.09350	 11.33713	705.52002	 23.70	
  6.808	-27.689	 11.16778	  8.05916	  3.88733	  4.73845	  7.06841	 -0.08673	 11.34183	705.38098	 23.70	
  6.796	-13.771	 11.15362	  8.25433	  3.72399	  5.22977	  6.53333	 -0.08427	 11.32625	705.34198	 23.70	
  6.800	  0.000	 11.16211	  8.32506	  3.68402	  5.77127	  5.99785	 -0.07663	 11.33289	705.52802	 23.70	
  6.796	 13.771	 11.17444	  8.25584	  3.75764	  6.33936	  5.47450	 -0.07379	 11.34428	705.49597	 23.70	
  6.808	 27.689	 11.16561	  8.04777	  3.92311	  6.86651	  4.99330	 -0.06768	 11.32812	705.58600	 23.70	
  6.795	 41.617	 11.18614	  7.72681	  4.22492	  7.34208	  4.60301	 -0.05630	 11.34489	705.54401	 23.70	
  6.792	 55.409	 11.18207	  7.28616	  4.61432	  7.72459	  4.29022	 -0.05296	 11.33358	705.54401	 23.70	
  6.787	 69.246	 11.17863	  6.78943	  5.07091	  7.98975	  4.08281	 -0.05570	 11.32197	705.64001	 23.70	
  6.800	 83.015	 11.19250	  6.26428	  5.58342	  8.14747	  3.97676	 -0.05808	 11.34285	705.47699	 23.70	
  6.800	 96.985	 11.19863	  5.72248	  6.14007	  8.14202	  4.00012	 -0.05662	 11.34260	705.51300	 23.70	
  6.787	110.754	 11.20393	  5.21318	  6.68498	  7.98468	  4.14700	 -0.05674	 11.33982	705.47498	 23.70	
  6.792	124.591	 11.21637	  4.75868	  7.20118	  7.71902	  4.38553	 -0.04885	 11.35630	705.49701	 23.70	
  6.795	138.383	 11.18346	  4.37532	  7.59655	  7.30226	  4.70735	 -0.04247	 11.31923	705.50598	 23.70	
  6.808	152.311	 11.18955	  4.09662	  7.92955	  6.82869	  5.13111	 -0.04701	 11.32641	705.49902	 23.70	
  6.796	166.229	 11.20646	  3.92757	  8.14829	  6.30583	  5.63141	 -0.05020	 11.35353	705.55298	 23.70	
  8.491	168.704	 11.06878	  3.26136	  8.63226	  6.17349	  5.49416	 -0.13118	 11.34745	705.60101	 23.70	
  8.502	157.493	 11.05709	  3.39039	  8.45641	  6.72151	  4.97449	 -0.13224	 11.32784	705.56500	 23.60	
  8.494	146.194	 11.06959	  3.62611	  8.18751	  7.24188	  4.52534	 -0.12603	 11.33129	705.46899	 23.60	
  8.495	135.039	 11.07234	  3.94528	  7.81746	  7.71693	  4.11577	 -0.12432	 11.33974	705.43701	 23.60	
  8.487	123.723	 11.06522	  4.33966	  7.35388	  8.10263	  3.78951	 -0.13911	 11.33525	705.51599	 23.60	
  8.492	112.575	 11.06036	  4.78740	  6.84878	  8.38405	  3.55384	 -0.15518	 11.33091	705.45801	 23.60	
  8.510	101.220	 11.05290	  5.29680	  6.29864	  8.56507	  3.38836	 -0.15519	 11.32592	705.57599	 23.60	
  8.500	 90.000	 11.06728	  5.84668	  5.74049	  8.63892	  3.33760	 -0.14689	 11.34573	705.54999	 23.60	
  8.510	 78.780	 11.06354	  6.40378	  5.18372	  8.58941	  3.35865	 -0.14121	 11.34622	705.55103	 23.60	
  8.492	 67.425	 11.04432	  6.94116	  4.65602	  8.40489	  3.47100	 -0.13451	 11.33136	705.54199	 23.60	
  8.487	 56.277	 11.04648	  7.44598	  4.19917	  8.13057	  3.68207	 -0.12978	 11.33810	705.53900	 23.60	
  8.495	 44.961	 11.03590	  7.90051	  3.79158	  7.73467	  3.98715	 -0.12779	 11.33032	705.53101	 23.60	
  8.494	 33.806	 11.04609	  8.28305	  3.46992	  7.28981	  4.36509	 -0.14450	 11.34574	705.63800	 23.60	
  8.502	 22.507	 11.02021	  8.55460	  3.22229	  6.75133	  4.80022	 -0.15624	 11.32395	705.45801	 23.60	
  8.491	 11.296	 11.01001	  8.71911	  3.08046	  6.19762	  5.28976	 -0.15653	 11.31714	705.52802	 23.60	
  8.500	  0.000	 11.01285	  8.78750	  3.01151	  5.64258	  5.82567	 -0.16024	 11.32800	705.52301	 23.60	
  8.491	-11.296	 11.02862	  8.74743	  3.05408	  5.09131	  6.39188	 -0.16677	 11.34722	705.51599	 23.60	
  8.502	-22.507	 11.01722	  8.57252	  3.16983	  4.57897	  6.92026	 -0.16911	 11.33734	705.46503	 23.60	
  8.494	-33.806	 11.00315	  8.27357	  3.39618	  4.09145	  7.43706	 -0.17264	 11.32605	705.59198	 23.60	
  8.495	-44.961	 11.00509	  7.90476	  3.69477	  3.68157	  7.90754	 -0.19178	 11.33263	705.37097	 23.60	
  8.487	-56.277	 10.99370	  7.43592	  4.08390	  3.34939	  8.28674	 -0.20803	 11.31653	705.46503	 23.60	
  8.492	-67.425	 11.01090	  6.94679	  4.52904	  3.12672	  8.58201	 -0.21933	 11.33389	705.52002	 23.60	
  8.510	-78.780	 11.00009	  6.38651	  5.03616	  2.96353	  8.77090	 -0.21940	 11.32416	705.54700	 23.60	
  8.500	-90.000	 11.00357	  5.83236	  5.58618	  2.91240	  8.84245	 -0.20591	 11.32426	705.53400	 23.60	
  8.510	-101.220	 11.00752	  5.28578	  6.14465	  2.95428	  8.81275	 -0.19170	 11.32339	705.47498	 23.60	
  8.492	-112.575	 11.02664	  4.78212	  6.71325	  3.10355	  8.67002	 -0.17814	 11.34068	705.34003	 23.60	
  8.487	-123.723	 11.01839	  4.32515	  7.22696	  3.32878	  8.41187	 -0.15911	 11.33284	705.48499	 23.60	
  8.495	-135.039	 11.03374	  3.93674	  7.71040	  3.65293	  8.06762	 -0.14495	 11.34542	705.56097	 23.70	
  8.494	-146.194	 11.02664	  3.62281	  8.10168	  4.05010	  7.61920	 -0.14449	 11.33539	705.43701	 23.60	
  8.502	-157.493	 11.03154	  3.38788	  8.40261	  4.52352	  7.11830	 -0.15139	 11.33366	705.51599	 23.60	
  8.491	-168.704	 11.02999	  3.24592	  8.58682	  5.03595	  6.58317	 -0.14033	 11.32356	705.52301	 23.60	
  8.500	180.000	 11.04099	  3.20496	  8.66205	  5.59213	  6.02970	 -0.12690	 11.32337	705.46802	 23.60	
 10.200	180.000	 10.87282	  2.53372	  9.11070	  5.41961	  5.88377	 -0.22212	 11.33443	705.44397	 23.60	
 10.191	-170.497	 10.84885	  2.56269	  9.04226	  4.84066	  6.43495	 -0.23904	 11.32250	705.53699	 23.60	
 10.210	-161.034	 10.84536	  2.68141	  8.87622	  4.32896	  6.97272	 -0.25003	 11.32747	705.36200	 23.60	
 10.194	-151.526	 10.82098	  2.87511	  8.59128	  3.82563	  7.49584	 -0.23995	 11.31282	705.45203	 23.60	
 10.190	-142.105	 10.82180	  3.13586	  8.25165	  3.38597	  7.98281	 -0.22605	 11.31989	705.52698	 23.60	
 10.215	-132.646	 10.84166	  3.48524	  7.84011	  3.02007	  8.41539	 -0.22845	 11.33978	705.51599	 23.60	
 10.203	-123.092	 10.82893	  3.87817	  7.34371	  2.70713	  8.75628	 -0.24401	 11.33168	705.53601	 23.60	
 10.192	-113.678	 10.82576	  4.33148	  6.81033	  2.46434	  9.02782	 -0.26562	 11.33105	705.55902	 23.60	
 10.208	-104.249	 10.81729	  4.83985	  6.24039	  2.30771	  9.19556	 -0.28809	 11.32211	705.54498	 23.60	
 10.210	-94.801	 10.81457	  5.36966	  5.67872	  2.22003	  9.28543	 -0.30308	 11.32613	705.50598	 23.60	
 10.210	-85.199	 10.81025	  5.94190	  5.10179	  2.22429	  9.26501	 -0.31407	 11.32233	705.54401	 23.60	
 10.208	-75.751	 10.81707	  6.50263	  4.56963	  2.32019	  9.15004	 -0.31936	 11.33263	705.50500	 23.60	
 10.192	-66.322	 10.81251	  7.04655	  4.08208	  2.49154	  8.92495	 -0.31541	 11.32405	705.48901	 23.60	
 10.203	-56.908	 10.81823	  7.56735	  3.63053	  2.72505	  8.64220	 -0.30538	 11.33594	705.54401	 23.60	
 10.215	-47.354	 10.82164	  8.05281	  3.22761	  3.04769	  8.25715	 -0.28211	 11.33825	705.57300	 23.60	
 10.190	-37.895	 10.81744	  8.44664	  2.91057	  3.42715	  7.80457	 -0.25958	 11.32817	705.68500	 23.60	
 10.194	-28.474	 10.80342	  8.76685	  2.64923	  3.86941	  7.28917	 -0.25561	 11.31531	705.77197	 23.60	
 10.210	-18.966	 10.82580	  9.02830	  2.47500	  4.36715	  6.76481	 -0.25492	 11.33381	705.59302	 23.60	
 10.191	 -9.503	 10.84008	  9.18150	  2.37883	  4.90336	  6.21719	 -0.25264	 11.34163	705.47699	 23.60	
 10.200	  0.000	 10.83573	  9.23590	  2.33803	  5.47439	  5.64619	 -0.24932	 11.33912	705.59198	 23.60	
 10.191	  9.503	 10.82815	  9.16861	  2.38595	  6.04336	  5.09543	 -0.25363	 11.32778	705.70203	 23.60	
 10.210	 18.966	 10.83452	  9.02831	  2.50521	  6.60666	  4.58595	 -0.25471	 11.33301	705.66901	 23.60	
 10.194	 28.474	 10.84233	  8.77441	  2.71607	  7.16096	  4.12041	 -0.24683	 11.33170	705.57599	 23.60	
 10.190	 37.895	 10.85047	  8.45410	  2.98731	  7.67004	  3.69699	 -0.22706	 11.33603	705.69299	 23.60	
 10.215	 47.354	 10.83849	  8.04541	  3.32225	  8.10416	  3.32918	 -0.21694	 11.31670	705.50000	 23.60	
 10.203	 56.908	 10.84133	  7.56004	  3.75040	  8.46871	  3.05517	 -0.21570	 11.30984	705.47699	 23.60	
 10.192	 66.322	 10.85790	  7.05283	  4.22257	  8.75964	  2.85646	 -0.21873	 11.31936	705.54999	 23.60	
 10.208	 75.751	 10.87077	  6.51562	  4.73610	  8.97400	  2.70973	 -0.23416	 11.32944	705.67499	 23.60	
 10.210	 85.199	 10.87206	  5.95500	  5.28070	  9.07123	  2.64437	 -0.24252	 11.32934	705.49103	 23.60	
 10.210	 94.801	 10.87970	  5.39660	  5.85230	  9.07478	  2.66332	 -0.25528	 11.33658	705.59302	 23.60	
 10.208	104.249	 10.86066	  4.84310	  6.41125	  8.94152	  2.76605	 -0.26063	 11.30850	705.54199	 23.60	
 10.192	113.678	 10.88470	  4.36260	  6.96324	  8.74617	  2.94934	 -0.25296	 11.32251	705.67102	 23.60	
 10.203	123.092	 10.88558	  3.90007	  7.48798	  8.45577	  3.18381	 -0.23596	 11.32798	705.50299	 23.60	
 10.215	132.646	 10.89001	  3.48869	  7.96405	  8.08148	  3.49156	 -0.21571	 11.33284	705.49902	 23.60	
 10.190	142.105	 10.90181	  3.16036	  8.37417	  7.62286	  3.88550	 -0.21191	 11.33637	705.55103	 23.60	
 10.194	151.526	 10.88567	  2.89177	  8.68140	  7.10726	  4.31645	 -0.21347	 11.31943	705.52197	 23.60	
 10.210	161.034	 10.88793	  2.69495	  8.93039	  6.55988	  4.80529	 -0.22049	 11.33246	705.67200	 23.60	
 10.191	170.497	 10.86631	  2.57958	  9.05001	  5.99167	  5.31950	 -0.21925	 11.31338	705.61798	 23.60	
 11.899	171.783	 10.66997	  1.91070	  9.48112	  5.79917	  5.14277	 -0.31915	 11.33538	705.52002	 23.60	
 11.890	163.610	 10.67004	  2.00459	  9.35467	  6.36336	  4.61156	 -0.31384	 11.32538	705.62598	 23.60	
 11.889	155.445	 10.66584	  2.17162	  9.14238	  6.91288	  4.11408	 -0.30314	 11.31470	705.71997	 23.60	
 11.909	147.299	 10.68648	  2.38935	  8.88371	  7.46504	  3.65340	 -0.30188	 11.33961	705.52197	 23.60	
 11.902	139.148	 10.68338	  2.68965	  8.51051	  7.95464	  3.24767	 -0.29991	 11.32710	705.40601	 23.60	
 11.894	130.867	 10.68898	  3.04518	  8.08743	  8.39441	  2.89756	 -0.31017	 11.33497	705.48297	 23.60	
 11.897	122.732	 10.66918	  3.44116	  7.58909	  8.76366	  2.58758	 -0.33483	 11.31817	705.51300	 23.60	
 11.903	114.597	 10.66194	  3.89207	  7.07025	  9.07008	  2.33487	 -0.35595	 11.31757	705.57001	 23.60	
 11.893	106.346	 10.67494	  4.39931	  6.51828	  9.30581	  2.16266	 -0.37095	 11.32968	705.59198	 23.60	
 11.892	 98.155	 10.65678	  4.91619	  5.93985	  9.43419	  2.04395	 -0.36823	 11.31927	705.63702	 23.60	
 11.900	 90.000	 10.64821	  5.46414	  5.36445	  9.48175	  1.99029	 -0.35237	 11.31893	705.54498	 23.60	
 11.892	 81.845	 10.65989	  6.03564	  4.81762	  9.45400	  2.00773	 -0.33574	 11.33932	705.65997	 23.60	
 11.893	 73.654	 10.66223	  6.60202	  4.28444	  9.32475	  2.09507	 -0.31751	 11.33754	705.62097	 23.60	
 11.903	 65.403	 10.65745	  7.15048	  3.77879	  9.10940	  2.24156	 -0.30612	 11.34178	705.65503	 23.60	
 11.897	 57.268	 10.65571	  7.66945	  3.32239	  8.80498	  2.46334	 -0.29661	 11.33419	705.59900	 23.60	
 11.894	 49.133	 10.63686	  8.14483	  2.89983	  8.42475	  2.73501	 -0.29522	 11.32717	705.66803	 23.60	
 11.902	 40.852	 10.62238	  8.57049	  2.53244	  7.99461	  3.05538	 -0.30728	 11.32534	705.67499	 23.60	
 11.909	 32.701	 10.62370	  8.94335	  2.23297	  7.50033	  3.45149	 -0.33044	 11.32525	705.58698	 23.60	
 11.889	 24.555	 10.61804	  9.23019	  1.99870	  6.97252	  3.89540	 -0.34220	 11.32829	705.58600	 23.60	
 11.890	 16.390	 10.61527	  9.44773	  1.82581	  6.42153	  4.36944	 -0.34840	 11.33265	705.65997	 23.60	
 11.899	  8.217	 10.60832	  9.57876	  1.71661	  5.86099	  4.87120	 -0.34170	 11.33269	705.63202	 23.60	
 11.900	  0.000	 10.59793	  9.61672	  1.67353	  5.27337	  5.42310	 -0.33410	 11.32750	705.57800	 23.60	
 11.899	 -8.217	 10.59476	  9.56963	  1.69622	  4.71071	  5.98540	 -0.33655	 11.32570	705.65198	 23.60	
 11.890	-16.390	 10.61209	  9.46150	  1.78675	  4.18194	  6.55186	 -0.33066	 11.35246	705.60101	 23.60	
 11.889	-24.555	 10.57591	  9.22263	  1.92611	  3.65595	  7.08900	 -0.33136	 11.31957	705.69598	 23.60	
 11.909	-32.701	 10.59927	  8.95225	  2.14481	  3.19764	  7.63104	 -0.33649	 11.34225	705.57001	 23.60	
 11.902	-40.852	 10.59134	  8.58831	  2.41917	  2.79050	  8.10530	 -0.34296	 11.33702	705.61700	 23.60	
 11.894	-49.133	 10.58708	  8.14649	  2.75949	  2.42970	  8.54251	 -0.36359	 11.33149	705.65698	 23.60	
 11.897	-57.268	 10.56773	  7.65602	  3.14248	  2.12101	  8.90798	 -0.38679	 11.31380	705.59198	 23.60	
 11.903	-65.403	 10.57348	  7.13802	  3.58481	  1.87674	  9.22355	 -0.39514	 11.32560	705.60101	 23.60	
 11.893	-73.654	 10.58582	  6.59001	  4.08597	  1.71109	  9.45359	 -0.39757	 11.32257	705.59198	 23.60	
 11.892	-81.845	 10.57905	  6.02414	  4.61324	  1.60136	  9.59080	 -0.39974	 11.31668	705.57800	 23.60	
 11.900	-90.000	 10.60084	  5.47294	  5.16748	  1.56605	  9.67039	 -0.39922	 11.33751	705.56500	 23.60	
 11.892	-98.155	 10.59103	  4.91097	  5.73158	  1.58000	  9.64911	 -0.39298	 11.32446	705.62903	 23.60	
 11.893	-106.346	 10.59971	  4.37755	  6.31721	  1.69255	  9.53812	 -0.37543	 11.33130	705.49701	 23.60	
 11.903	-114.597	 10.58638	  3.87244	  6.86775	  1.84052	  9.34391	 -0.35408	 11.32114	705.42401	 23.60	
 11.897	-122.732	 10.59692	  3.42764	  7.40981	  2.07699	  9.07609	 -0.33060	 11.32885	705.50299	 23.60	
 11.894	-130.867	 10.60478	  3.03050	  7.91457	  2.37602	  8.73572	 -0.31400	 11.33212	705.49701	 23.60	
 11.902	-139.148	 10.60281	  2.67524	  8.36883	  2.73162	  8.32165	 -0.31629	 11.32819	705.56799	 23.60	
 11.909	-147.299	 10.60795	  2.38256	  8.75557	  3.14101	  7.86234	 -0.33450	 11.33134	705.58600	 23.60	
 11.889	-155.445	 10.61853	  2.17220	  9.06161	  3.61547	  7.34754	 -0.34505	 11.32839	705.49597	 23.60	
 11.890	-163.610	 10.63299	  2.00619	  9.30443	  4.11733	  6.81504	 -0.34402	 11.33444	705.46802	 23.60	
 11.899	-171.783	 10.64156	  1.90088	  9.45751	  4.64830	  6.25909	 -0.33363	 11.33327	705.62598	 23.60	
 11.900	180.000	 10.66420	  1.87598	  9.52541	  5.20925	  5.70598	 -0.32169	 11.34386	705.62598	 23.60	
 13.600	180.000	 10.38534	  1.21592	  9.86206	  4.97700	  5.47634	 -0.41859	 11.32263	705.44702	 23.60	
 13.608	-172.853	 10.38088	  1.23042	  9.83234	  4.41402	  6.04152	 -0.43083	 11.33328	705.43298	 23.60	
 13.611	-165.583	 10.37919	  1.32186	  9.70373	  3.88513	  6.59839	 -0.44174	 11.34353	705.46100	 23.60	
 13.601	-158.353	 10.34934	  1.45213	  9.47827	  3.35025	  7.14956	 -0.44582	 11.32556	705.52301	 23.60	
 13.609	-151.210	 10.33448	  1.63993	  9.19191	  2.88397	  7.66686	 -0.43629	 11.32090	705.45697	 23.60	
 13.611	-143.999	 10.34892	  1.89535	  8.85695	  2.45977	  8.17702	 -0.41660	 11.34247	705.41302	 23.60	
 13.601	-136.825	 10.34387	  2.19503	  8.44055	  2.07393	  8.62860	 -0.40132	 11.34340	705.46503	 23.60	
 13.596	-129.640	 10.34492	  2.54315	  7.97488	  1.72482	  9.03458	 -0.39902	 11.34633	705.44702	 23.60	
 13.611	-122.431	 10.31007	  2.93864	  7.44592	  1.42723	  9.34992	 -0.40993	 11.31487	705.52802	 23.60	
 13.604	-115.211	 10.33872	  3.39821	  6.92134	  1.21860	  9.64362	 -0.42685	 11.34243	705.40198	 23.60	
 13.595	-108.042	 10.31984	  3.87345	  6.35325	  1.04870	  9.82464	 -0.44504	 11.32417	705.44702	 23.60	
 13.607	-100.793	 10.32780	  4.40612	  5.77436	  0.93362	  9.97181	 -0.45855	 11.33476	705.37000	 23.60	
 13.601	-93.617	 10.30997	  4.93415	  5.20046	  0.88141	 10.01352	 -0.45737	 11.31856	705.49597	 23.60	
 13.601	-86.383	 10.31879	  5.51096	  4.63605	  0.88457	  9.99847	 -0.44595	 11.32697	705.45697	 23.60	
 13.607	-79.207	 10.31429	  6.06548	  4.09632	  0.95774	  9.90069	 -0.44016	 11.32696	705.40100	 23.60	
 13.595	-71.958	 10.32816	  6.65159	  3.58259	  1.07728	  9.75094	 -0.43854	 11.34487	705.46802	 23.60	
 13.604	-64.789	 10.33115	  7.20357	  3.10605	  1.26143	  9.51009	 -0.42802	 11.35084	705.60699	 23.60	
 13.611	-57.569	 10.30598	  7.70928	  2.66115	  1.48000	  9.19345	 -0.42845	 11.32979	705.59198	 23.60	
 13.596	-50.360	 10.31198	  8.20743	  2.27300	  1.77091	  8.82260	 -0.41084	 11.33503	705.57501	 23.60	
 13.601	-43.175	 10.32328	  8.65522	  1.94089	  2.10457	  8.41069	 -0.39941	 11.33924	705.49701	 23.60	
 13.611	-36.001	 10.32829	  9.05398	  1.64958	  2.51238	  7.92592	 -0.39098	 11.35045	705.41998	 23.60	
 13.609	-28.790	 10.31805	  9.37134	  1.41142	  2.93799	  7.40571	 -0.39125	 11.33313	705.62903	 23.60	
 13.601	-21.647	 10.30664	  9.61876	  1.23162	  3.40895	  6.85609	 -0.39184	 11.31450	705.53699	 23.60	
 13.611	-14.417	 10.32609	  9.82959	  1.09638	  3.93685	  6.30043	 -0.39357	 11.33643	705.45502	 23.60	
 13.608	 -7.147	 10.31129	  9.92767	  1.02959	  4.47584	  5.72551	 -0.39593	 11.32235	705.58197	 23.60	
 13.600	  0.000	 10.32290	  9.96426	  1.02058	  5.04286	  5.17343	 -0.39868	 11.31947	705.40399	 23.60	
 13.608	  7.147	 10.32417	  9.92446	  1.05388	  5.60730	  4.63316	 -0.41109	 11.31667	705.50500	 23.60	
 13.611	 14.417	 10.33480	  9.81626	  1.13878	  6.19066	  4.11120	 -0.41838	 11.32502	705.50500	 23.60	
 13.601	 21.647	 10.34405	  9.63175	  1.28246	  6.76325	  3.62135	 -0.42096	 11.32985	705.50800	 23.60	
 13.609	 28.790	 10.35011	  9.37465	  1.48335	  7.31739	  3.15958	 -0.41213	 11.33316	705.40601	 23.60	
 13.611	 36.001	 10.35487	  9.04754	  1.73897	  7.83140	  2.75204	 -0.40102	 11.33132	705.43701	 23.60	
 13.601	 43.175	 10.37343	  8.65916	  2.06481	  8.29645	  2.40596	 -0.38718	 11.33369	705.50000	 23.60	
 13.596	 50.360	 10.35767	  8.19896	  2.42192	  8.71573	  2.07690	 -0.37068	 11.31358	705.47198	 23.60	
 13.611	 57.569	 10.37767	  7.72504	  2.82214	  9.09757	  1.81869	 -0.37684	 11.32944	705.45697	 23.60	
 13.604	 64.789	 10.38101	  7.20174	  3.27679	  9.39614	  1.60901	 -0.38474	 11.33166	705.49103	 23.60	
 13.595	 71.958	 10.39251	  6.65483	  3.77738	  9.63613	  1.45161	 -0.40220	 11.33731	705.40900	 23.60	
 13.607	 79.207	 10.39337	  6.08449	  4.30409	  9.78394	  1.36138	 -0.41787	 11.33235	705.51300	 23.60	
 13.601	 86.383	 10.39827	  5.52348	  4.85808	  9.85653	  1.32333	 -0.44206	 11.33137	705.50299	 23.60	
 13.601	 93.617	 10.41328	  4.96174	  5.44127	  9.85292	  1.35220	 -0.45926	 11.33507	705.52802	 23.60	
 13.607	100.793	 10.41007	  4.42537	  6.00548	  9.77328	  1.41428	 -0.46784	 11.33048	705.57300	 23.60	
 13.595	108.042	 10.41732	  3.91309	  6.57910	  9.60431	  1.55307	 -0.45930	 11.32989	705.57800	 23.60	
 13.604	115.211	 10.43809	  3.42870	  7.14756	  9.38036	  1.73900	 -0.45009	 11.34665	705.44897	 23.60	
 13.611	122.431	 10.40964	  2.96581	  7.65191	  9.05753	  1.96277	 -0.43208	 11.32206	705.40100	 23.60	
 13.596	129.640	 10.44228	  2.58029	  8.16695	  8.69418	  2.26732	 -0.40560	 11.33952	705.38702	 23.60	
 13.601	136.825	 10.44412	  2.22441	  8.60860	  8.25779	  2.61272	 -0.38612	 11.33791	705.38098	 23.60	
 13.611	143.999	 10.42114	  1.91171	  8.97611	  7.76641	  2.98479	 -0.38691	 11.31576	705.40997	 23.60	
 13.609	151.210	 10.44328	  1.66590	  9.32558	  7.25738	  3.42461	 -0.39063	 11.33771	705.51599	 23.60	
 13.601	158.353	 10.41863	  1.46584	  9.56181	  6.68721	  3.89218	 -0.39378	 11.31680	705.43701	 23.60	
 13.611	165.583	 10.41011	  1.32212	  9.74112	  6.12668	  4.39308	 -0.40497	 11.32359	705.43500	 23.60	
 13.608	172.853	 10.40420	  1.23928	  9.85265	  5.54461	  4.92842	 -0.41165	 11.33017	705.39600	 23.60	
 15.298	173.587	 10.10651	  0.59020	 10.18105	  5.27752	  4.68189	 -0.49148	 11.32116	705.50800	 23.60	
 15.291	167.167	 10.12201	  0.66760	 10.08650	  5.84764	  4.16325	 -0.48538	 11.32402	705.47198	 23.60	
 15.307	160.676	 10.14221	  0.78151	  9.94306	  6.43147	  3.65687	 -0.48494	 11.33865	705.50598	 23.60	
 15.300	154.261	 10.14145	  0.94956	  9.71248	  6.98913	  3.17355	 -0.47643	 11.32707	705.44897	 23.60	
 15.288	147.854	 10.15820	  1.17470	  9.42200	  7.54436	  2.73693	 -0.46434	 11.34033	705.44897	 23.60	
 15.293	141.428	 10.14644	  1.43313	  9.06743	  8.03772	  2.33527	 -0.46107	 11.32770	705.62598	 23.60	
 15.299	134.985	 10.15100	  1.74073	  8.66630	  8.51612	  1.96708	 -0.46693	 11.32912	705.39001	 23.60	
 15.305	128.583	 10.14255	  2.09428	  8.20580	  8.94833	  1.63025	 -0.48673	 11.33675	705.55103	 23.60	
 15.309	122.142	 10.13189	  2.48703	  7.70130	  9.30490	  1.36079	 -0.50298	 11.32536	705.55298	 23.60	
 15.304	115.711	 10.14121	  2.93110	  7.18115	  9.61844	  1.14364	 -0.51590	 11.33608	705.44702	 23.60	
 15.297	109.291	 10.12988	  3.39861	  6.62843	  9.86055	  0.96182	 -0.51890	 11.33077	705.52197	 23.60	
 15.293	102.897	 10.14248	  3.91274	  6.06929	 10.05639	  0.82633	 -0.51738	 11.34554	705.46802	 23.60	
 15.293	 96.458	 10.11004	  4.42885	  5.47149	 10.14479	  0.73103	 -0.51213	 11.32150	705.56201	 23.60	
 15.300	 90.000	 10.11521	  4.98441	  4.90574	 10.19020	  0.69341	 -0.50658	 11.33014	705.60999	 23.60	
 15.293	 83.542	 10.10872	  5.54536	  4.34343	 10.15847	  0.69931	 -0.49645	 11.33381	705.58600	 23.60	
 15.293	 77.103	 10.10802	  6.11264	  3.79952	 10.05507	  0.76982	 -0.47991	 11.33295	705.52802	 23.60	
 15.297	 70.709	 10.09472	  6.66502	  3.28891	  9.87749	  0.86577	 -0.46259	 11.32459	705.39502	 23.60	
 15.304	 64.289	 10.06859	  7.20075	  2.79571	  9.62773	  1.00805	 -0.44733	 11.30414	705.45502	 23.60	
 15.309	 57.858	 10.06932	  7.72466	  2.35481	  9.33524	  1.20623	 -0.43948	 11.31504	705.51099	 23.60	
 15.305	 51.417	 10.08807	  8.23937	  1.95705	  8.99275	  1.45989	 -0.43808	 11.33997	705.47198	 23.60	
 15.299	 45.015	 10.05596	  8.67433	  1.58934	  8.55928	  1.75095	 -0.43625	 11.31285	705.64801	 23.60	
 15.293	 38.572	 10.06155	  9.09510	  1.27975	  8.08866	  2.10737	 -0.44474	 11.32242	705.58398	 23.60	
 15.288	 32.146	 10.06666	  9.45089	  1.01758	  7.60063	  2.49316	 -0.45180	 11.33250	705.48798	 23.60	
 15.300	 25.739	 10.05236	  9.74925	  0.78953	  7.06740	  2.89896	 -0.45307	 11.33395	705.57300	 23.60	
 15.307	 19.324	 10.03750	  9.98203	  0.60700	  6.50444	  3.34922	 -0.44665	 11.32627	705.48499	 23.60	
 15.291	 12.833	 10.03678	 10.15090	  0.49469	  5.93180	  3.85248	 -0.43803	 11.33018	705.41602	 23.60	
 15.298	  6.413	 10.01966	 10.24460	  0.40845	  5.36481	  4.35708	 -0.43027	 11.32119	705.59497	 23.60	
 15.300	  0.000	 10.02337	 10.28654	  0.38366	  4.78366	  4.90912	 -0.42211	 11.32877	705.44397	 23.60	
 15.298	 -6.413	 10.01952	 10.25472	  0.39397	  4.22341	  5.46299	 -0.42399	 11.33062	705.54700	 23.60	
 15.291	-12.833	 10.00710	 10.14184	  0.45303	  3.68751	  6.01271	 -0.42133	 11.31700	705.61298	 23.60	
 15.307	-19.324	 10.02250	  9.99456	  0.55654	  3.17142	  6.58912	 -0.42142	 11.34331	705.59900	 23.60	
 15.300	-25.739	 10.02351	  9.76834	  0.70607	  2.68618	  7.13959	 -0.42401	 11.34453	705.64801	 23.60	
 15.288	-32.146	 10.01706	  9.46584	  0.90687	  2.24845	  7.65761	 -0.41780	 11.33774	705.56799	 23.60	
 15.293	-38.572	  9.98823	  9.09257	  1.14175	  1.82438	  8.14816	 -0.40878	 11.31375	705.54999	 23.60	
 15.299	-45.015	  9.99081	  8.68443	  1.43671	  1.46309	  8.61178	 -0.40744	 11.31619	705.46002	 23.60	
 15.305	-51.417	  9.99685	  8.23434	  1.77795	  1.15562	  9.02686	 -0.41236	 11.32083	705.55298	 23.60	
 15.309	-57.858	 10.00700	  7.74771	  2.15793	  0.88433	  9.40559	 -0.41317	 11.33071	705.45801	 23.60	
 15.304	-64.289	 10.01254	  7.22102	  2.58917	  0.65591	  9.72573	 -0.41078	 11.33737	705.47198	 23.60	
 15.297	-70.709	 10.01985	  6.67676	  3.05729	  0.49321	  9.96756	 -0.41930	 11.33874	705.56097	 23.60	
 15.293	-77.103	 10.01234	  6.10793	  3.55341	  0.36263	 10.14239	 -0.41633	 11.32459	705.52698	 23.60	
 15.293	-83.542	 10.01294	  5.54394	  4.07714	  0.27821	 10.26261	 -0.43684	 11.32512	705.60303	 23.60	
 15.300	-90.000	 10.02113	  4.98433	  4.62987	  0.23959	 10.33009	 -0.45168	 11.33682	705.55103	 23.60	
 15.293	-96.458	 10.02137	  4.42257	  5.19861	  0.25629	 10.31601	 -0.47384	 11.32876	705.53101	 23.60	
 15.293	-102.897	 10.01902	  3.88307	  5.78211	  0.32692	 10.22770	 -0.48686	 11.32825	705.50800	 23.60	
 15.297	-109.291	 10.02077	  3.38602	  6.34466	  0.43503	 10.08833	 -0.49089	 11.33066	705.59198	 23.60	
 15.304	-115.711	 10.02259	  2.90500	  6.91287	  0.61705	  9.87089	 -0.48222	 11.32666	705.55798	 23.60	
 15.309	-122.142	 10.03746	  2.47274	  7.46544	  0.83046	  9.61254	 -0.46514	 11.34474	705.51898	 23.60	
 15.305	-128.583	 10.02484	  2.07054	  7.96872	  1.08889	  9.27191	 -0.45592	 11.32828	705.55298	 23.60	
 15.299	-134.985	 10.02574	  1.72333	  8.44367	  1.39531	  8.88751	 -0.46700	 11.32908	705.49103	 23.60	
 15.293	-141.428	 10.04721	  1.42419	  8.88483	  1.76963	  8.45468	 -0.48295	 11.34367	705.67700	 23.60	
 15.288	-147.854	 10.04171	  1.15946	  9.26041	  2.17965	  7.95892	 -0.50896	 11.32938	705.60999	 23.60	
 15.300	-154.261	 10.03417	  0.93618	  9.56885	  2.60700	  7.44924	 -0.52604	 11.31627	705.57800	 23.60	
 15.307	-160.676	 10.04560	  0.76688	  9.83751	  3.08252	  6.91630	 -0.52799	 11.32369	705.53003	 23.60	
 15.291	-167.167	 10.06353	  0.66649	 10.02036	  3.60727	  6.35094	 -0.52236	 11.31663	705.41803	 23.60	
 15.298	-173.587	 10.07289	  0.59396	 10.13997	  4.14398	  5.78618	 -0.50514	 11.31100	705.48499	 23.60	
 15.300	180.000	 10.11136	  0.57543	 10.21037	  4.70547	  5.25058	 -0.50027	 11.34200	705.48901	 23.60	
 17.000	180.000	  9.77798	 -0.04463	 10.49329	  4.42506	  4.97556	 -0.55084	 11.33478	705.55298	 23.60	
 16.990	-174.179	  9.75427	 -0.02606	 10.43906	  3.87041	  5.52098	 -0.55624	 11.32801	705.50598	 23.60	
 17.009	-168.383	  9.72995	  0.01181	 10.34331	  3.32196	  6.07778	 -0.56667	 11.32695	705.48798	 23.60	
 17.000	-162.596	  9.71615	  0.12159	 10.15519	  2.81007	  6.63629	 -0.57197	 11.31907	705.42603	 23.60	
 16.990	-156.759	  9.70257	  0.26417	  9.91759	  2.34142	  7.17282	 -0.57332	 11.31707	705.39502	 23.60	
 16.995	-150.919	  9.70446	  0.44347	  9.63241	  1.88899	  7.70873	 -0.57030	 11.33306	705.51300	 23.60	
 16.988	-145.161	  9.68688	  0.66869	  9.27289	  1.47360	  8.19797	 -0.55386	 11.31896	705.35101	 23.60	
 17.014	-139.343	  9.67920	  0.92293	  8.87883	  1.08208	  8.67645	 -0.53172	 11.32858	705.57800	 23.60	
 17.007	-133.546	  9.69016	  1.24115	  8.44107	  0.77037	  9.10196	 -0.51367	 11.33504	705.32599	 23.50	
 17.001	-127.699	  9.68292	  1.58542	  7.95011	  0.46900	  9.48283	 -0.51117	 11.33397	705.46002	 23.50	
 17.006	-121.937	  9.68478	  1.97229	  7.43303	  0.22140	  9.81650	 -0.50574	 11.33608	705.43500	 23.50	
 17.002	-116.134	  9.68105	  2.39887	  6.88928	  0.01014	 10.09012	 -0.51403	 11.33512	705.47198	 23.50	
 17.001	-110.310	  9.67627	  2.86012	  6.32115	 -0.15915	 10.30752	 -0.51141	 11.33287	705.42902	 23.50	
 16.988	-104.517	  9.67070	  3.34655	  5.75570	 -0.27149	 10.45652	 -0.49105	 11.32683	705.52301	 23.50	
 17.008	-98.662	  9.67127	  3.87064	  5.17851	 -0.35462	 10.56454	 -0.45448	 11.33315	705.50800	 23.50	
 16.996	-92.909	  9.67047	  4.40788	  4.61631	 -0.38601	 10.60037	 -0.43514	 11.32884	705.59302	 23.50	
 16.996	-87.091	  9.67406	  4.96245	  4.05841	 -0.37719	 10.58528	 -0.40806	 11.33147	705.58398	 23.50	
 17.012	-81.253	  9.65153	  5.52349	  3.50492	 -0.33486	 10.49547	 -0.38482	 11.31911	705.45697	 23.50	
 16.988	-75.483	  9.67414	  6.09552	  3.00389	 -0.22984	 10.37073	 -0.37377	 11.34276	705.43201	 23.50	
 17.001	-69.690	  9.63405	  6.62887	  2.51120	 -0.11650	 10.15361	 -0.35633	 11.30695	705.45203	 23.50	
 17.002	-63.866	  9.66857	  7.20528	  2.07214	  0.05536	  9.93099	 -0.36748	 11.34324	705.55902	 23.50	
 17.006	-58.063	  9.65980	  7.72938	  1.65191	  0.26046	  9.61655	 -0.37487	 11.33509	705.48798	 23.50	
 17.001	-52.301	  9.65530	  8.21893	  1.28322	  0.52175	  9.24300	 -0.38681	 11.32591	705.50299	 23.50	
 17.007	-46.454	  9.64872	  8.68394	  0.95119	  0.82171	  8.81954	 -0.38273	 11.32063	705.44702	 23.50	
 17.014	-40.657	  9.64439	  9.10725	  0.65082	  1.14271	  8.38130	 -0.38998	 11.32432	705.35101	 23.50	
 16.988	-34.839	  9.65310	  9.47573	  0.41995	  1.53549	  7.88510	 -0.40033	 11.31717	705.46899	 23.50	
 16.995	-29.081	  9.65807	  9.80302	  0.20846	  1.95879	  7.36742	 -0.40841	 11.32005	705.43201	 23.60	
 16.990	-23.241	  9.66851	 10.07751	  0.04589	  2.40971	  6.83570	 -0.41951	 11.32455	705.34003	 23.50	
 17.000	-17.404	  9.65660	 10.28667	 -0.09742	  2.89394	  6.27023	 -0.40844	 11.32072	705.49103	 23.50	
 17.009	-11.617	  9.68513	 10.45680	 -0.18098	  3.41679	  5.73027	 -0.41473	 11.34594	705.50500	 23.50	
 16.990	 -5.821	  9.68128	 10.53493	 -0.22289	  3.94809	  5.16955	 -0.40505	 11.33675	705.47400	 23.50	
 17.000	  0.000	  9.68191	 10.56172	 -0.23320	  4.49653	  4.62228	 -0.40473	 11.32728	705.41199	 23.50	
 16.990	  5.821	  9.68779	 10.52552	 -0.20265	  5.07865	  4.07276	 -0.41177	 11.32412	705.44000	 23.50	
 17.009	 11.617	  9.68759	 10.43801	 -0.14459	  5.63901	  3.56131	 -0.41768	 11.32660	705.44299	 23.50	
 17.000	 17.404	  9.68686	 10.28432	 -0.04846	  6.20659	  3.06596	 -0.42442	 11.32085	705.37903	 23.50	
 16.990	 23.241	  9.71402	 10.07768	  0.11639	  6.78348	  2.61497	 -0.43162	 11.33197	705.51099	 23.50	
 16.995	 29.081	  9.72529	  9.81841	  0.30001	  7.33755	  2.18165	 -0.44731	 11.33981	705.41302	 23.50	
 16.988	 34.839	  9.73003	  9.48381	  0.53975	  7.85072	  1.79340	 -0.46085	 11.32928	705.37903	 23.50	
 17.014	 40.657	  9.73165	  9.11145	  0.79779	  8.35218	  1.42348	 -0.46562	 11.33525	705.45697	 23.50	
 17.007	 46.454	  9.72632	  8.67268	  1.11564	  8.80461	  1.10148	 -0.47180	 11.32661	705.47400	 23.50	
 17.001	 52.301	  9.74269	  8.21454	  1.47533	  9.20609	  0.83823	 -0.47644	 11.32529	705.43201	 23.50	
 17.006	 58.063	  9.74663	  7.71462	  1.86841	  9.56203	  0.60028	 -0.48956	 11.32203	705.37903	 23.50	
 17.002	 63.866	  9.74415	  7.19045	  2.28882	  9.86295	  0.40431	 -0.49937	 11.31956	705.44098	 23.50	
 17.001	 69.690	  9.74744	  6.64085	  2.75583	 10.11332	  0.24208	 -0.50935	 11.32307	705.44702	 23.50	
 16.988	 75.483	  9.76844	  6.08827	  3.26929	 10.30177	  0.14662	 -0.51632	 11.33366	705.47498	 23.50	
 17.012	 81.253	  9.74388	  5.52643	  3.76550	 10.41621	  0.05282	 -0.51716	 11.31740	705.56201	 23.50	
 16.996	 87.091	  9.75794	  4.95700	  4.33165	 10.47480	  0.04030	 -0.51619	 11.31627	705.51398	 23.50	
 16.996	 92.909	  9.75512	  4.40936	  4.89020	 10.45889	  0.06268	 -0.51434	 11.30582	705.48199	 23.50	
 17.008	 98.662	  9.77924	  3.88667	  5.46447	 10.41126	  0.11508	 -0.50964	 11.32089	705.30603	 23.50	
 16.988	104.517	  9.78677	  3.37961	  6.03540	 10.27923	  0.22148	 -0.52523	 11.32540	705.34998	 23.50	
 17.001	110.310	  9.79890	  2.88532	  6.61349	 10.08650	  0.35921	 -0.53204	 11.32967	705.42902	 23.50	
 17.002	116.134	  9.80636	  2.42990	  7.16846	  9.83241	  0.54981	 -0.53757	 11.32617	705.31403	 23.50	
 17.006	121.937	  9.81068	  2.01490	  7.69746	  9.51647	  0.77235	 -0.53627	 11.32205	705.35101	 23.50	
 17.001	127.699	  9.81962	  1.62231	  8.20133	  9.16475	  1.02955	 -0.52999	 11.33327	705.37000	 23.50	
 17.007	133.546	  9.81209	  1.26758	  8.66101	  8.73157	  1.33170	 -0.52718	 11.31390	705.38098	 23.50	
 17.014	139.343	  9.82061	  0.95634	  9.09280	  8.28686	  1.66253	 -0.52975	 11.32705	705.47699	 23.50	
 16.988	145.161	  9.83131	  0.69179	  9.46717	  7.78767	  2.05826	 -0.53181	 11.33666	705.40198	 23.50	
 16.995	150.919	  9.82119	  0.47839	  9.77486	  7.26053	  2.46169	 -0.53913	 11.32057	705.35400	 23.50	
 16.990	156.759	  9.82221	  0.28920	 10.04260	  6.71393	  2.91134	 -0.54457	 11.32700	705.37799	 23.50	
 17.000	162.596	  9.82052	  0.14381	 10.25503	  6.13816	  3.40180	 -0.54587	 11.33490	705.44000	 23.50	
 17.009	168.383	  9.80031	  0.03746	 10.39002	  5.56359	  3.90088	 -0.54842	 11.32417	705.33899	 23.50	
 16.990	174.179	  9.78975	 -0.02996	 10.48129	  4.99917	  4.42091	 -0.55284	 11.33394	705.36700	 23.50	
 18.709	174.675	  9.39948	 -0.63584	 10.69938	  4.67236	  4.12233	 -0.57394	 11.30329	705.19598	 23.50	
 18.703	169.441	  9.43186	 -0.57949	 10.64573	  5.23272	  3.62527	 -0.58317	 11.31991	705.33301	 23.50	
 18.691	164.085	  9.44532	 -0.49043	 10.52256	  5.81669	  3.11271	 -0.58392	 11.32390	705.34003	 23.50	
 18.706	158.818	  9.45096	 -0.37070	 10.34212	  6.38457	  2.63046	 -0.58415	 11.32402	705.34399	 23.50	
 18.695	153.537	  9.45439	 -0.21189	 10.10338	  6.91884	  2.19695	 -0.58174	 11.31169	705.39301	 23.50	
 18.704	148.255	  9.45847	 -0.02239	  9.81620	  7.46559	  1.77299	 -0.58155	 11.31908	705.42603	 23.50	
 18.698	142.952	  9.46094	  0.21210	  9.47064	  7.99448	  1.37677	 -0.57556	 11.32911	705.26001	 23.50	
 18.699	137.625	  9.45712	  0.48880	  9.06724	  8.47347	  1.02776	 -0.56300	 11.31604	705.38702	 23.50	
 18.705	132.343	  9.47413	  0.79469	  8.65659	  8.93077	  0.72575	 -0.55305	 11.33565	705.33099	 23.50	
 18.713	127.067	  9.46505	  1.13068	  8.18216	  9.34299	  0.42996	 -0.54429	 11.33442	705.37903	 23.50	
 18.700	121.794	  9.45184	  1.51551	  7.66495	  9.69648	  0.18946	 -0.52977	 11.32483	705.45697	 23.50	
 18.698	116.504	  9.45855	  1.92612	  7.15386	 10.01098	 -0.01506	 -0.51073	 11.33780	705.45801	 23.50	
 18.707	111.165	  9.43652	  2.36690	  6.57729	 10.27036	 -0.20823	 -0.49781	 11.32830	705.49597	 23.50	
 18.690	105.863	  9.43767	  2.84219	  6.02270	 10.47065	 -0.34226	 -0.48608	 11.33200	705.44897	 23.50	
 18.696	100.583	  9.43249	  3.34666	  5.46101	 10.60470	 -0.43872	 -0.47379	 11.32077	705.40198	 23.50	
 18.700	 95.309	  9.42154	  3.85516	  4.88931	 10.69617	 -0.50551	 -0.47326	 11.32221	705.48499	 23.50	
 18.700	 90.000	  9.42548	  4.39339	  4.33863	 10.73435	 -0.53787	 -0.48500	 11.33428	705.47400	 23.50	
 18.700	 84.691	  9.40429	  4.93819	  3.77630	 10.69317	 -0.53478	 -0.50809	 11.31413	705.52197	 23.50	
 18.696	 79.417	  9.40393	  5.48943	  3.25476	 10.62000	 -0.49121	 -0.52051	 11.32093	705.50000	 23.50	
 18.690	 74.137	  9.39952	  6.04821	  2.74766	 10.48791	 -0.42235	 -0.52401	 11.32532	705.40997	 23.50	
 18.707	 68.835	  9.39875	  6.61052	  2.25321	 10.31102	 -0.32218	 -0.52434	 11.34205	705.33301	 23.50	
 18.698	 63.496	  9.38869	  7.14458	  1.80752	 10.04212	 -0.16432	 -0.51676	 11.32284	705.34698	 23.50	
 18.700	 58.206	  9.38500	  7.67433	  1.38394	  9.74224	  0.01849	 -0.51162	 11.33158	705.42700	 23.50	
 18.713	 52.933	  9.37539	  8.16527	  1.00384	  9.37923	  0.24251	 -0.49864	 11.31840	705.23798	 23.50	
 18.705	 47.657	  9.37694	  8.65234	  0.64887	  8.99133	  0.50063	 -0.49343	 11.33881	705.26099	 23.50	
 18.699	 42.375	  9.36076	  9.06849	  0.34384	  8.54401	  0.79717	 -0.46296	 11.32805	705.30902	 23.50	
 18.698	 37.048	  9.36622	  9.47896	  0.07329	  8.06589	  1.13115	 -0.44495	 11.33300	705.44000	 23.50	
 18.704	 31.745	  9.34840	  9.81901	 -0.16853	  7.54677	  1.49408	 -0.41902	 11.32703	705.48297	 23.50	
 18.695	 26.463	  9.35371	 10.12762	 -0.37219	  7.02351	  1.89696	 -0.40680	 11.33935	705.49597	 23.50	
 18.706	 21.182	  9.33570	 10.37223	 -0.54746	  6.47700	  2.30733	 -0.38459	 11.33927	705.38098	 23.50	
 18.691	 15.915	  9.32468	 10.55004	 -0.65858	  5.89672	  2.77853	 -0.37424	 11.32753	705.46503	 23.50	
 18.703	 10.559	  9.31478	 10.68181	 -0.75318	  5.33301	  3.26480	 -0.37895	 11.32639	705.52698	 23.50	
 18.709	  5.325	  9.31229	 10.77055	 -0.81243	  4.77278	  3.76747	 -0.37377	 11.33162	705.46802	 23.50	
 18.700	  0.000	  9.30330	 10.78787	 -0.83108	  4.20740	  4.29998	 -0.38117	 11.32254	705.36200	 23.50	
 18.709	 -5.325	  9.30463	 10.77755	 -0.83178	  3.66025	  4.84327	 -0.38266	 11.33682	705.37097	 23.50	
 18.703	-10.559	  9.27864	 10.67274	 -0.78766	  3.12119	  5.38382	 -0.37794	 11.31443	705.61298	 23.50	
 18.691	-15.915	  9.29095	 10.55306	 -0.71646	  2.61267	  5.95079	 -0.37690	 11.32846	705.45801	 23.50	
 18.706	-21.182	  9.27533	 10.35582	 -0.60836	  2.13031	  6.49076	 -0.38660	 11.31661	705.52197	 23.50	
 18.695	-26.463	  9.27035	 10.11382	 -0.46746	  1.67089	  7.02964	 -0.38730	 11.31184	705.42700	 23.50	
 18.704	-31.745	  9.29051	  9.83975	 -0.29253	  1.25085	  7.57826	 -0.38568	 11.34054	705.48297	 23.50	
 18.698	-37.048	  9.27189	  9.47389	 -0.06973	  0.86855	  8.06379	 -0.38244	 11.31633	705.42102	 23.50	
 18.699	-42.375	  9.28565	  9.09073	  0.18397	  0.52484	  8.54887	 -0.37206	 11.32930	705.51099	 23.50	
 18.705	-47.657	  9.27357	  8.65524	  0.46251	  0.20825	  8.97454	 -0.35370	 11.31842	705.34198	 23.50	
 18.713	-52.933	  9.26901	  8.18245	  0.78398	 -0.08073	  9.38433	 -0.34422	 11.31562	705.43201	 23.50	
 18.700	-58.206	  9.29843	  7.69451	  1.15779	 -0.31919	  9.77658	 -0.32766	 11.34788	705.33899	 23.50	
 18.698	-63.496	  9.26930	  7.15015	  1.54863	 -0.50185	 10.04426	 -0.32178	 11.30896	705.38501	 23.50	
 18.707	-68.835	  9.29149	  6.62148	  1.98764	 -0.67672	 10.32968	 -0.32336	 11.33499	705.36499	 23.50	
 18.690	-74.137	  9.28255	  6.05420	  2.45866	 -0.78970	 10.50989	 -0.32925	 11.31209	705.36401	 23.50	
 18.696	-79.417	  9.26947	  5.48459	  2.94553	 -0.88604	 10.64288	 -0.34875	 11.29310	705.36499	 23.50	
 18.700	-84.691	  9.30293	  4.94743	  3.47187	 -0.95282	 10.77589	 -0.35021	 11.33408	705.41602	 23.50	
 18.700	-90.000	  9.28694	  4.38736	  4.00414	 -0.97909	 10.80306	 -0.37817	 11.30719	705.53900	 23.50	
 18.700	-95.309	  9.29737	  3.85113	  4.56466	 -0.97311	 10.80822	 -0.41009	 11.32395	705.60303	 23.50	
 18.696	-100.583	  9.29978	  3.33088	  5.12984	 -0.92680	 10.75198	 -0.43700	 11.32514	705.45203	 23.50	
 18.690	-105.863	  9.31611	  2.84260	  5.70632	 -0.83701	 10.65018	 -0.46525	 11.34088	705.53601	 23.50	
 18.707	-111.165	  9.30161	  2.35428	  6.25962	 -0.71470	 10.46783	 -0.49068	 11.32090	705.38800	 23.50	
 18.698	-116.504	  9.29270	  1.89120	  6.82496	 -0.56415	 10.24359	 -0.50944	 11.31944	705.46899	 23.50	
 18.700	-121.794	  9.28654	  1.47946	  7.35582	 -0.37403	  9.97060	 -0.51843	 11.30973	705.40601	 23.50	
 18.713	-127.067	  9.30101	  1.10194	  7.88765	 -0.14352	  9.66123	 -0.53866	 11.33231	705.38501	 23.50	
 18.705	-132.343	  9.30454	  0.76479	  8.37756	  0.13610	  9.28234	 -0.54834	 11.32784	705.41998	 23.50	
 18.699	-137.625	  9.30380	  0.46053	  8.83250	  0.44885	  8.85149	 -0.55761	 11.31591	705.41302	 23.50	
 18.698	-142.952	  9.32430	  0.19803	  9.26027	  0.80173	  8.41051	 -0.56463	 11.33340	705.45801	 23.50	
 18.704	-148.255	  9.32382	 -0.03699	  9.62773	  1.17799	  7.92538	 -0.56521	 11.32753	705.34198	 23.50	
 18.695	-153.537	  9.33804	 -0.22306	  9.94955	  1.60967	  7.40759	 -0.56379	 11.32672	705.48798	 23.50	
 18.706	-158.818	  9.35070	 -0.38489	 10.23175	  2.04881	  6.88508	 -0.55775	 11.33669	705.59198	 23.50	
 18.691	-164.085	  9.35891	 -0.49922	 10.43823	  2.52123	  6.34079	 -0.56469	 11.33181	705.43701	 23.50	
 18.703	-169.441	  9.37707	 -0.58497	 10.60178	  3.04486	  5.77920	 -0.55705	 11.33602	705.43500	 23.50	
 18.709	-174.675	  9.38850	 -0.63833	 10.69581	  3.56193	  5.23390	 -0.56262	 11.33307	705.47498	 23.50	
 18.700	180.000	  9.41067	 -0.64632	 10.73763	  4.10794	  4.68914	 -0.56692	 11.33156	705.41602	 23.50	
 20.400	180.000	  9.00280	 -1.23620	 10.93531	  3.78714	  4.36207	 -0.54769	 11.32296	705.55402	 23.50	
 20.401	-175.153	  8.98993	 -1.23204	 10.90817	  3.24331	  4.90692	 -0.53614	 11.33143	705.46100	 23.50	
 20.407	-170.264	  8.97717	 -1.19468	 10.82641	  2.72138	  5.45631	 -0.51727	 11.33790	705.49103	 23.50	
 20.410	-165.423	  8.95737	 -1.12464	 10.68134	  2.22131	  5.99956	 -0.51091	 11.33675	705.51398	 23.50	
 20.392	-160.496	  8.93170	 -1.01232	 10.45996	  1.74533	  6.54115	 -0.50759	 11.31704	705.48798	 23.50	
 20.401	-155.705	  8.91905	 -0.88108	 10.21847	  1.30632	  7.06456	 -0.50285	 11.31609	705.44000	 23.50	
 20.405	-150.835	  8.91635	 -0.72005	  9.92705	  0.88532	  7.59559	 -0.51580	 11.32198	705.63702	 23.50	
 20.397	-145.903	  8.90200	 -0.51493	  9.57116	  0.49165	  8.09584	 -0.53301	 11.31740	705.65698	 23.50	
 20.392	-141.062	  8.89610	 -0.28051	  9.18543	  0.14613	  8.55832	 -0.54824	 11.31178	705.55902	 23.50	
 20.396	-136.227	  8.91299	 -0.01081	  8.77148	 -0.17818	  9.02451	 -0.55664	 11.34203	705.56799	 23.50	
 20.408	-131.372	  8.88856	  0.27782	  8.29446	 -0.47120	  9.42005	 -0.54649	 11.32471	705.55298	 23.50	
 20.410	-126.511	  8.90539	  0.61115	  7.81696	 -0.73032	  9.80628	 -0.53715	 11.34884	705.28497	 23.50	
 20.400	-121.604	  8.87761	  0.98355	  7.26748	 -0.94344	 10.09182	 -0.51447	 11.30871	705.26898	 23.50	
 20.403	-116.741	  8.88906	  1.38439	  6.73835	 -1.13568	 10.38239	 -0.49143	 11.33116	705.37000	 23.50	
 20.413	-111.900	  8.87124	  1.80797	  6.17248	 -1.29670	 10.59387	 -0.46513	 11.30670	705.48798	 23.50	
 20.398	-107.004	  8.88428	  2.27417	  5.62295	 -1.41638	 10.78082	 -0.43699	 11.32646	705.59900	 23.50	
 20.394	-102.132	  8.87393	  2.75862	  5.04649	 -1.50223	 10.89323	 -0.40323	 11.31217	705.51300	 23.50	
 20.403	-97.332	  8.86482	  3.25162	  4.49217	 -1.57448	 10.97535	 -0.37540	 11.31394	705.47998	 23.50	
 20.392	-92.440	  8.88664	  3.78941	  3.94426	 -1.59969	 11.02364	 -0.35827	 11.33389	705.48499	 23.50	
 20.392	-87.560	  8.87124	  4.33799	  3.38998	 -1.57959	 10.98301	 -0.33691	 11.31574	705.51398	 23.50	
 20.403	-82.668	  8.86273	  4.87309	  2.86607	 -1.55613	 10.92363	 -0.32843	 11.31669	705.59198	 23.50	
 20.394	-77.868	  8.87825	  5.43765	  2.37653	 -1.48086	 10.82151	 -0.34031	 11.33200	705.57599	 23.50	
 20.398	-72.996	  8.86165	  5.97450	  1.89530	 -1.39536	 10.66131	 -0.32071	 11.31884	705.63000	 23.50	
 20.413	-68.100	  8.86022	  6.53224	  1.43957	 -1.26357	 10.44968	 -0.30778	 11.32185	705.67499	 23.50	
 20.403	-63.259	  8.86600	  7.07806	  1.02624	 -1.09383	 10.18655	 -0.30799	 11.32754	705.53101	 23.50	
 20.400	-58.396	  8.86185	  7.59243	  0.64895	 -0.90321	  9.87260	 -0.31480	 11.32285	705.45801	 23.50	
 20.410	-53.489	  8.85560	  8.10044	  0.28136	 -0.68127	  9.51855	 -0.32411	 11.32183	705.49902	 23.50	
 20.408	-48.628	  8.85810	  8.57459	 -0.03559	 -0.42083	  9.11888	 -0.33075	 11.32470	705.54498	 23.50	
 20.396	-43.773	  8.85406	  9.00998	 -0.31083	 -0.12344	  8.67962	 -0.34959	 11.31409	705.44702	 23.50	
 20.392	-38.938	  8.85172	  9.41219	 -0.55649	  0.20717	  8.20300	 -0.35181	 11.30310	705.40198	 23.50	
 20.397	-34.097	  8.87556	  9.79878	 -0.78008	  0.56111	  7.73739	 -0.35335	 11.33607	705.52301	 23.50	
 20.405	-29.165	  8.85699	 10.10639	 -0.97120	  0.94705	  7.20627	 -0.34971	 11.32028	705.55103	 23.50	
 20.401	-24.295	  8.89226	 10.40710	 -1.11685	  1.39117	  6.69022	 -0.36005	 11.35369	705.56097	 23.50	
 20.392	-19.504	  8.87608	 10.60647	 -1.24023	  1.83599	  6.14189	 -0.35881	 11.32894	705.47498	 23.50	
 20.410	-14.577	  8.87287	 10.77031	 -1.33227	  2.30841	  5.59044	 -0.36114	 11.32224	705.62097	 23.50	
 20.407	 -9.736	  8.87353	 10.87899	 -1.39354	  2.82256	  5.03120	 -0.35085	 11.31693	705.60999	 23.50	
 20.401	 -4.847	  8.87705	 10.94843	 -1.42061	  3.33877	  4.49371	 -0.35135	 11.31457	705.44098	 23.50	
 20.400	  0.000	  8.89287	 10.98836	 -1.43268	  3.87910	  3.97253	 -0.34874	 11.33440	705.58398	 23.50	
 20.401	  4.847	  8.90337	 10.97335	 -1.41646	  4.44030	  3.44475	 -0.34411	 11.33434	705.58698	 23.50	
 20.407	  9.736	  8.90074	 10.89283	 -1.36538	  4.99074	  2.94474	 -0.34280	 11.33113	705.54401	 23.50	
 20.410	 14.577	  8.89429	 10.75868	 -1.28943	  5.53861	  2.46436	 -0.34178	 11.31374	705.44702	 23.50	
 20.392	 19.504	  8.90808	 10.57823	 -1.17017	  6.13017	  1.99450	 -0.33848	 11.31315	705.55298	 23.50	
 20.401	 24.295	  8.91323	 10.36721	 -1.03706	  6.66681	  1.57456	 -0.35504	 11.31466	705.43201	 23.50	
 20.405	 29.165	  8.94019	 10.10846	 -0.85640	  7.21971	  1.17903	 -0.36639	 11.33219	705.48499	 23.50	
 20.397	 34.097	  8.94778	  9.78055	 -0.64399	  7.76551	  0.79295	 -0.39794	 11.33619	705.56702	 23.50	
 20.392	 38.938	  8.94310	  9.40782	 -0.40817	  8.24649	  0.46087	 -0.42902	 11.32139	705.46503	 23.50	
 20.396	 43.773	  8.94991	  8.99416	 -0.12885	  8.70393	  0.15811	 -0.45957	 11.31475	705.60999	 23.50	
 20.408	 48.628	  8.95310	  8.55503	  0.16306	  9.14534	 -0.13153	 -0.47976	 11.32005	705.50000	 23.50	
 20.410	 53.489	  8.96281	  8.08620	  0.49696	  9.54908	 -0.38712	 -0.50098	 11.33344	705.49597	 23.50	
 20.400	 58.396	  8.97508	  7.58352	  0.88010	  9.89021	 -0.58390	 -0.50535	 11.32479	705.51099	 23.50	
 20.403	 63.259	  8.99075	  7.06463	  1.29777	 10.19707	 -0.75105	 -0.50779	 11.33100	705.56097	 23.50	
 20.413	 68.100	  8.98177	  6.52488	  1.72575	 10.44130	 -0.89861	 -0.51227	 11.31870	705.55402	 23.50	
 20.398	 72.996	  8.99168	  5.97185	  2.20092	 10.63720	 -1.00196	 -0.50761	 11.31990	705.48901	 23.50	
 20.394	 77.868	  8.99849	  5.42368	  2.69354	 10.79160	 -1.08261	 -0.49314	 11.32493	705.35101	 23.50	
 20.403	 82.668	  9.00598	  4.88029	  3.20757	 10.87749	 -1.11861	 -0.46498	 11.31550	705.52301	 23.50	
 20.392	 87.560	  9.00206	  4.32492	  3.73427	 10.91934	 -1.14177	 -0.44736	 11.30895	705.47198	 23.50	
 20.392	 92.440	  9.01529	  3.79144	  4.27759	 10.92776	 -1.13151	 -0.43097	 11.32223	705.42603	 23.50	
 20.403	 97.332	  9.02661	  3.27350	  4.83954	 10.88392	 -1.09061	 -0.41594	 11.33139	705.48901	 23.50	
 20.394	102.132	  9.03458	  2.78609	  5.39605	 10.76807	 -1.00224	 -0.42593	 11.31794	705.46802	 23.50	
 20.398	107.004	  9.05305	  2.30407	  5.96887	 10.62584	 -0.89655	 -0.42759	 11.33685	705.47699	 23.50	
 20.413	111.900	  9.04400	  1.84199	  6.52170	 10.40058	 -0.75956	 -0.44476	 11.31967	705.54498	 23.50	
 20.403	116.741	  9.04805	  1.41878	  7.05613	 10.14077	 -0.59095	 -0.45948	 11.31330	705.43201	 23.50	
 20.400	121.604	  9.05992	  1.02656	  7.58854	  9.83600	 -0.39571	 -0.48600	 11.31852	705.41602	 23.50	
 20.410	126.511	  9.05597	  0.64462	  8.09289	  9.48387	 -0.17005	 -0.50952	 11.32340	705.53400	 23.50	
 20.408	131.372	  9.07685	  0.32018	  8.58047	  9.08610	  0.10271	 -0.53675	 11.32978	705.44299	 23.50	
 20.396	136.227	  9.08281	  0.02494	  9.02331	  8.64247	  0.40560	 -0.55971	 11.32749	705.46802	 23.50	
 20.392	141.062	  9.08522	 -0.25097	  9.43489	  8.17406	  0.73550	 -0.57982	 11.33267	705.47498	 23.50	
 20.397	145.903	  9.08842	 -0.47890	  9.79350	  7.68894	  1.08255	 -0.58326	 11.34044	705.50500	 23.50	
 20.405	150.835	  9.07436	 -0.69429	 10.11512	  7.13030	  1.48392	 -0.57830	 11.32371	705.55402	 23.50	
 20.401	155.705	  9.07742	 -0.85302	 10.38301	  6.58845	  1.90823	 -0.57889	 11.32879	705.59497	 23.50	
 20.392	160.496	  9.05061	 -0.98691	 10.56663	  6.04155	  2.33339	 -0.57794	 11.30412	705.39801	 23.50	
 20.410	165.423	  9.04604	 -1.10444	 10.75088	  5.46140	  2.82355	 -0.57265	 11.31815	705.40997	 23.50	
 20.407	170.264	  9.03848	 -1.17800	 10.86110	  4.90083	  3.32243	 -0.56296	 11.31958	705.58197	 23.50	
 20.401	175.153	  9.02657	 -1.22264	 10.92560	  4.34164	  3.84064	 -0.56237	 11.32377	705.39001	 23.50	
  0.141	 45.000	 11.33332	  6.28131	  6.06974	  6.05724	  6.31184	  0.08983	 11.32381	705.36700	 23.50	
  4.001	128.691	 11.31231	  5.37738	  6.85116	  6.97969	  5.31614	  0.04704	 11.32911	705.41803	 23.50	
  4.002	 76.995	 11.31868	  6.45356	  5.74017	  7.24619	  5.05528	  0.04212	 11.33134	705.35400	 23.50	
  4.002	 25.892	 11.30624	  7.34700	  4.88886	  6.51021	  5.66453	  0.03478	 11.32836	705.41602	 23.50	
  4.002	-25.892	 11.28769	  7.34645	  4.84878	  5.36470	  6.75598	  0.02440	 11.31298	705.49103	 23.50	
  4.002	-76.995	 11.30333	  6.43416	  5.67338	  4.68757	  7.53344	  0.01419	 11.33074	705.59198	 23.50	
  4.001	-128.691	 11.29856	  5.34667	  6.81463	  4.92358	  7.30153	  0.03237	 11.32605	705.51898	 23.50	
  4.000	180.000	 11.30528	  4.91082	  7.34716	  5.90710	  6.30136	  0.03996	 11.32246	705.50500	 23.50	
  8.000	180.000	 11.07410	  3.39903	  8.51985	  5.62942	  6.05853	 -0.10477	 11.31481	705.52002	 23.50	
  7.991	-152.370	 11.05922	  3.65666	  8.16025	  4.41506	  7.29557	 -0.12404	 11.31889	705.45697	 23.50	
  7.997	-124.550	 11.04832	  4.41767	  7.21015	  3.51341	  8.27544	 -0.13159	 11.31753	705.51599	 23.50	
  8.006	-96.837	 11.04823	  5.55626	  5.95774	  3.11399	  8.71261	 -0.16601	 11.32061	705.45801	 23.50	
  7.988	-69.228	 11.04717	  6.82786	  4.72398	  3.26334	  8.50594	 -0.18958	 11.32152	705.59302	 23.50	
  7.997	-41.563	 11.05333	  7.93816	  3.76394	  3.93479	  7.71502	 -0.15638	 11.32824	705.37500	 23.50	
  8.008	-13.821	 11.05237	  8.57149	  3.26578	  5.03307	  6.51679	 -0.14428	 11.32325	705.57300	 23.50	
  8.008	 13.821	 11.06459	  8.57287	  3.29234	  6.33342	  5.26518	 -0.13011	 11.32841	705.42700	 23.50	
  7.997	 41.563	 11.06911	  7.93382	  3.83592	  7.52029	  4.23618	 -0.11302	 11.32000	705.48901	 23.50	
  7.988	 69.228	 11.07584	  6.83267	  4.83306	  8.30171	  3.63177	 -0.11402	 11.31976	705.48798	 23.50	
  8.006	 96.837	 11.09308	  5.57642	  6.09129	  8.46107	  3.54421	 -0.12140	 11.32273	705.49701	 23.50	
  7.997	124.550	 11.10177	  4.44492	  7.32469	  7.96882	  3.97143	 -0.10938	 11.32838	705.54498	 23.50	
  7.991	152.370	 11.10456	  3.67677	  8.22129	  6.92010	  4.88017	 -0.10689	 11.32945	705.48499	 23.50	
 12.009	161.059	 10.64783	  2.00661	  9.31624	  6.52711	  4.42682	 -0.31275	 11.31536	705.44397	 23.50	
 12.013	142.081	 10.64325	  2.52940	  8.64559	  7.77557	  3.34703	 -0.30385	 11.30647	705.51300	 23.50	
 12.006	123.113	 10.65579	  3.38901	  7.62832	  8.76715	  2.55835	 -0.33900	 11.32218	705.62299	 23.50	
 12.007	104.200	 10.64474	  4.50517	  6.36126	  9.35788	  2.08614	 -0.37560	 11.31919	705.50500	 23.50	
 11.989	 85.301	 10.64181	  5.77610	  5.04110	  9.49167	  1.96361	 -0.34863	 11.32453	705.42401	 23.50	
 12.013	 66.294	 10.62735	  7.08566	  3.79872	  9.14463	  2.17503	 -0.31260	 11.32774	705.44098	 23.50	
 12.012	 47.388	 10.61159	  8.24902	  2.77744	  8.35540	  2.74912	 -0.30313	 11.32563	705.54999	 23.50	
 11.990	 28.440	 10.60644	  9.11419	  2.07046	  7.23613	  3.64765	 -0.34235	 11.33214	705.50598	 23.50	
 11.991	  9.464	 10.57206	  9.56093	  1.68815	  5.92785	  4.76597	 -0.35207	 11.31417	705.43701	 23.50	
 11.991	 -9.464	 10.56215	  9.56784	  1.66150	  4.59866	  6.05024	 -0.33827	 11.31421	705.39600	 23.50	
 11.990	-28.440	 10.55084	  9.10305	  1.98828	  3.39360	  7.34004	 -0.33543	 11.30899	705.40997	 23.50	
 12.012	-47.388	 10.55562	  8.24719	  2.63966	  2.45401	  8.45797	 -0.36686	 11.32013	705.52698	 23.50	
 12.013	-66.294	 10.54817	  7.07254	  3.60787	  1.80532	  9.26063	 -0.39654	 11.30748	705.41602	 23.50	
 11.989	-85.301	 10.58125	  5.78683	  4.83059	  1.53821	  9.65954	 -0.40428	 11.33467	705.51898	 23.50	
 12.007	-104.200	 10.58485	  4.48812	  6.16187	  1.60448	  9.60206	 -0.38784	 11.33809	705.45203	 23.50	
 12.006	-123.113	 10.58256	  3.37978	  7.44414	  2.04467	  9.08057	 -0.33398	 11.32347	705.52002	 23.50	
 12.013	-142.081	 10.59550	  2.53337	  8.53212	  2.83586	  8.17633	 -0.32847	 11.33349	705.46100	 23.50	
 12.009	-161.059	 10.62409	  2.00884	  9.27353	  3.92919	  6.98731	 -0.35615	 11.34624	705.44299	 23.50	
 16.000	180.000	  9.96231	  0.30881	 10.32274	  4.58220	  5.13476	 -0.52597	 11.32059	705.52802	 23.50	
 15.990	-165.604	  9.93620	  0.42626	 10.11439	  3.32234	  6.43830	 -0.55034	 11.33414	705.57800	 23.50	
 16.002	-151.165	  9.89834	  0.79433	  9.52052	  2.19587	  7.68999	 -0.54109	 11.31723	705.55902	 23.50	
 16.002	-136.836	  9.89493	  1.39084	  8.63397	  1.27219	  8.81755	 -0.49388	 11.34081	705.36401	 23.50	
 15.995	-122.439	  9.87554	  2.24376	  7.47172	  0.59662	  9.65587	 -0.48415	 11.31405	705.52698	 23.60	
 15.993	-107.966	  9.88634	  3.30869	  6.18152	  0.16154	 10.23032	 -0.49543	 11.33213	705.49597	 23.50	
 16.005	-93.629	  9.87499	  4.52270	  4.84649	 -0.03114	 10.44969	 -0.45498	 11.33122	705.54700	 23.50	
 15.992	-79.234	  9.85368	  5.82845	  3.55310	  0.05345	 10.30112	 -0.40395	 11.30958	705.46002	 23.50	
 16.009	-64.774	  9.86457	  7.14503	  2.42295	  0.37536	  9.84520	 -0.40034	 11.33124	705.51099	 23.50	
 15.997	-50.364	  9.85418	  8.33193	  1.49692	  0.95483	  9.03116	 -0.40342	 11.32100	705.49103	 23.50	
 15.997	-36.045	  9.86394	  9.31320	  0.80922	  1.75701	  7.99408	 -0.40900	 11.32995	705.48499	 23.50	
 16.000	-21.597	  9.87122	 10.00964	  0.35296	  2.79673	  6.74944	 -0.42004	 11.33217	705.43298	 23.50	
 16.003	 -7.169	  9.86896	 10.35125	  0.13771	  4.01759	  5.42705	 -0.41921	 11.31606	705.48499	 23.50	
 16.003	  7.169	  9.87130	 10.34338	  0.15911	  5.33068	  4.14818	 -0.42660	 11.31063	705.67200	 23.50	
 16.000	 21.597	  9.88746	  9.99149	  0.41526	  6.66483	  2.99338	 -0.44035	 11.30704	705.46899	 23.50	
 15.997	 36.045	  9.92610	  9.32278	  0.91961	  7.93382	  2.02044	 -0.45545	 11.33311	705.54199	 23.50	
 15.997	 50.364	  9.92747	  8.32074	  1.67271	  8.98350	  1.25858	 -0.45422	 11.31491	705.48297	 23.50	
 16.009	 64.774	  9.93357	  7.13732	  2.62983	  9.76227	  0.72922	 -0.47396	 11.31608	705.45697	 23.50	
 15.992	 79.234	  9.95741	  5.84081	  3.81451	 10.21393	  0.46277	 -0.50446	 11.31921	705.48199	 23.50	
 16.005	 93.629	  9.96135	  4.53863	  5.10905	 10.29423	  0.42799	 -0.51924	 11.31259	705.41199	 23.50	
 15.993	107.966	  9.98031	  3.33302	  6.43971	 10.01300	  0.65846	 -0.52704	 11.31481	705.45502	 23.50	
 15.995	122.439	 10.00688	  2.26582	  7.73650	  9.37660	  1.13771	 -0.52343	 11.32358	705.44897	 23.50	
 16.002	136.836	 10.02420	  1.41848	  8.84427	  8.44316	  1.83637	 -0.49335	 11.33769	705.40997	 23.50	
 16.002	151.165	 10.01868	  0.81036	  9.67221	  7.25453	  2.76310	 -0.50286	 11.32676	705.48798	 23.50	
 15.990	165.604	  9.99731	  0.43880	 10.17099	  5.92424	  3.89045	 -0.52060	 11.32147	705.50598	 23.50	
 20.003	168.362	  9.13811	 -1.00736	 10.77466	  5.17546	  3.22291	 -0.58290	 11.31272	705.36499	 23.50	
 20.008	156.764	  9.15278	 -0.75541	 10.38538	  6.48900	  2.10703	 -0.58454	 11.30994	705.46600	 23.50	
 20.000	145.147	  9.16962	 -0.31511	  9.71516	  7.74931	  1.15520	 -0.57784	 11.32012	705.57300	 23.50	
 19.995	133.545	  9.17368	  0.30895	  8.78316	  8.87684	  0.36814	 -0.55022	 11.33021	705.61700	 23.50	
 20.009	121.926	  9.13299	  1.10678	  7.62702	  9.78094	 -0.25613	 -0.49866	 11.31168	705.44299	 23.50	
 20.005	110.327	  9.14301	  2.09628	  6.38459	 10.43597	 -0.66576	 -0.44647	 11.32083	705.50800	 23.50	
 19.989	 98.733	  9.11966	  3.21970	  5.06981	 10.78173	 -0.90551	 -0.43549	 11.30497	705.42700	 23.50	
 19.999	 87.075	  9.10993	  4.46066	  3.76901	 10.87290	 -0.99196	 -0.46300	 11.31561	705.58197	 23.50	
 19.992	 75.457	  9.09447	  5.74614	  2.55735	 10.66242	 -0.88482	 -0.51256	 11.31060	705.53601	 23.50	
 20.009	 63.844	  9.08779	  7.03425	  1.46071	 10.19981	 -0.63069	 -0.51996	 11.33860	705.49902	 23.50	
 19.989	 52.269	  9.05303	  8.20342	  0.54634	  9.40485	 -0.16719	 -0.49482	 11.30383	705.51599	 23.50	
 19.999	 40.602	  9.05456	  9.26189	 -0.17274	  8.40673	  0.49225	 -0.44376	 11.32455	705.56097	 23.50	
 20.004	 29.051	  9.03764	 10.07945	 -0.71842	  7.22364	  1.31699	 -0.37652	 11.32383	705.59198	 23.50	
 20.005	 17.433	  9.01612	 10.63394	 -1.07983	  5.92860	  2.30524	 -0.34905	 11.32461	705.54199	 23.50	
 20.006	  5.780	  9.00924	 10.92304	 -1.26225	  4.61991	  3.43592	 -0.35102	 11.33964	705.47998	 23.50	
 20.006	 -5.780	  8.97717	 10.90893	 -1.28200	  3.32906	  4.65908	 -0.35727	 11.32010	705.42700	 23.50	
 20.005	-17.433	  8.97462	 10.63902	 -1.14430	  2.13458	  5.96271	 -0.36430	 11.32585	705.44702	 23.50	
 20.004	-29.051	  8.95279	 10.07430	 -0.83140	  1.07448	  7.21547	 -0.36248	 11.30886	705.32300	 23.50	
 19.999	-40.602	  8.96422	  9.27959	 -0.34266	  0.23030	  8.37716	 -0.34820	 11.31903	705.43201	 23.50	
 19.989	-52.269	  8.97155	  8.24408	  0.33412	 -0.47244	  9.41004	 -0.32798	 11.33356	705.45801	 23.50	
 20.009	-63.844	  8.96476	  7.04358	  1.19342	 -0.96579	 10.17786	 -0.31649	 11.31984	705.50598	 23.50	
 19.992	-75.457	  8.97661	  5.76528	  2.24798	 -1.28113	 10.69690	 -0.30844	 11.31823	705.53900	 23.50	
 19.999	-87.075	  8.98432	  4.47119	  3.43044	 -1.42815	 10.94252	 -0.35519	 11.32494	705.57501	 23.50	
 19.989	-98.733	  8.99208	  3.21944	  4.72853	 -1.39019	 10.91728	 -0.39514	 11.32486	705.47198	 23.50	
 20.005	-110.327	  8.97487	  2.07701	  6.03252	 -1.18725	 10.61341	 -0.45600	 11.30002	705.42401	 23.50	
 20.009	-121.926	  8.97602	  1.08798	  7.31818	 -0.79874	 10.04849	 -0.51673	 11.30821	705.44397	 23.50	
 19.995	-133.545	  8.99222	  0.28132	  8.49847	 -0.21492	  9.22909	 -0.54899	 11.32130	705.44299	 23.50	
 20.000	-145.147	  9.01585	 -0.33556	  9.50086	  0.56114	  8.19027	 -0.55237	 11.33176	705.46600	 23.50	
 20.008	-156.764	  9.03376	 -0.76974	 10.24969	  1.51148	  6.99431	 -0.52365	 11.32826	705.37903	 23.50	
 20.003	-168.362	  9.06300	 -1.01471	 10.70834	  2.63402	  5.72049	 -0.52436	 11.32042	705.40399	 23.50	
 20.000	180.000	  9.11083	 -1.09722	 10.89684	  3.86698	  4.44877	 -0.56375	 11.33091	705.47198	 23.50	
