FileType=PCF
NHL=14
Date=08/28/17	09:28:17
Facility=APL
Serial=16328-10
Customer=NASA
NP=6
Mach=0.200000
Calibration=1:1
CalPts=490
TstPts=95
PortNumbering=AP Standard
Units=Torr C m/s kg/m^3 deg mm 
Theta[deg]	Phi[deg]	P1[Torr]	P2[Torr]	P3[Torr]	P4[Torr]	P5[Torr]	P6[Torr]	Pt[Torr]	Ps[Abs,Torr]	Ts[C]	
  0.000	  0.000	 19.77608	 10.83411	 10.77405	 10.63766	 11.07277	  0.15932	 19.74830	709.06299	 23.30	
  1.691	128.401	 19.74818	 10.22655	 11.35214	 11.38055	 10.27885	  0.15393	 19.72470	709.05103	 23.30	
  1.692	 77.194	 19.75204	 11.03545	 10.52862	 11.58040	 10.09142	  0.15170	 19.72016	709.12701	 23.30	
  1.699	 26.182	 19.76712	 11.70589	  9.90443	 11.06673	 10.59819	  0.15170	 19.73693	709.05103	 23.30	
  1.699	-26.182	 19.76709	 11.69872	  9.90734	 10.18235	 11.47480	  0.13922	 19.74143	709.04797	 23.30	
  1.692	-77.194	 19.76705	 11.01671	 10.53098	  9.67783	 11.99531	  0.13565	 19.73922	709.02002	 23.30	
  1.691	-128.401	 19.75942	 10.20767	 11.34779	  9.83853	 11.80949	  0.14228	 19.73685	709.12701	 23.30	
  1.700	180.000	 19.76007	  9.86774	 11.73671	 10.59881	 11.05132	  0.14737	 19.73642	709.08801	 23.30	
  3.400	180.000	 19.74703	  8.88353	 12.66632	 10.52972	 10.98436	  0.10982	 19.75426	709.04901	 23.30	
  3.388	-152.325	 19.72619	  9.07293	 12.42043	  9.63258	 11.86341	  0.10318	 19.73844	709.03998	 23.30	
  3.397	-124.529	 19.73717	  9.63854	 11.78576	  8.99358	 12.58104	  0.09128	 19.75820	709.06598	 23.30	
  3.399	-96.763	 19.74549	 10.47263	 10.88656	  8.71575	 12.91057	  0.06654	 19.76221	709.11798	 23.30	
  3.394	-69.283	 19.73222	 11.39942	  9.98720	  8.79625	 12.80167	  0.07883	 19.74443	709.28699	 23.30	
  3.400	-41.398	 19.72153	 12.19609	  9.26569	  9.28018	 12.23786	  0.08922	 19.73693	709.21100	 23.30	
  3.401	-14.021	 19.74203	 12.66968	  8.88800	 10.07078	 11.44042	  0.10103	 19.74579	709.13202	 23.30	
  3.401	 14.021	 19.73623	 12.68492	  8.89115	 11.02478	 10.48220	  0.10831	 19.73859	709.06299	 23.30	
  3.400	 41.398	 19.71623	 12.23576	  9.27832	 11.84971	  9.67801	  0.11748	 19.72322	709.06299	 23.30	
  3.394	 69.283	 19.74181	 11.46431	 10.02025	 12.41204	  9.19316	  0.11873	 19.74612	709.11102	 23.30	
  3.399	 96.763	 19.75109	 10.55477	 10.90244	 12.52858	  9.10152	  0.11707	 19.74932	709.04602	 23.30	
  3.397	124.529	 19.72093	  9.69375	 11.78229	 12.16511	  9.39118	  0.11797	 19.71814	709.15198	 23.30	
  3.388	152.325	 19.74933	  9.11404	 12.43399	 11.45715	 10.08371	  0.11281	 19.75110	708.99402	 23.30	
  5.099	161.165	 19.63902	  7.98588	 13.37021	 11.35345	  9.87715	  0.02371	 19.72746	709.03497	 23.30	
  5.109	142.013	 19.65505	  8.43093	 12.90186	 12.24876	  9.08307	  0.02159	 19.74253	709.09399	 23.30	
  5.095	123.033	 19.64631	  9.11238	 12.15094	 12.90830	  8.52672	  0.02002	 19.72732	709.07300	 23.30	
  5.105	104.191	 19.64720	  9.94816	 11.24494	 13.33718	  8.15803	  0.01935	 19.72568	709.02600	 23.30	
  5.093	 85.207	 19.65392	 10.88335	 10.29989	 13.40640	  8.09131	  0.02388	 19.73237	709.12701	 23.30	
  5.104	 66.290	 19.65908	 11.83769	  9.41633	 13.18239	  8.30047	  0.04012	 19.74670	709.17200	 23.30	
  5.094	 47.331	 19.61965	 12.64831	  8.64677	 12.58864	  8.74681	  0.02905	 19.70934	709.10999	 23.30	
  5.089	 28.397	 19.65687	 13.27666	  8.13030	 11.82323	  9.46134	  0.02251	 19.75266	709.04797	 23.30	
  5.096	  9.576	 19.62271	 13.57836	  7.81697	 10.89398	 10.31467	  0.01076	 19.72472	707.59399	 23.30	
  5.096	 -9.576	 19.62428	 13.55877	  7.80675	  9.88738	 11.30859	 -0.00132	 19.72909	708.60901	 23.30	
  5.089	-28.397	 19.64758	 13.22748	  8.08680	  9.03610	 12.21865	 -0.01753	 19.75676	708.24597	 23.30	
  5.094	-47.331	 19.63316	 12.58529	  8.61092	  8.32446	 13.00419	 -0.03565	 19.74302	709.13501	 23.30	
  5.104	-66.290	 19.59128	 11.71381	  9.35038	  7.80815	 13.55508	 -0.03146	 19.71882	709.08502	 23.30	
  5.093	-85.207	 19.60751	 10.76027	 10.23440	  7.60959	 13.81136	 -0.03267	 19.73341	709.20801	 23.30	
  5.105	-104.191	 19.61179	  9.80900	 11.21291	  7.67255	 13.73441	 -0.02688	 19.74188	709.10400	 23.30	
  5.095	-123.033	 19.61305	  9.00075	 12.11878	  8.04241	 13.32697	 -0.00336	 19.73266	709.11603	 23.30	
  5.109	-142.013	 19.61194	  8.32858	 12.87892	  8.63856	 12.62511	  0.01885	 19.71998	709.10101	 23.30	
  5.099	-161.165	 19.64180	  7.93004	 13.37478	  9.44769	 11.76631	  0.01715	 19.73795	709.16602	 23.30	
  5.100	180.000	 19.64494	  7.80840	 13.53736	 10.36381	 10.83075	  0.02336	 19.73279	708.95898	 23.30	
  6.800	180.000	 19.45725	  6.77254	 14.41104	 10.13777	 10.58509	 -0.09783	 19.71546	709.10999	 23.30	
  6.796	-166.229	 19.47480	  6.85898	 14.29650	  9.23904	 11.53082	 -0.08030	 19.74563	709.13599	 23.30	
  6.808	-152.311	 19.46167	  7.11293	 13.93120	  8.40498	 12.44094	 -0.08569	 19.74630	708.99500	 23.30	
  6.795	-138.383	 19.44024	  7.54450	 13.33307	  7.67832	 13.26588	 -0.10723	 19.73611	709.00702	 23.30	
  6.792	-124.591	 19.44646	  8.15520	 12.58239	  7.10572	 13.94458	 -0.12226	 19.74622	709.08002	 23.30	
  6.787	-110.754	 19.42467	  8.94669	 11.69653	  6.70436	 14.39484	 -0.14259	 19.73056	709.07001	 23.30	
  6.800	-96.985	 19.42114	  9.81513	 10.75014	  6.49513	 14.62998	 -0.17231	 19.72925	709.05603	 23.30	
  6.800	-83.015	 19.42103	 10.76794	  9.79870	  6.48780	 14.63279	 -0.19270	 19.72402	709.06500	 23.30	
  6.787	-69.246	 19.46396	 11.73523	  8.95561	  6.70349	 14.42670	 -0.19062	 19.77217	709.26001	 23.30	
  6.792	-55.409	 19.45673	 12.61522	  8.15286	  7.09469	 13.95563	 -0.18622	 19.75275	709.13501	 23.30	
  6.795	-41.617	 19.47030	 13.38916	  7.48705	  7.68062	 13.29628	 -0.16553	 19.76208	709.17200	 23.30	
  6.808	-27.689	 19.47154	 13.99535	  6.99581	  8.41041	 12.47055	 -0.14993	 19.75804	709.16101	 23.30	
  6.796	-13.771	 19.43176	 14.37229	  6.72615	  9.23096	 11.53136	 -0.13120	 19.71062	709.01099	 23.30	
  6.800	  0.000	 19.48107	 14.56984	  6.65227	 10.17904	 10.61763	 -0.11298	 19.76520	709.35199	 23.30	
  6.796	 13.771	 19.47408	 14.42579	  6.74673	 11.14174	  9.67979	 -0.10245	 19.74454	709.18402	 23.30	
  6.808	 27.689	 19.49312	 14.06992	  7.04084	 12.08297	  8.84040	 -0.08871	 19.77040	709.02802	 23.30	
  6.795	 41.617	 19.48156	 13.48720	  7.53761	 12.88933	  8.14225	 -0.08282	 19.74850	709.09003	 23.30	
  6.792	 55.409	 19.47009	 12.73150	  8.20108	 13.55679	  7.58070	 -0.07503	 19.73194	707.58197	 23.30	
  6.787	 69.246	 19.48686	 11.87719	  9.00090	 14.04526	  7.20348	 -0.07932	 19.74013	709.01099	 23.30	
  6.800	 83.015	 19.51542	 10.95038	  9.87591	 14.30460	  7.00745	 -0.09986	 19.76053	709.11798	 23.30	
  6.800	 96.985	 19.50082	  9.99864	 10.80014	 14.28578	  7.01308	 -0.11009	 19.73992	709.12701	 23.30	
  6.787	110.754	 19.50354	  9.12558	 11.74024	 14.03441	  7.22608	 -0.10401	 19.74196	709.19501	 23.30	
  6.792	124.591	 19.47976	  8.30465	 12.60214	 13.54346	  7.60829	 -0.10147	 19.71441	709.18903	 23.30	
  6.795	138.383	 19.52734	  7.64730	 13.37773	 12.89912	  8.18502	 -0.10392	 19.76907	708.99799	 23.30	
  6.808	152.311	 19.51581	  7.18843	 13.95798	 12.06874	  8.86361	 -0.08522	 19.76097	709.14899	 23.30	
  6.796	166.229	 19.51233	  6.90653	 14.31734	 11.13929	  9.68187	 -0.08557	 19.76203	709.12701	 23.30	
  8.491	168.704	 19.24059	  5.75994	 15.16674	 10.88746	  9.36995	 -0.23507	 19.72625	709.13599	 23.30	
  8.502	157.493	 19.25011	  6.00578	 14.86169	 11.84570	  8.52452	 -0.22207	 19.73524	709.06299	 23.20	
  8.494	146.194	 19.28821	  6.42713	 14.36947	 12.76567	  7.77437	 -0.24153	 19.75598	709.12799	 23.30	
  8.495	135.039	 19.27182	  6.95914	 13.70498	 13.56473	  7.09613	 -0.24878	 19.73787	709.12402	 23.20	
  8.487	123.723	 19.28650	  7.61674	 12.90318	 14.24311	  6.56073	 -0.25120	 19.75290	709.20001	 23.20	
  8.492	112.575	 19.25954	  8.40464	 12.00465	 14.71140	  6.15900	 -0.25908	 19.71929	709.19202	 23.20	
  8.510	101.220	 19.27193	  9.31405	 11.05095	 15.03699	  5.89856	 -0.27078	 19.74003	709.05402	 23.20	
  8.500	 90.000	 19.24875	 10.22552	 10.08358	 15.11346	  5.81176	 -0.25735	 19.72376	709.12097	 23.20	
  8.510	 78.780	 19.24109	 11.19204	  9.15138	 15.02234	  5.88502	 -0.22682	 19.72393	709.20801	 23.20	
  8.492	 67.425	 19.22764	 12.14523	  8.26503	 14.70204	  6.14258	 -0.20633	 19.71669	709.21100	 23.20	
  8.487	 56.277	 19.24582	 13.03896	  7.45234	 14.23914	  6.52899	 -0.20342	 19.74697	709.20300	 23.20	
  8.495	 44.961	 19.21434	 13.81991	  6.78132	 13.56419	  7.05680	 -0.22265	 19.73309	707.63300	 23.20	
  8.494	 33.806	 19.18170	 14.43666	  6.24671	 12.73883	  7.72239	 -0.21926	 19.69719	709.19702	 23.20	
  8.502	 22.507	 19.20175	 14.96867	  5.86678	 11.85308	  8.50509	 -0.23337	 19.72501	709.14600	 23.20	
  8.491	 11.296	 19.20238	 15.26154	  5.62895	 10.90549	  9.38225	 -0.25592	 19.72923	709.18103	 23.20	
  8.500	  0.000	 19.21645	 15.39135	  5.53848	  9.91607	 10.34761	 -0.26177	 19.75176	707.66901	 23.20	
  8.491	-11.296	 19.18787	 15.24142	  5.60517	  8.94184	 11.30371	 -0.26566	 19.72195	709.18701	 23.20	
  8.502	-22.507	 19.20063	 14.91425	  5.86750	  8.07964	 12.24591	 -0.28362	 19.73392	709.28998	 23.20	
  8.494	-33.806	 19.21056	 14.36682	  6.24249	  7.26833	 13.16916	 -0.30661	 19.75047	709.21802	 23.20	
  8.495	-44.961	 19.21870	 13.70630	  6.75187	  6.57273	 13.96936	 -0.33229	 19.76223	709.23700	 23.20	
  8.487	-56.277	 19.20677	 12.87767	  7.37834	  6.02830	 14.59445	 -0.34978	 19.74928	709.30499	 23.20	
  8.492	-67.425	 19.19480	 11.97939	  8.19261	  5.60959	 15.05908	 -0.36898	 19.73486	709.16699	 23.20	
  8.510	-78.780	 19.19549	 11.01588	  9.08777	  5.33908	 15.37471	 -0.37974	 19.74901	709.13800	 23.20	
  8.500	-90.000	 19.18306	 10.03339	 10.02168	  5.25867	 15.45757	 -0.36783	 19.73591	709.06500	 23.20	
  8.510	-101.220	 19.15810	  9.08260	 10.98050	  5.31745	 15.35259	 -0.32378	 19.71157	709.19202	 23.20	
  8.492	-112.575	 19.17124	  8.17876	 11.95098	  5.61301	 15.05179	 -0.28252	 19.72589	709.09399	 23.20	
  8.487	-123.723	 19.21934	  7.42340	 12.86243	  6.03856	 14.60371	 -0.26801	 19.76970	709.15302	 23.20	
  8.495	-135.039	 19.22747	  6.83654	 13.67000	  6.58186	 13.95868	 -0.25913	 19.77216	707.78699	 23.20	
  8.494	-146.194	 19.21475	  6.31602	 14.31650	  7.27494	 13.15091	 -0.23660	 19.74149	709.23700	 23.20	
  8.502	-157.493	 19.19185	  5.93658	 14.81210	  8.06998	 12.21668	 -0.22043	 19.71194	707.51099	 23.20	
  8.491	-168.704	 19.24024	  5.74703	 15.15449	  8.94921	 11.29315	 -0.23809	 19.74377	709.15302	 23.20	
  8.500	180.000	 19.22239	  5.64355	 15.25607	  9.88037	 10.32199	 -0.25093	 19.71545	709.08002	 23.20	
 10.200	180.000	 18.91519	  4.49672	 15.97369	  9.58181	 10.01450	 -0.42484	 19.71574	708.01599	 23.20	
 10.191	-170.497	 18.93805	  4.55280	 15.92286	  8.64157	 11.00549	 -0.42223	 19.75324	709.09601	 23.20	
 10.210	-161.034	 18.90138	  4.73410	 15.64027	  7.72175	 11.94814	 -0.38957	 19.72751	709.09601	 23.20	
 10.194	-151.526	 18.89575	  5.05468	 15.20010	  6.85950	 12.90152	 -0.37959	 19.73479	708.78302	 23.20	
 10.190	-142.105	 18.89500	  5.50271	 14.62321	  6.08500	 13.77005	 -0.39023	 19.74353	708.45099	 23.20	
 10.215	-132.646	 18.88240	  6.04786	 13.91699	  5.40887	 14.53765	 -0.41709	 19.75438	709.11603	 23.20	
 10.203	-123.092	 18.87299	  6.72021	 13.06989	  4.87627	 15.17761	 -0.42365	 19.74246	709.01099	 23.20	
 10.192	-113.678	 18.84722	  7.40411	 12.15058	  4.48056	 15.66260	 -0.43744	 19.71903	709.05902	 23.20	
 10.208	-104.249	 18.85518	  8.26397	 11.20131	  4.20880	 16.02202	 -0.48219	 19.73757	709.08197	 23.20	
 10.210	-94.801	 18.83912	  9.20301	 10.20754	  4.05479	 16.18701	 -0.53308	 19.72545	709.01801	 23.20	
 10.210	-85.199	 18.85245	 10.20531	  9.21932	  4.05923	 16.19409	 -0.57167	 19.74279	709.08698	 23.20	
 10.208	-75.751	 18.86192	 11.19441	  8.28060	  4.19599	 16.03198	 -0.57552	 19.74118	709.03101	 23.20	
 10.192	-66.322	 18.85977	 12.15685	  7.39184	  4.50209	 15.68492	 -0.55099	 19.74090	709.13599	 23.20	
 10.203	-56.908	 18.85114	 13.06508	  6.64948	  4.89209	 15.18494	 -0.51918	 19.71961	709.09302	 23.20	
 10.215	-47.354	 18.88366	 13.93373	  5.99600	  5.42148	 14.56771	 -0.48922	 19.75140	709.07898	 23.20	
 10.190	-37.895	 18.88505	 14.65661	  5.43858	  6.08290	 13.80120	 -0.47142	 19.74693	709.16901	 23.20	
 10.194	-28.474	 18.85906	 15.25379	  5.00212	  6.85055	 12.91690	 -0.45328	 19.72064	709.12402	 23.20	
 10.210	-18.966	 18.89236	 15.72685	  4.69490	  7.72235	 11.99337	 -0.42502	 19.75218	709.16602	 23.20	
 10.191	 -9.503	 18.88565	 15.98615	  4.48979	  8.63482	 11.02177	 -0.41817	 19.73537	708.90698	 23.20	
 10.200	  0.000	 18.90380	 16.11312	  4.43151	  9.60940	 10.04750	 -0.42284	 19.75816	709.14600	 23.20	
 10.191	  9.503	 18.86825	 16.00665	  4.48074	 10.59921	  9.06014	 -0.41528	 19.72433	709.04199	 23.20	
 10.210	 18.966	 18.87588	 15.78830	  4.66642	 11.58333	  8.15822	 -0.40557	 19.73073	709.15997	 23.20	
 10.194	 28.474	 18.89886	 15.39553	  5.00274	 12.53464	  7.33452	 -0.37920	 19.75268	709.12097	 23.20	
 10.190	 37.895	 18.88492	 14.80079	  5.45637	 13.40058	  6.57693	 -0.37463	 19.72561	708.70300	 23.20	
 10.215	 47.354	 18.88443	 14.08434	  6.02607	 14.18190	  5.91642	 -0.36413	 19.72090	707.59698	 23.20	
 10.203	 56.908	 18.93554	 13.29098	  6.72681	 14.85577	  5.41566	 -0.34672	 19.75606	709.18103	 23.20	
 10.192	 66.322	 18.94932	 12.39346	  7.46417	 15.35985	  5.04313	 -0.34577	 19.75426	709.21399	 23.20	
 10.208	 75.751	 18.93922	 11.42752	  8.35695	 15.70547	  4.74526	 -0.37544	 19.73797	709.12500	 23.20	
 10.210	 85.199	 18.94582	 10.44930	  9.29403	 15.88507	  4.60575	 -0.42581	 19.73183	709.15997	 23.20	
 10.210	 94.801	 18.94583	  9.44878	 10.26900	 15.86706	  4.61858	 -0.45523	 19.72192	709.27698	 23.20	
 10.208	104.249	 18.97429	  8.51033	 11.26946	 15.70734	  4.76429	 -0.45836	 19.74444	709.27600	 23.20	
 10.192	113.678	 18.97923	  7.66511	 12.22546	 15.35333	  5.04540	 -0.44325	 19.73272	709.23102	 23.20	
 10.203	123.092	 18.97329	  6.91092	 13.12340	 14.85391	  5.41868	 -0.42482	 19.73441	709.12799	 23.20	
 10.215	132.646	 19.00274	  6.21008	 13.97927	 14.23242	  5.93429	 -0.41738	 19.77329	709.17200	 23.20	
 10.190	142.105	 18.96434	  5.62257	 14.65901	 13.41291	  6.60499	 -0.41141	 19.73370	709.09601	 23.20	
 10.194	151.526	 18.94249	  5.18049	 15.23595	 12.51601	  7.35794	 -0.39511	 19.71995	709.13800	 23.20	
 10.210	161.034	 18.95390	  4.82600	 15.67530	 11.58482	  8.17541	 -0.38868	 19.74059	709.16901	 23.20	
 10.191	170.497	 18.93140	  4.61181	 15.90261	 10.59051	  9.04655	 -0.41040	 19.72199	709.21198	 23.20	
 11.899	171.783	 18.57730	  3.44211	 16.60895	 10.26033	  8.70040	 -0.58220	 19.73882	709.03998	 23.20	
 11.890	163.610	 18.59094	  3.64192	 16.40110	 11.25650	  7.80551	 -0.55046	 19.74028	709.08502	 23.20	
 11.889	155.445	 18.60836	  3.94037	 16.04457	 12.23056	  6.95175	 -0.54228	 19.75345	709.03900	 23.20	
 11.909	147.299	 18.57708	  4.29502	 15.52123	 13.14474	  6.11542	 -0.55964	 19.72625	709.06500	 23.10	
 11.902	139.148	 18.59980	  4.80797	 14.89108	 14.00031	  5.42397	 -0.57089	 19.73238	707.65002	 23.10	
 11.894	130.867	 18.58873	  5.42965	 14.12332	 14.73759	  4.82134	 -0.57357	 19.70989	707.32098	 23.10	
 11.897	122.732	 18.62412	  6.14215	 13.31382	 15.41577	  4.33456	 -0.59021	 19.74228	708.71600	 23.10	
 11.903	114.597	 18.58819	  6.87790	 12.38428	 15.91073	  3.94341	 -0.61902	 19.71696	708.96100	 23.20	
 11.893	106.346	 18.60233	  7.70425	 11.41754	 16.30029	  3.68506	 -0.63635	 19.74266	709.01801	 23.10	
 11.892	 98.155	 18.61844	  8.65199	 10.44177	 16.54318	  3.51703	 -0.64370	 19.75642	708.93298	 23.10	
 11.900	 90.000	 18.58809	  9.60741	  9.44099	 16.60469	  3.44211	 -0.62331	 19.73923	708.97198	 23.10	
 11.892	 81.845	 18.57862	 10.60643	  8.48187	 16.52761	  3.50567	 -0.58139	 19.74212	709.02502	 23.10	
 11.893	 73.654	 18.56017	 11.58088	  7.53841	 16.28096	  3.69063	 -0.52374	 19.72669	708.86798	 23.10	
 11.903	 65.403	 18.55124	 12.55739	  6.68415	 15.90975	  3.95706	 -0.48368	 19.74232	707.39301	 23.10	
 11.897	 57.268	 18.53730	 13.46021	  5.97532	 15.38847	  4.34585	 -0.48279	 19.73462	709.06598	 23.10	
 11.894	 49.133	 18.52648	 14.29165	  5.27105	 14.74282	  4.84998	 -0.49308	 19.74194	709.15002	 23.10	
 11.902	 40.852	 18.52555	 15.04722	  4.62753	 14.00083	  5.44523	 -0.52239	 19.75206	708.96899	 23.10	
 11.909	 32.701	 18.51254	 15.68043	  4.13675	 13.14508	  6.14040	 -0.53579	 19.75253	709.11798	 23.10	
 11.889	 24.555	 18.48403	 16.13154	  3.76852	 12.20294	  6.94212	 -0.55629	 19.72351	707.77002	 23.10	
 11.890	 16.390	 18.46836	 16.46213	  3.51325	 11.23978	  7.78718	 -0.56894	 19.70597	707.57898	 23.10	
 11.899	  8.217	 18.50910	 16.70596	  3.36609	 10.28092	  8.72095	 -0.58584	 19.75825	709.24902	 23.10	
 11.900	  0.000	 18.48665	 16.74792	  3.31373	  9.25381	  9.68266	 -0.56952	 19.72350	707.60400	 23.10	
 11.899	 -8.217	 18.50396	 16.66617	  3.32983	  8.28175	 10.67410	 -0.56998	 19.74447	709.12799	 23.10	
 11.890	-16.390	 18.50416	 16.42984	  3.53869	  7.35704	 11.64491	 -0.57258	 19.75050	709.03900	 23.10	
 11.889	-24.555	 18.51061	 16.05458	  3.79302	  6.46588	 12.61234	 -0.59068	 19.76321	709.20398	 23.10	
 11.909	-32.701	 18.48972	 15.53601	  4.13677	  5.64431	 13.50403	 -0.59533	 19.74164	709.08197	 23.10	
 11.902	-40.852	 18.48800	 14.85743	  4.62194	  4.93332	 14.33528	 -0.61180	 19.73518	708.13098	 23.10	
 11.894	-49.133	 18.50620	 14.09789	  5.22737	  4.31494	 15.10558	 -0.63768	 19.75669	709.06201	 23.10	
 11.897	-57.268	 18.50149	 13.24195	  5.90094	  3.81837	 15.73828	 -0.66184	 19.75514	707.66901	 23.10	
 11.903	-65.403	 18.51207	 12.32657	  6.59406	  3.42652	 16.25662	 -0.70694	 19.77482	709.10498	 23.10	
 11.893	-73.654	 18.45236	 11.31282	  7.45403	  3.16067	 16.55375	 -0.72414	 19.70478	709.04797	 23.10	
 11.892	-81.845	 18.46865	 10.33695	  8.38585	  2.97891	 16.79288	 -0.72120	 19.72947	707.39301	 23.10	
 11.900	-90.000	 18.45073	  9.33292	  9.35114	  2.92302	 16.85501	 -0.70503	 19.72062	709.04901	 23.10	
 11.892	-98.155	 18.48699	  8.38902	 10.35957	  2.98721	 16.81621	 -0.67633	 19.75530	707.52600	 23.10	
 11.893	-106.346	 18.47188	  7.51038	 11.33938	  3.12482	 16.58960	 -0.61670	 19.74739	709.01703	 23.10	
 11.903	-114.597	 18.48002	  6.70911	 12.31298	  3.38920	 16.23476	 -0.57776	 19.75648	708.99500	 23.10	
 11.897	-122.732	 18.49128	  5.94702	 13.23304	  3.77946	 15.72133	 -0.55474	 19.75049	708.99799	 23.10	
 11.894	-130.867	 18.50965	  5.27311	 14.08385	  4.29403	 15.08786	 -0.53954	 19.75712	709.02600	 23.10	
 11.902	-139.148	 18.49108	  4.67720	 14.82835	  4.91628	 14.30864	 -0.53998	 19.73345	708.85999	 23.10	
 11.909	-147.299	 18.51502	  4.19561	 15.47355	  5.63023	 13.49281	 -0.53921	 19.74147	709.09003	 23.10	
 11.889	-155.445	 18.53977	  3.83254	 15.98353	  6.45483	 12.59379	 -0.54006	 19.74380	709.00598	 23.10	
 11.890	-163.610	 18.55669	  3.55437	 16.36660	  7.35727	 11.63293	 -0.56992	 19.74522	708.95300	 23.10	
 11.899	-171.783	 18.56310	  3.39279	 16.60699	  8.27972	 10.66059	 -0.59290	 19.74482	708.87598	 23.10	
 11.900	180.000	 18.57478	  3.35789	 16.68850	  9.25238	  9.67784	 -0.59951	 19.74666	708.94501	 23.10	
 13.600	180.000	 18.15826	  2.20929	 17.32758	  8.86604	  9.28658	 -0.77075	 19.76104	708.59198	 23.10	
 13.608	-172.853	 18.12456	  2.20966	 17.24092	  7.89125	 10.23982	 -0.76534	 19.74973	707.77399	 23.10	
 13.611	-165.583	 18.10689	  2.34415	 17.03639	  6.93762	 11.22768	 -0.75089	 19.74433	708.63800	 23.10	
 13.601	-158.353	 18.12474	  2.59240	 16.72292	  6.03623	 12.22760	 -0.72942	 19.77498	709.01099	 23.10	
 13.609	-151.210	 18.07701	  2.89629	 16.24160	  5.19664	 13.12677	 -0.70311	 19.74449	709.12097	 23.10	
 13.611	-143.999	 18.06999	  3.33042	 15.66757	  4.44559	 14.01071	 -0.69650	 19.74433	709.08002	 23.10	
 13.601	-136.825	 18.06875	  3.84532	 14.98079	  3.77676	 14.83338	 -0.67962	 19.75884	709.08698	 23.10	
 13.596	-129.640	 18.05833	  4.44628	 14.19491	  3.18466	 15.55469	 -0.66968	 19.75392	707.44098	 23.10	
 13.611	-122.431	 18.01981	  5.10817	 13.31876	  2.69627	 16.16454	 -0.67192	 19.72811	707.81000	 23.10	
 13.604	-115.211	 18.02494	  5.87848	 12.40456	  2.33050	 16.67854	 -0.69034	 19.74471	708.99402	 23.10	
 13.595	-108.042	 17.99686	  6.68317	 11.42600	  2.06197	 17.04582	 -0.72978	 19.71727	709.11902	 23.10	
 13.607	-100.793	 18.01230	  7.50330	 10.44190	  1.88453	 17.33278	 -0.77006	 19.74197	709.17499	 23.10	
 13.601	-93.617	 18.03112	  8.42612	  9.46284	  1.80702	 17.47779	 -0.80145	 19.75348	709.31799	 23.10	
 13.601	-86.383	 18.04429	  9.42969	  8.48003	  1.80968	 17.48923	 -0.80330	 19.76828	709.18103	 23.10	
 13.607	-79.207	 18.00005	 10.39013	  7.51267	  1.89251	 17.32717	 -0.79556	 19.71535	709.08698	 23.10	
 13.595	-71.958	 18.03910	 11.40889	  6.60974	  2.07475	 17.10033	 -0.80415	 19.74573	709.20599	 23.10	
 13.604	-64.789	 18.03097	 12.37439	  5.81120	  2.34211	 16.71360	 -0.79731	 19.74142	708.64899	 23.10	
 13.611	-57.569	 18.02551	 13.30382	  5.04305	  2.71682	 16.19984	 -0.76568	 19.73598	707.42798	 23.10	
 13.596	-50.360	 18.04137	 14.18037	  4.36469	  3.20063	 15.58587	 -0.73491	 19.74789	709.13300	 23.10	
 13.601	-43.175	 18.05539	 14.98866	  3.80442	  3.77773	 14.86700	 -0.71407	 19.75696	709.09698	 23.10	
 13.611	-36.001	 18.05567	 15.69507	  3.28828	  4.45745	 14.04583	 -0.70011	 19.76024	709.12799	 23.10	
 13.609	-28.790	 18.06202	 16.28252	  2.88301	  5.21547	 13.16831	 -0.70117	 19.76307	709.16901	 23.10	
 13.601	-21.647	 18.05502	 16.74312	  2.57693	  6.04410	 12.23612	 -0.69607	 19.75636	709.08801	 23.10	
 13.611	-14.417	 18.04521	 17.08701	  2.34231	  6.93828	 11.24419	 -0.69985	 19.74484	709.11298	 23.10	
 13.608	 -7.147	 18.07499	 17.32940	  2.15522	  7.89896	 10.27238	 -0.69577	 19.78025	709.10400	 23.10	
 13.600	  0.000	 18.06863	 17.40456	  2.14882	  8.86456	  9.29812	 -0.69213	 19.76341	709.07397	 23.10	
 13.608	  7.147	 18.03481	 17.33825	  2.18757	  9.84509	  8.31056	 -0.69664	 19.73361	709.04602	 23.10	
 13.611	 14.417	 18.03615	 17.16165	  2.31693	 10.84541	  7.39268	 -0.69727	 19.74112	708.19800	 23.10	
 13.601	 21.647	 18.04535	 16.85786	  2.55575	 11.83519	  6.52900	 -0.69449	 19.75061	707.69702	 23.10	
 13.609	 28.790	 18.05872	 16.43408	  2.87704	 12.79644	  5.71118	 -0.68566	 19.76505	709.01801	 23.10	
 13.611	 36.001	 18.04110	 15.86401	  3.27620	 13.67909	  4.95256	 -0.66399	 19.74102	708.94702	 23.10	
 13.601	 43.175	 18.06594	 15.20027	  3.79867	 14.50221	  4.31617	 -0.64250	 19.74502	708.97803	 23.10	
 13.596	 50.360	 18.05125	 14.42234	  4.40065	 15.22833	  3.73677	 -0.61005	 19.72181	709.00000	 23.10	
 13.611	 57.569	 18.05611	 13.57134	  5.09163	 15.87659	  3.23765	 -0.60569	 19.71766	709.07397	 23.10	
 13.604	 64.789	 18.09091	 12.67065	  5.91547	 16.42449	  2.86028	 -0.60703	 19.73950	709.17297	 23.10	
 13.595	 71.958	 18.10674	 11.70986	  6.66548	 16.81556	  2.59059	 -0.64814	 19.73474	709.18298	 23.10	
 13.607	 79.207	 18.15626	 10.74230	  7.59484	 17.12585	  2.41211	 -0.71694	 19.77896	709.25098	 23.10	
 13.601	 86.383	 18.16247	  9.74864	  8.55645	 17.24409	  2.33487	 -0.76320	 19.76363	709.14899	 23.10	
 13.601	 93.617	 18.15636	  8.74799	  9.54566	 17.22160	  2.33592	 -0.78213	 19.74158	709.13800	 23.10	
 13.607	100.793	 18.16606	  7.78288	 10.53667	 17.09811	  2.41664	 -0.80039	 19.74347	707.62500	 23.10	
 13.595	108.042	 18.17504	  6.92966	 11.53468	 16.83656	  2.58285	 -0.79503	 19.74132	709.11298	 23.00	
 13.604	115.211	 18.19415	  6.07792	 12.51365	 16.45662	  2.86056	 -0.77576	 19.76386	709.15302	 23.10	
 13.611	122.431	 18.19377	  5.29362	 13.43179	 15.93685	  3.22774	 -0.74847	 19.75625	709.05103	 23.10	
 13.596	129.640	 18.19348	  4.61320	 14.28149	 15.28432	  3.71901	 -0.73507	 19.74439	708.98602	 23.00	
 13.601	136.825	 18.17604	  3.97676	 15.03922	 14.52895	  4.28391	 -0.71633	 19.73088	709.15198	 23.00	
 13.611	143.999	 18.19369	  3.45195	 15.73797	 13.73310	  4.94012	 -0.71031	 19.75879	709.00000	 23.00	
 13.609	151.210	 18.17484	  3.01242	 16.29985	 12.81958	  5.67193	 -0.70510	 19.75221	708.99500	 23.00	
 13.601	158.353	 18.14881	  2.68431	 16.72239	 11.84216	  6.49188	 -0.70329	 19.71728	708.27197	 23.00	
 13.611	165.583	 18.15699	  2.45807	 17.06568	 10.86786	  7.38065	 -0.72463	 19.74109	709.12500	 23.00	
 13.608	172.853	 18.15278	  2.28401	 17.26055	  9.86908	  8.30925	 -0.74409	 19.75359	709.15997	 23.00	
 15.298	173.587	 17.65475	  1.12980	 17.81276	  9.41521	  7.85925	 -0.88146	 19.74058	709.16901	 23.00	
 15.291	167.167	 17.67488	  1.27490	 17.65378	 10.40621	  6.94047	 -0.86338	 19.74657	709.06500	 23.00	
 15.307	160.676	 17.68498	  1.44451	 17.38003	 11.41679	  6.05233	 -0.85850	 19.75907	707.80701	 23.00	
 15.300	154.261	 17.69863	  1.72912	 16.98268	 12.40321	  5.22051	 -0.84104	 19.76203	707.53998	 23.00	
 15.288	147.854	 17.69879	  2.11002	 16.46718	 13.32367	  4.46226	 -0.83425	 19.75321	709.10498	 23.00	
 15.293	141.428	 17.68363	  2.56592	 15.83798	 14.18024	  3.77327	 -0.84485	 19.73133	709.18701	 23.00	
 15.299	134.985	 17.70069	  3.12130	 15.14002	 15.01595	  3.13533	 -0.85420	 19.75430	709.13599	 23.00	
 15.305	128.583	 17.70380	  3.77152	 14.34106	 15.74324	  2.59099	 -0.87244	 19.74813	707.42999	 23.00	
 15.309	122.142	 17.70177	  4.46795	 13.47287	 16.37313	  2.15575	 -0.87918	 19.75678	707.50897	 23.00	
 15.304	115.711	 17.70914	  5.24208	 12.56100	 16.89343	  1.82193	 -0.88427	 19.76231	707.81799	 23.00	
 15.297	109.291	 17.67880	  6.11819	 11.58623	 17.28055	  1.55851	 -0.88644	 19.74428	708.31598	 23.00	
 15.293	102.897	 17.67234	  6.95130	 10.59562	 17.57804	  1.37005	 -0.88787	 19.73782	709.02502	 23.00	
 15.293	 96.458	 17.67770	  7.83223	  9.60569	 17.76588	  1.27455	 -0.88935	 19.75196	709.12097	 23.00	
 15.300	 90.000	 17.67981	  8.81074	  8.61565	 17.83519	  1.23466	 -0.88300	 19.76677	709.11603	 23.00	
 15.293	 83.542	 17.64355	  9.80364	  7.62860	 17.75007	  1.27486	 -0.85358	 19.74499	709.27399	 23.00	
 15.293	 77.103	 17.62988	 10.81027	  6.70235	 17.56497	  1.39425	 -0.80014	 19.74496	709.05902	 23.00	
 15.297	 70.709	 17.61234	 11.79260	  5.91826	 17.26502	  1.55619	 -0.74662	 19.75123	709.06201	 23.00	
 15.304	 64.289	 17.62341	 12.77023	  5.09862	 16.87642	  1.82365	 -0.72096	 19.77801	709.10797	 23.00	
 15.309	 57.858	 17.58798	 13.67039	  4.29300	 16.34638	  2.17040	 -0.71026	 19.77063	709.11902	 23.00	
 15.305	 51.417	 17.57262	 14.51717	  3.57614	 15.70652	  2.63023	 -0.71497	 19.76117	709.21503	 23.00	
 15.299	 45.015	 17.55844	 15.30385	  2.95429	 14.96970	  3.17125	 -0.73846	 19.76187	709.13599	 23.00	
 15.293	 38.572	 17.55346	 15.99464	  2.42940	 14.14703	  3.80775	 -0.75695	 19.75434	709.29102	 23.00	
 15.288	 32.146	 17.54379	 16.59683	  1.98101	 13.27698	  4.49448	 -0.75803	 19.76386	709.20801	 23.00	
 15.300	 25.739	 17.50899	 17.07484	  1.59741	 12.33738	  5.23710	 -0.76285	 19.73232	709.20001	 23.00	
 15.307	 19.324	 17.52991	 17.49079	  1.30748	 11.38214	  6.06497	 -0.75833	 19.75908	709.17700	 23.00	
 15.291	 12.833	 17.54628	 17.76773	  1.11886	 10.39589	  6.96245	 -0.75670	 19.77077	707.60101	 23.00	
 15.298	  6.413	 17.53331	 17.91490	  0.98841	  9.40509	  7.86849	 -0.76111	 19.75471	709.14600	 23.00	
 15.300	  0.000	 17.52166	 17.93474	  0.93314	  8.39489	  8.82656	 -0.74956	 19.73577	709.15997	 23.00	
 15.298	 -6.413	 17.52602	 17.86556	  0.97831	  7.43338	  9.80445	 -0.75324	 19.74293	709.13501	 23.00	
 15.291	-12.833	 17.50605	 17.64269	  1.11847	  6.49490	 10.75812	 -0.75566	 19.71328	709.20801	 23.00	
 15.307	-19.324	 17.52515	 17.36062	  1.29941	  5.59009	 11.75958	 -0.75660	 19.73954	707.58002	 23.00	
 15.300	-25.739	 17.53471	 16.93663	  1.56922	  4.76216	 12.71528	 -0.76182	 19.74949	709.11603	 23.00	
 15.288	-32.146	 17.54094	 16.40280	  1.97378	  3.98932	 13.62193	 -0.74922	 19.75242	707.71198	 23.00	
 15.293	-38.572	 17.52798	 15.75761	  2.42266	  3.26756	 14.48102	 -0.75047	 19.74340	709.17499	 23.00	
 15.299	-45.015	 17.52164	 15.02208	  2.94860	  2.62981	 15.27771	 -0.75164	 19.73534	709.36102	 23.00	
 15.305	-51.417	 17.54458	 14.22334	  3.54771	  2.11365	 15.99511	 -0.76967	 19.75180	709.12402	 23.00	
 15.309	-57.858	 17.54912	 13.34343	  4.21590	  1.66558	 16.61987	 -0.78861	 19.76183	709.09698	 23.00	
 15.304	-64.289	 17.51912	 12.39487	  4.98082	  1.31466	 17.10723	 -0.78276	 19.73835	707.65002	 23.00	
 15.297	-70.709	 17.51294	 11.42010	  5.79105	  1.05118	 17.50674	 -0.79605	 19.74184	708.20203	 23.00	
 15.293	-77.103	 17.52075	 10.44418	  6.60050	  0.87618	 17.80704	 -0.78414	 19.75361	708.46002	 23.00	
 15.293	-83.542	 17.49923	  9.43209	  7.53139	  0.76214	 17.95714	 -0.79789	 19.73233	707.44702	 23.00	
 15.300	-90.000	 17.52253	  8.44958	  8.50532	  0.71253	 18.04400	 -0.81569	 19.76450	709.27399	 23.00	
 15.293	-96.458	 17.50330	  7.49025	  9.48405	  0.75363	 17.96892	 -0.82081	 19.75344	709.22302	 23.00	
 15.293	-102.897	 17.50617	  6.65540	 10.48230	  0.85468	 17.80021	 -0.81762	 19.75369	707.50000	 23.00	
 15.297	-109.291	 17.50765	  5.83189	 11.45726	  1.03568	 17.50724	 -0.80536	 19.76103	707.46997	 23.00	
 15.304	-115.711	 17.51519	  5.02794	 12.42412	  1.30332	 17.09914	 -0.78297	 19.74615	707.59698	 23.00	
 15.309	-122.142	 17.54742	  4.28367	 13.37113	  1.65841	 16.60739	 -0.76816	 19.77921	707.63202	 23.00	
 15.305	-128.583	 17.52916	  3.59083	 14.21395	  2.09350	 15.96465	 -0.75882	 19.74210	707.53198	 23.00	
 15.299	-134.985	 17.54251	  2.99821	 15.01268	  2.62673	 15.27409	 -0.77025	 19.74516	708.23999	 23.00	
 15.293	-141.428	 17.57772	  2.46481	 15.75754	  3.26713	 14.49281	 -0.79670	 19.76887	707.51703	 23.00	
 15.288	-147.854	 17.57428	  2.01199	 16.38297	  3.98023	 13.61226	 -0.81308	 19.74667	707.47998	 23.00	
 15.300	-154.261	 17.59360	  1.63696	 16.91030	  4.74971	 12.71176	 -0.83982	 19.74978	707.49402	 23.00	
 15.307	-160.676	 17.61908	  1.36937	 17.33685	  5.58563	 11.77247	 -0.85968	 19.76318	707.58698	 23.00	
 15.291	-167.167	 17.65324	  1.18304	 17.65084	  6.51886	 10.79950	 -0.88452	 19.78424	707.37598	 23.00	
 15.298	-173.587	 17.62382	  1.05831	 17.79246	  7.43622	  9.79845	 -0.90309	 19.74066	707.55402	 23.00	
 15.300	180.000	 17.66148	  1.04569	 17.88800	  8.41878	  8.84050	 -0.90431	 19.76352	707.50702	 23.00	
 17.000	180.000	 17.08489	 -0.06496	 18.36675	  7.91241	  8.32874	 -0.98466	 19.75587	707.54901	 23.00	
 16.990	-174.179	 17.09581	 -0.03937	 18.32825	  6.96297	  9.30370	 -0.98125	 19.78342	707.48700	 23.00	
 17.009	-168.383	 17.05811	  0.03879	 18.14858	  6.01388	 10.25880	 -0.96108	 19.74984	709.05402	 23.00	
 17.000	-162.596	 17.04681	  0.19653	 17.87410	  5.12231	 11.23430	 -0.93150	 19.75603	709.13501	 23.00	
 16.990	-156.759	 17.06904	  0.39420	 17.53375	  4.28928	 12.21290	 -0.91941	 19.78812	707.58502	 23.00	
 16.995	-150.919	 17.04033	  0.68865	 17.03762	  3.49352	 13.13980	 -0.91685	 19.77765	709.15302	 23.00	
 16.988	-145.161	 17.00353	  1.09447	 16.43689	  2.76689	 14.01792	 -0.89331	 19.75268	707.50098	 23.00	
 17.014	-139.343	 16.99172	  1.54540	 15.78043	  2.08852	 14.86547	 -0.87606	 19.75903	709.08698	 23.00	
 17.007	-133.546	 16.96545	  2.08630	 15.01234	  1.54314	 15.60409	 -0.86394	 19.72658	709.08698	 23.00	
 17.001	-127.699	 16.96256	  2.70526	 14.19871	  1.05718	 16.31649	 -0.83778	 19.74867	709.06299	 23.00	
 17.006	-121.937	 16.93677	  3.39122	 13.30687	  0.62662	 16.91884	 -0.84305	 19.74070	708.38098	 23.00	
 17.002	-116.134	 16.92785	  4.13189	 12.38422	  0.29361	 17.43772	 -0.84285	 19.75292	708.11902	 23.00	
 17.001	-110.310	 16.92301	  4.91131	 11.42923	  0.02220	 17.86433	 -0.83080	 19.76394	709.13800	 23.00	
 16.988	-104.517	 16.92504	  5.76084	 10.45545	 -0.15156	 18.17266	 -0.81331	 19.75458	707.59003	 23.00	
 17.008	-98.662	 16.91250	  6.52857	  9.45176	 -0.29495	 18.37270	 -0.78881	 19.75029	708.61798	 23.00	
 16.996	-92.909	 16.94260	  7.44952	  8.49614	 -0.35081	 18.49181	 -0.76619	 19.76546	709.15002	 23.00	
 16.996	-87.091	 16.93770	  8.41524	  7.52491	 -0.34839	 18.48630	 -0.74852	 19.76215	709.19202	 23.00	
 17.012	-81.253	 16.95078	  9.40819	  6.58318	 -0.28283	 18.41729	 -0.72950	 19.77970	709.26001	 23.00	
 16.988	-75.483	 16.93082	 10.37958	  5.75667	 -0.15503	 18.18405	 -0.71265	 19.74663	709.20599	 23.00	
 17.001	-69.690	 16.94487	 11.37073	  4.92132	  0.00494	 17.90378	 -0.68391	 19.76346	707.81000	 23.00	
 17.002	-63.866	 16.93976	 12.33556	  4.10390	  0.26495	 17.46925	 -0.68095	 19.74084	708.21802	 23.00	
 17.006	-58.063	 16.96335	 13.28265	  3.34736	  0.61123	 16.96951	 -0.71357	 19.75800	709.26202	 23.00	
 17.001	-52.301	 16.97106	 14.18040	  2.65113	  1.03699	 16.35514	 -0.71429	 19.75638	709.26703	 23.00	
 17.007	-46.454	 16.96828	 15.02135	  2.06426	  1.52269	 15.65490	 -0.73363	 19.75681	709.16699	 23.00	
 17.014	-40.657	 16.95416	 15.77260	  1.50073	  2.08198	 14.90070	 -0.71724	 19.75645	708.92401	 23.00	
 16.988	-34.839	 16.97910	 16.46301	  1.01954	  2.76108	 14.08275	 -0.72644	 19.77967	709.04199	 23.00	
 16.995	-29.081	 16.97830	 17.03594	  0.61640	  3.49199	 13.17801	 -0.74444	 19.76385	709.23401	 22.90	
 16.990	-23.241	 16.96722	 17.52308	  0.30196	  4.28681	 12.23889	 -0.75393	 19.75428	709.23602	 23.00	
 17.000	-17.404	 16.97583	 17.91527	  0.06972	  5.12966	 11.29089	 -0.75358	 19.76299	707.50598	 23.00	
 17.009	-11.617	 16.96475	 18.18924	 -0.06885	  6.01487	 10.28636	 -0.74284	 19.74723	707.70599	 23.00	
 16.990	 -5.821	 16.97075	 18.35916	 -0.15482	  6.94875	  9.31909	 -0.73929	 19.75538	707.73901	 23.00	
 17.000	  0.000	 16.96255	 18.43690	 -0.20942	  7.89946	  8.34843	 -0.72474	 19.75602	709.22900	 23.00	
 16.990	  5.821	 16.93673	 18.38290	 -0.16440	  8.88472	  7.38033	 -0.72461	 19.73496	709.35699	 23.00	
 17.009	 11.617	 16.94262	 18.25954	 -0.06485	  9.86901	  6.47368	 -0.72283	 19.74756	709.26001	 23.00	
 17.000	 17.404	 16.94310	 18.02262	  0.10651	 10.84355	  5.60986	 -0.71573	 19.74751	709.32501	 23.00	
 16.990	 23.241	 16.94468	 17.67692	  0.33168	 11.82934	  4.76761	 -0.74123	 19.75113	709.15997	 23.00	
 16.995	 29.081	 16.93336	 17.21421	  0.64467	 12.76721	  3.99257	 -0.75937	 19.73529	707.64697	 23.00	
 16.988	 34.839	 16.98342	 16.71276	  1.05166	 13.69884	  3.29633	 -0.77929	 19.77301	708.63800	 22.90	
 17.014	 40.657	 16.95961	 16.05759	  1.51871	 14.55429	  2.61053	 -0.79012	 19.76048	709.23602	 23.00	
 17.007	 46.454	 16.97975	 15.33677	  2.06726	 15.35810	  2.03209	 -0.79333	 19.76902	707.65198	 23.00	
 17.001	 52.301	 16.97492	 14.50888	  2.70644	 16.05558	  1.54291	 -0.79268	 19.73357	708.71899	 23.00	
 17.006	 58.063	 17.00794	 13.67489	  3.42965	 16.70511	  1.12804	 -0.79020	 19.76817	707.58502	 23.00	
 17.002	 63.866	 17.00836	 12.74483	  4.18640	 17.23411	  0.77927	 -0.80490	 19.75288	709.27100	 23.00	
 17.001	 69.690	 17.02270	 11.78630	  5.01012	 17.66648	  0.51018	 -0.81568	 19.75184	707.71503	 23.00	
 16.988	 75.483	 17.04432	 10.81011	  5.85153	 17.99354	  0.33450	 -0.84974	 19.76264	707.71198	 22.90	
 17.012	 81.253	 17.04292	  9.82048	  6.66967	 18.20855	  0.19454	 -0.88988	 19.75327	709.13599	 23.00	
 16.996	 87.091	 17.09405	  8.83732	  7.61798	 18.33657	  0.15087	 -0.89455	 19.76899	708.10303	 22.90	
 16.996	 92.909	 17.10778	  7.85376	  8.59697	 18.33440	  0.15778	 -0.89070	 19.76597	707.52899	 22.90	
 17.008	 98.662	 17.11724	  6.96427	  9.57710	 18.24284	  0.21741	 -0.87765	 19.76917	707.53998	 23.00	
 16.988	104.517	 17.12526	  6.11155	 10.57835	 18.01445	  0.35828	 -0.87659	 19.76830	707.58801	 23.00	
 17.001	110.310	 17.10775	  5.26181	 11.54707	 17.67839	  0.52849	 -0.88456	 19.73120	708.62903	 22.90	
 17.002	116.134	 17.16175	  4.41012	 12.54275	 17.29056	  0.79996	 -0.90839	 19.77479	707.47601	 22.90	
 17.006	121.937	 17.15874	  3.62145	 13.45812	 16.74786	  1.12665	 -0.93797	 19.75532	709.25299	 22.90	
 17.001	127.699	 17.16608	  2.92502	 14.32930	 16.13005	  1.53575	 -0.93828	 19.75760	708.97601	 22.90	
 17.007	133.546	 17.14989	  2.26809	 15.14137	 15.41611	  2.00385	 -0.93298	 19.74608	709.05701	 23.00	
 17.014	139.343	 17.13682	  1.67015	 15.87698	 14.62188	  2.57667	 -0.94423	 19.74660	707.66400	 22.90	
 16.988	145.161	 17.14299	  1.19251	 16.53105	 13.75169	  3.25036	 -0.95369	 19.75191	707.46198	 22.90	
 16.995	150.919	 17.16405	  0.82464	 17.11416	 12.86715	  3.95855	 -0.95327	 19.77311	707.54199	 22.90	
 16.990	156.759	 17.16049	  0.53543	 17.57902	 11.92107	  4.73619	 -0.95203	 19.77890	709.04901	 22.90	
 17.000	162.596	 17.14173	  0.30780	 17.93499	 10.91312	  5.57327	 -0.95772	 19.76738	707.52100	 22.90	
 17.009	168.383	 17.12247	  0.12780	 18.18747	  9.91235	  6.45094	 -0.96475	 19.76407	707.52899	 22.90	
 16.990	174.179	 17.12715	 -0.00013	 18.34521	  8.93504	  7.36651	 -0.97838	 19.77499	708.11603	 22.90	
 18.709	174.675	 16.49665	 -1.08448	 18.76292	  8.38228	  6.82197	 -1.00872	 19.76893	707.60199	 22.90	
 18.703	169.441	 16.51601	 -0.97387	 18.64541	  9.35208	  5.93946	 -1.01434	 19.77370	707.59698	 22.90	
 18.691	164.085	 16.51587	 -0.81233	 18.39447	 10.34665	  5.06082	 -1.01717	 19.75641	707.60101	 22.90	
 18.706	158.818	 16.52248	 -0.65796	 18.08837	 11.33494	  4.22143	 -1.01249	 19.76440	709.30499	 22.90	
 18.695	153.537	 16.54235	 -0.40919	 17.68005	 12.29580	  3.45403	 -1.01712	 19.77337	709.18701	 22.90	
 18.704	148.255	 16.53491	 -0.09725	 17.16026	 13.22620	  2.72299	 -1.01703	 19.75729	709.29401	 22.90	
 18.698	142.952	 16.53321	  0.30825	 16.54614	 14.12875	  2.05283	 -0.99866	 19.75276	708.73602	 22.90	
 18.699	137.625	 16.54570	  0.81388	 15.85683	 14.97900	  1.47168	 -0.98514	 19.75306	707.67700	 22.90	
 18.705	132.343	 16.55861	  1.37289	 15.10597	 15.74743	  0.96432	 -0.96500	 19.75231	709.08502	 22.90	
 18.713	127.067	 16.55398	  2.03209	 14.27559	 16.45230	  0.48592	 -0.94034	 19.75947	708.08301	 22.90	
 18.700	121.794	 16.55229	  2.74555	 13.38161	 17.07265	  0.10025	 -0.91417	 19.76229	708.09802	 22.90	
 18.698	116.504	 16.53514	  3.56824	 12.45267	 17.60164	 -0.21854	 -0.88007	 19.76503	709.26001	 22.90	
 18.707	111.165	 16.52610	  4.35014	 11.48594	 18.03401	 -0.47029	 -0.84490	 19.76923	709.34698	 22.90	
 18.690	105.863	 16.52798	  5.19955	 10.51769	 18.36624	 -0.65430	 -0.80739	 19.78145	709.25897	 22.90	
 18.696	100.583	 16.48532	  6.02954	  9.51897	 18.57117	 -0.79543	 -0.80181	 19.74559	709.34399	 22.90	
 18.700	 95.309	 16.49023	  6.92902	  8.55427	 18.72257	 -0.88221	 -0.79140	 19.76036	709.43103	 22.90	
 18.700	 90.000	 16.47234	  7.82174	  7.57378	 18.75508	 -0.91324	 -0.82659	 19.75347	708.26398	 22.90	
 18.700	 84.691	 16.45530	  8.80149	  6.64202	 18.70483	 -0.88698	 -0.84905	 19.75543	707.67700	 22.90	
 18.696	 79.417	 16.43404	  9.78265	  5.78348	 18.56311	 -0.80635	 -0.86874	 19.75333	707.66302	 22.90	
 18.690	 74.137	 16.43101	 10.76684	  4.94559	 18.33854	 -0.67734	 -0.87214	 19.77858	709.14600	 22.90	
 18.707	 68.835	 16.38976	 11.72653	  4.08531	 17.98204	 -0.49864	 -0.86845	 19.75527	707.47803	 22.90	
 18.698	 63.496	 16.39406	 12.69898	  3.27805	 17.54854	 -0.23289	 -0.85936	 19.77099	708.80402	 22.90	
 18.700	 58.206	 16.37483	 13.60802	  2.51339	 17.00280	  0.09882	 -0.84018	 19.76709	709.17297	 22.90	
 18.713	 52.933	 16.36903	 14.49104	  1.79521	 16.38866	  0.49008	 -0.83050	 19.77744	707.47601	 22.90	
 18.705	 47.657	 16.36453	 15.31468	  1.16680	 15.67747	  0.96643	 -0.81922	 19.78693	707.65900	 22.90	
 18.699	 42.375	 16.34085	 16.03795	  0.59523	 14.90473	  1.47695	 -0.80087	 19.77477	708.92200	 22.90	
 18.698	 37.048	 16.32055	 16.70428	  0.10480	 14.04588	  2.09394	 -0.78852	 19.76330	709.19098	 22.90	
 18.704	 31.745	 16.31310	 17.29597	 -0.29759	 13.14255	  2.78313	 -0.73409	 19.76581	709.25299	 22.90	
 18.695	 26.463	 16.32247	 17.79095	 -0.60356	 12.21944	  3.51892	 -0.69717	 19.76637	709.29797	 22.90	
 18.706	 21.182	 16.30685	 18.18761	 -0.87512	 11.26998	  4.27335	 -0.67449	 19.76537	709.26300	 22.90	
 18.691	 15.915	 16.34388	 18.51017	 -1.05679	 10.31736	  5.11068	 -0.66518	 19.78362	709.31799	 22.90	
 18.703	 10.559	 16.31214	 18.69999	 -1.22211	  9.30336	  5.96953	 -0.65341	 19.74559	709.29797	 22.90	
 18.709	  5.325	 16.33040	 18.84265	 -1.31787	  8.35366	  6.86007	 -0.66116	 19.77754	709.31598	 22.90	
 18.700	  0.000	 16.32955	 18.85962	 -1.34589	  7.36745	  7.80818	 -0.66562	 19.76401	708.63202	 22.90	
 18.709	 -5.325	 16.35763	 18.82281	 -1.32124	  6.43383	  8.77990	 -0.69313	 19.79639	709.30701	 22.90	
 18.703	-10.559	 16.34143	 18.63852	 -1.23125	  5.52121	  9.72786	 -0.69364	 19.76485	709.24500	 22.90	
 18.691	-15.915	 16.35691	 18.38847	 -1.09450	  4.63236	 10.74913	 -0.70540	 19.77864	709.28497	 22.90	
 18.706	-21.182	 16.35755	 18.04879	 -0.91526	  3.80467	 11.69223	 -0.70179	 19.77796	707.55103	 22.90	
 18.695	-26.463	 16.34313	 17.57952	 -0.66679	  3.01513	 12.60722	 -0.69622	 19.75367	708.50299	 22.90	
 18.704	-31.745	 16.33048	 17.04835	 -0.36032	  2.26548	 13.52147	 -0.68223	 19.75544	707.47998	 22.90	
 18.698	-37.048	 16.34540	 16.42467	  0.05171	  1.59172	 14.40386	 -0.68153	 19.76246	707.60199	 23.00	
 18.699	-42.375	 16.35380	 15.72613	  0.55224	  0.98982	 15.22274	 -0.67325	 19.76418	708.57800	 23.00	
 18.705	-47.657	 16.32854	 14.91914	  1.07508	  0.46757	 15.95371	 -0.66222	 19.73949	707.60498	 23.00	
 18.713	-52.933	 16.35452	 14.09957	  1.69749	 -0.01654	 16.67203	 -0.64495	 19.78033	707.55603	 23.00	
 18.700	-58.206	 16.35823	 13.20549	  2.40819	 -0.42306	 17.26764	 -0.62360	 19.78583	708.59998	 23.00	
 18.698	-63.496	 16.33448	 12.26525	  3.18122	 -0.72954	 17.75216	 -0.60454	 19.76385	709.25403	 23.00	
 18.707	-68.835	 16.32369	 11.29318	  3.98763	 -0.98448	 18.16227	 -0.59086	 19.75243	709.26801	 23.00	
 18.690	-74.137	 16.35074	 10.33211	  4.84482	 -1.13885	 18.51623	 -0.61340	 19.79417	709.26801	 22.90	
 18.696	-79.417	 16.35255	  9.35696	  5.69313	 -1.26292	 18.74911	 -0.62163	 19.80252	708.81201	 23.00	
 18.700	-84.691	 16.31764	  8.35525	  6.54329	 -1.36944	 18.85237	 -0.63937	 19.76249	709.10797	 23.00	
 18.700	-90.000	 16.30743	  7.37989	  7.47656	 -1.42348	 18.88721	 -0.65522	 19.75477	707.57001	 23.00	
 18.700	-95.309	 16.30890	  6.45119	  8.44339	 -1.39726	 18.85122	 -0.68998	 19.76768	709.12500	 23.00	
 18.696	-100.583	 16.30657	  5.56762	  9.42181	 -1.29666	 18.71742	 -0.72007	 19.78029	709.17999	 23.00	
 18.690	-105.863	 16.30632	  4.81322	 10.40044	 -1.15864	 18.48154	 -0.79258	 19.77442	708.87402	 23.00	
 18.707	-111.165	 16.30421	  3.99549	 11.37033	 -0.97343	 18.15207	 -0.82504	 19.76669	707.58197	 23.00	
 18.698	-116.504	 16.32969	  3.21718	 12.33606	 -0.70942	 17.74079	 -0.86991	 19.77770	708.96997	 23.00	
 18.700	-121.794	 16.31990	  2.47472	 13.24273	 -0.39266	 17.21493	 -0.86547	 19.76298	709.16602	 23.00	
 18.713	-127.067	 16.34100	  1.79733	 14.13688	 -0.00943	 16.62945	 -0.87971	 19.76943	709.29797	 23.00	
 18.705	-132.343	 16.37400	  1.18539	 14.99131	  0.46950	 15.94703	 -0.88115	 19.78627	707.57001	 23.00	
 18.699	-137.625	 16.36062	  0.66682	 15.72896	  1.00914	 15.16553	 -0.89399	 19.75591	709.26801	 23.00	
 18.698	-142.952	 16.38230	  0.18782	 16.42662	  1.58863	 14.36110	 -0.91760	 19.76704	709.27600	 23.00	
 18.704	-148.255	 16.40374	 -0.22889	 17.05953	  2.24946	 13.49222	 -0.92689	 19.78362	708.27100	 23.00	
 18.695	-153.537	 16.41505	 -0.54844	 17.57747	  3.00402	 12.56030	 -0.92494	 19.76874	709.17999	 23.00	
 18.706	-158.818	 16.43108	 -0.77889	 18.02464	  3.78554	 11.62542	 -0.91516	 19.77541	708.84601	 23.00	
 18.691	-164.085	 16.44355	 -0.92000	 18.34948	  4.61953	 10.68328	 -0.91659	 19.76566	709.24200	 23.00	
 18.703	-169.441	 16.44382	 -1.04234	 18.58716	  5.51772	  9.69119	 -0.93596	 19.75709	708.38501	 23.00	
 18.709	-174.675	 16.46638	 -1.12931	 18.74408	  6.42768	  8.74905	 -0.95448	 19.76834	708.06598	 23.00	
 18.700	180.000	 16.48035	 -1.12375	 18.79090	  7.38522	  7.78563	 -0.97891	 19.75895	707.59302	 23.00	
 20.400	180.000	 15.81619	 -2.23537	 19.14433	  6.81973	  7.20656	 -0.92233	 19.76792	709.27100	 23.00	
 20.401	-175.153	 15.77589	 -2.26516	 19.07207	  5.87527	  8.12364	 -0.88865	 19.74529	707.56299	 23.00	
 20.407	-170.264	 15.77722	 -2.18572	 18.97433	  4.97845	  9.08327	 -0.86100	 19.77564	707.55402	 23.00	
 20.410	-165.423	 15.75368	 -2.07233	 18.74175	  4.09312	 10.03908	 -0.86040	 19.76693	707.49500	 23.00	
 20.392	-160.496	 15.74862	 -1.92652	 18.42860	  3.27372	 10.99569	 -0.86189	 19.76282	707.82397	 23.00	
 20.401	-155.705	 15.74105	 -1.74557	 18.04884	  2.49354	 11.92755	 -0.87135	 19.77152	709.19800	 23.00	
 20.405	-150.835	 15.72538	 -1.47531	 17.57090	  1.74565	 12.86312	 -0.89161	 19.77686	707.53699	 23.00	
 20.397	-145.903	 15.72360	 -1.12541	 17.01816	  1.08168	 13.77443	 -0.89893	 19.79549	709.23401	 23.00	
 20.392	-141.062	 15.69537	 -0.71355	 16.36216	  0.48039	 14.61022	 -0.90742	 19.76810	707.67499	 23.00	
 20.396	-136.227	 15.68888	 -0.25073	 15.64663	 -0.08117	 15.41909	 -0.89648	 19.77248	707.87701	 23.00	
 20.408	-131.372	 15.67777	  0.25116	 14.87172	 -0.60775	 16.18274	 -0.87593	 19.79276	707.55402	 23.00	
 20.410	-126.511	 15.64991	  0.83881	 14.01599	 -1.03951	 16.82796	 -0.86400	 19.76483	707.60199	 23.00	
 20.400	-121.604	 15.63901	  1.49879	 13.12596	 -1.39936	 17.42141	 -0.86293	 19.76685	707.60797	 23.00	
 20.403	-116.741	 15.64204	  2.21921	 12.21321	 -1.72465	 17.95724	 -0.83898	 19.79189	708.07202	 23.00	
 20.413	-111.900	 15.62238	  2.95369	 11.26293	 -1.98633	 18.37924	 -0.78794	 19.78174	707.85498	 23.00	
 20.398	-107.004	 15.62364	  3.68704	 10.29615	 -2.17183	 18.72558	 -0.72172	 19.78020	707.75098	 23.10	
 20.394	-102.132	 15.60383	  4.54056	  9.30542	 -2.31438	 18.95332	 -0.67438	 19.75988	707.75299	 23.00	
 20.403	-97.332	 15.61731	  5.41439	  8.35469	 -2.41988	 19.13504	 -0.62485	 19.77762	707.64203	 23.10	
 20.392	-92.440	 15.63460	  6.34365	  7.39215	 -2.48163	 19.22523	 -0.60680	 19.78731	707.69800	 23.10	
 20.392	-87.560	 15.61645	  7.26616	  6.49435	 -2.48018	 19.20454	 -0.60072	 19.75991	709.13300	 23.10	
 20.403	-82.668	 15.63439	  8.23718	  5.58169	 -2.41414	 19.16692	 -0.57834	 19.79504	708.91302	 23.10	
 20.394	-77.868	 15.62347	  9.18899	  4.67505	 -2.30407	 18.98421	 -0.55648	 19.76834	709.30701	 23.10	
 20.398	-72.996	 15.63647	 10.17326	  3.82795	 -2.18172	 18.74777	 -0.53301	 19.77938	707.60101	 23.10	
 20.413	-68.100	 15.62811	 11.13933	  2.96227	 -2.01802	 18.38794	 -0.53200	 19.75648	707.74902	 23.10	
 20.403	-63.259	 15.65330	 12.10031	  2.17626	 -1.75422	 17.97472	 -0.53355	 19.76523	707.61102	 23.10	
 20.400	-58.396	 15.68822	 13.04767	  1.44842	 -1.43532	 17.50131	 -0.56065	 19.79323	707.63202	 23.10	
 20.410	-53.489	 15.67925	 13.94287	  0.76266	 -1.04785	 16.90218	 -0.57457	 19.78646	707.54602	 23.10	
 20.408	-48.628	 15.67750	 14.79210	  0.15154	 -0.58544	 16.22988	 -0.60552	 19.77129	707.61298	 23.10	
 20.396	-43.773	 15.65439	 15.56068	 -0.37149	 -0.06100	 15.46278	 -0.62158	 19.73369	707.55701	 23.10	
 20.392	-38.938	 15.68681	 16.31685	 -0.80234	  0.48980	 14.70050	 -0.63231	 19.77528	709.21198	 23.10	
 20.397	-34.097	 15.69132	 16.97183	 -1.16913	  1.09174	 13.88146	 -0.64745	 19.77227	707.70398	 23.10	
 20.405	-29.165	 15.68727	 17.55497	 -1.50238	  1.76151	 12.98828	 -0.65114	 19.77665	707.59601	 23.10	
 20.401	-24.295	 15.69239	 18.05232	 -1.77002	  2.50721	 12.06631	 -0.67124	 19.77459	708.17401	 23.10	
 20.392	-19.504	 15.71097	 18.47449	 -1.99874	  3.28093	 11.14873	 -0.67170	 19.79423	708.46802	 23.10	
 20.410	-14.577	 15.67473	 18.77808	 -2.19309	  4.10265	 10.16443	 -0.66378	 19.77603	707.62799	 23.10	
 20.407	 -9.736	 15.66782	 19.00038	 -2.31054	  4.97747	  9.19347	 -0.65864	 19.76751	708.08899	 23.10	
 20.401	 -4.847	 15.67870	 19.15870	 -2.38946	  5.89669	  8.23594	 -0.63928	 19.78477	709.29401	 23.10	
 20.400	  0.000	 15.64748	 19.19331	 -2.41607	  6.80724	  7.28303	 -0.61569	 19.75728	707.83600	 23.10	
 20.401	  4.847	 15.64890	 19.18240	 -2.40398	  7.76868	  6.36059	 -0.61530	 19.76693	707.63898	 23.10	
 20.407	  9.736	 15.63893	 19.07456	 -2.33915	  8.71763	  5.45135	 -0.60342	 19.76886	707.59601	 23.10	
 20.410	 14.577	 15.62688	 18.89117	 -2.22901	  9.68240	  4.59460	 -0.60244	 19.76921	709.38599	 23.10	
 20.392	 19.504	 15.65648	 18.64200	 -2.05382	 10.68858	  3.77575	 -0.61025	 19.80647	707.74298	 23.10	
 20.401	 24.295	 15.64565	 18.27013	 -1.83079	 11.61025	  3.02089	 -0.61828	 19.79261	707.78497	 23.10	
 20.405	 29.165	 15.61721	 17.79851	 -1.55372	 12.53094	  2.28023	 -0.65465	 19.76474	707.62402	 23.10	
 20.397	 34.097	 15.64799	 17.28059	 -1.21891	 13.48797	  1.58377	 -0.70811	 19.79469	707.60498	 23.10	
 20.392	 38.938	 15.64001	 16.64471	 -0.80248	 14.34286	  0.96634	 -0.75972	 19.77544	707.63501	 23.10	
 20.396	 43.773	 15.67890	 15.98555	 -0.33508	 15.18145	  0.42656	 -0.79074	 19.79628	707.60999	 23.10	
 20.408	 48.628	 15.63520	 15.18260	  0.19897	 15.90902	 -0.10201	 -0.80274	 19.75224	707.81799	 23.10	
 20.410	 53.489	 15.66639	 14.37785	  0.82586	 16.63205	 -0.56358	 -0.83557	 19.78210	708.13098	 23.10	
 20.400	 58.396	 15.68540	 13.49746	  1.52671	 17.26562	 -0.94232	 -0.84713	 19.78712	708.24103	 23.20	
 20.403	 63.259	 15.70195	 12.58121	  2.28076	 17.80647	 -1.27213	 -0.86543	 19.78665	708.21301	 23.20	
 20.413	 68.100	 15.70148	 11.63233	  3.06510	 18.22927	 -1.51458	 -0.88448	 19.76901	708.35400	 23.20	
 20.398	 72.996	 15.73182	 10.67115	  3.90858	 18.59987	 -1.70919	 -0.87324	 19.78220	707.59003	 23.20	
 20.394	 77.868	 15.74738	  9.69508	  4.76832	 18.85764	 -1.84607	 -0.83934	 19.77287	707.65503	 23.20	
 20.403	 82.668	 15.75220	  8.72702	  5.62272	 19.01998	 -1.93345	 -0.78610	 19.75842	707.68103	 23.20	
 20.392	 87.560	 15.81670	  7.78927	  6.55635	 19.14234	 -1.97867	 -0.73803	 19.79770	707.56598	 23.20	
 20.392	 92.440	 15.82612	  6.89046	  7.48738	 19.13302	 -1.96176	 -0.70336	 19.78557	708.49597	 23.20	
 20.403	 97.332	 15.84041	  5.99501	  8.46090	 19.06287	 -1.91625	 -0.69287	 19.79401	708.36700	 23.20	
 20.394	102.132	 15.84145	  5.08145	  9.41590	 18.87660	 -1.80446	 -0.69667	 19.76951	707.82898	 23.20	
 20.398	107.004	 15.85476	  4.23751	 10.40181	 18.61733	 -1.66125	 -0.71833	 19.76158	708.41803	 23.20	
 20.413	111.900	 15.87542	  3.40431	 11.38217	 18.28998	 -1.46862	 -0.76693	 19.78573	708.91400	 23.20	
 20.403	116.741	 15.89321	  2.57707	 12.32831	 17.87751	 -1.23842	 -0.80687	 19.79777	707.65002	 23.20	
 20.400	121.604	 15.87319	  1.80284	 13.23457	 17.32918	 -0.93558	 -0.84827	 19.76729	709.08698	 23.20	
 20.410	126.511	 15.87400	  1.10010	 14.12453	 16.71050	 -0.56211	 -0.88948	 19.76259	707.65900	 23.20	
 20.408	131.372	 15.91694	  0.45729	 14.99807	 16.04279	 -0.10927	 -0.92782	 19.79172	709.30103	 23.20	
 20.396	136.227	 15.90775	 -0.10611	 15.77480	 15.27192	  0.40259	 -0.96591	 19.77985	709.32501	 23.20	
 20.392	141.062	 15.90765	 -0.59638	 16.48310	 14.46245	  0.93740	 -0.98618	 19.78642	709.45099	 23.20	
 20.397	145.903	 15.87374	 -1.02149	 17.11057	 13.57151	  1.50638	 -1.00166	 19.77909	709.20001	 23.20	
 20.405	150.835	 15.87898	 -1.35084	 17.67726	 12.62823	  2.19388	 -1.02567	 19.77264	709.31500	 23.20	
 20.401	155.705	 15.87188	 -1.61566	 18.14319	 11.67743	  2.93397	 -1.04099	 19.77896	709.26202	 23.20	
 20.392	160.496	 15.86844	 -1.82026	 18.50560	 10.73810	  3.69204	 -1.04371	 19.77723	707.57898	 23.20	
 20.410	165.423	 15.87167	 -1.96754	 18.82729	  9.74596	  4.53868	 -1.01928	 19.79326	708.44897	 23.20	
 20.407	170.264	 15.86112	 -2.06218	 19.02172	  8.77609	  5.38722	 -0.99927	 19.79667	708.04901	 23.20	
 20.401	175.153	 15.83782	 -2.18330	 19.12323	  7.79625	  6.27507	 -0.96775	 19.77510	708.69702	 23.20	
  0.141	 45.000	 19.82145	 10.92180	 10.74918	 10.72387	 11.04580	  0.16588	 19.79257	707.73700	 23.20	
  4.001	128.691	 19.77695	  9.39131	 12.13032	 12.35490	  9.23219	  0.08659	 19.80097	708.27698	 23.20	
  4.002	 76.995	 19.78308	 11.29365	 10.17200	 12.81581	  8.83756	  0.08313	 19.80103	708.12201	 23.20	
  4.002	 25.892	 19.76908	 12.87164	  8.71866	 11.55932	  9.94809	  0.09742	 19.79571	707.53699	 23.20	
  4.002	-25.892	 19.78240	 12.83036	  8.72117	  9.55450	 11.95397	  0.05030	 19.81853	708.93597	 23.20	
  4.002	-76.995	 19.72301	 11.17870	 10.11339	  8.38297	 13.20240	  0.03343	 19.77100	707.61798	 23.20	
  4.001	-128.691	 19.75793	  9.31222	 12.09010	  8.80601	 12.75475	  0.06166	 19.79687	707.61603	 23.20	
  4.000	180.000	 19.72338	  8.52469	 12.98656	 10.47928	 10.93470	  0.09258	 19.75116	709.04303	 23.20	
  8.000	180.000	 19.35971	  6.00300	 15.07494	  9.99432	 10.43118	 -0.19905	 19.77432	709.45099	 23.20	
  7.991	-152.370	 19.34468	  6.42309	 14.44974	  7.95350	 12.62665	 -0.17354	 19.78256	708.53900	 23.20	
  7.997	-124.550	 19.30578	  7.59210	 12.84259	  6.38440	 14.39990	 -0.21906	 19.77349	707.69202	 23.20	
  8.006	-96.837	 19.30150	  9.59010	 10.68118	  5.64455	 15.24352	 -0.29014	 19.77934	707.79303	 23.20	
  7.988	-69.228	 19.31931	 11.82570	  8.54593	  5.90353	 14.97062	 -0.32155	 19.79215	708.79199	 23.20	
  7.997	-41.563	 19.29819	 13.77268	  6.85855	  7.03729	 13.62686	 -0.26600	 19.76293	707.70801	 23.20	
  8.008	-13.821	 19.32533	 15.01735	  5.97643	  8.90825	 11.56316	 -0.22213	 19.77638	709.54303	 23.20	
  8.008	 13.821	 19.36462	 15.06028	  6.01007	 11.17278	  9.36058	 -0.19481	 19.81178	709.38098	 23.20	
  7.997	 41.563	 19.36351	 13.92606	  6.89648	 13.24479	  7.54485	 -0.16609	 19.79814	707.83899	 23.20	
  7.988	 69.228	 19.35420	 11.99098	  8.59622	 14.59810	  6.42738	 -0.16162	 19.77093	708.26398	 23.20	
  8.006	 96.837	 19.39306	  9.80940	 10.72797	 14.91275	  6.19765	 -0.22127	 19.79355	707.67200	 23.20	
  7.997	124.550	 19.38214	  7.78094	 12.87888	 14.04706	  6.90854	 -0.20563	 19.76926	707.77399	 23.20	
  7.991	152.370	 19.39848	  6.50949	 14.48626	 12.23979	  8.41526	 -0.17795	 19.79564	707.72900	 23.20	
 12.009	161.059	 18.61399	  3.67648	 16.37760	 11.58420	  7.51440	 -0.54307	 19.79458	707.76801	 23.20	
 12.013	142.081	 18.59453	  4.55107	 15.17940	 13.74263	  5.60640	 -0.56591	 19.76441	707.97900	 23.20	
 12.006	123.113	 18.62632	  6.06339	 13.38630	 15.44498	  4.28762	 -0.59967	 19.77284	707.66901	 23.20	
 12.007	104.200	 18.61759	  7.92557	 11.17415	 16.45772	  3.55692	 -0.64402	 19.78223	707.62500	 23.20	
 11.989	 85.301	 18.57638	 10.18395	  8.86706	 16.63449	  3.40902	 -0.60540	 19.76630	707.72601	 23.20	
 12.013	 66.294	 18.57180	 12.48517	  6.74764	 16.02928	  3.86882	 -0.48631	 19.78284	707.45898	 23.20	
 12.012	 47.388	 18.51872	 14.49867	  5.05112	 14.62811	  4.91709	 -0.50035	 19.75978	707.84399	 23.20	
 11.990	 28.440	 18.49453	 15.98299	  3.87729	 12.67861	  6.51617	 -0.55266	 19.76601	707.42798	 23.30	
 11.991	  9.464	 18.52032	 16.75676	  3.32566	 10.43838	  8.56046	 -0.57874	 19.79377	707.62402	 23.30	
 11.991	 -9.464	 18.53226	 16.72206	  3.31301	  8.13212	 10.83140	 -0.57487	 19.79606	707.59003	 23.30	
 11.990	-28.440	 18.49469	 15.86773	  3.88450	  6.02080	 13.06627	 -0.59342	 19.76008	707.57300	 23.30	
 12.012	-47.388	 18.47397	 14.29189	  5.02534	  4.37058	 14.98518	 -0.63127	 19.76145	707.62799	 23.30	
 12.013	-66.294	 18.48871	 12.22825	  6.64056	  3.31608	 16.34468	 -0.71530	 19.77212	707.66699	 23.30	
 11.989	-85.301	 18.45899	  9.91269	  8.76862	  2.88571	 16.87995	 -0.71490	 19.74499	707.73401	 23.20	
 12.007	-104.200	 18.47694	  7.69403	 11.09322	  3.01521	 16.72109	 -0.62873	 19.77787	707.73401	 23.30	
 12.006	-123.113	 18.48959	  5.87022	 13.30086	  3.73895	 15.73555	 -0.55444	 19.77970	707.59698	 23.30	
 12.013	-142.081	 18.52789	  4.43999	 15.14720	  5.12049	 14.07410	 -0.54411	 19.78682	708.26099	 23.30	
 12.009	-161.059	 18.52546	  3.55118	 16.31498	  7.02800	 11.93936	 -0.56860	 19.75880	709.20300	 23.30	
 16.000	180.000	 17.43760	  0.58204	 18.09472	  8.22058	  8.63865	 -0.94013	 19.76406	709.17999	 23.30	
 15.990	-165.604	 17.42530	  0.76735	 17.79278	  6.00912	 10.92388	 -0.91907	 19.78749	709.26202	 23.30	
 16.002	-151.165	 17.38692	  1.32865	 16.86403	  4.02486	 13.14726	 -0.86325	 19.78461	708.45099	 23.30	
 16.002	-136.836	 17.33955	  2.39447	 15.35467	  2.40660	 15.13814	 -0.81342	 19.77581	709.23901	 23.30	
 15.995	-122.439	 17.30967	  3.87917	 13.41181	  1.27106	 16.70166	 -0.80204	 19.75812	709.12799	 23.30	
 15.993	-107.966	 17.29439	  5.69995	 11.19156	  0.57270	 17.77794	 -0.82133	 19.77897	709.17297	 23.30	
 16.005	-93.629	 17.27900	  7.66307	  8.87642	  0.26741	 18.22859	 -0.80703	 19.76233	709.14099	 23.30	
 15.992	-79.234	 17.26293	  9.94634	  6.63157	  0.36796	 18.07079	 -0.74346	 19.74191	709.22198	 23.30	
 16.009	-64.774	 17.29869	 12.27417	  4.71274	  0.82237	 17.35666	 -0.73299	 19.77273	707.57001	 23.30	
 15.997	-50.364	 17.35312	 14.43383	  3.07990	  1.76777	 16.03817	 -0.75317	 19.79943	707.71503	 23.30	
 15.997	-36.045	 17.31816	 16.16307	  1.77446	  3.15260	 14.20751	 -0.74481	 19.76490	707.63501	 23.30	
 16.000	-21.597	 17.31617	 17.40796	  0.91380	  4.96185	 12.06736	 -0.76668	 19.76698	708.09198	 23.30	
 16.003	 -7.169	 17.29818	 18.05416	  0.50476	  7.07485	  9.76344	 -0.75219	 19.74525	709.27100	 23.30	
 16.003	  7.169	 17.31594	 18.12202	  0.51027	  9.36748	  7.52326	 -0.74324	 19.77637	709.33899	 23.30	
 16.000	 21.597	 17.31439	 17.56998	  0.92485	 11.67709	  5.45953	 -0.75290	 19.78605	707.67999	 23.30	
 15.997	 36.045	 17.31054	 16.38470	  1.79105	 13.83803	  3.68428	 -0.77272	 19.75498	707.65802	 23.30	
 15.997	 50.364	 17.32232	 14.71631	  3.06178	 15.69431	  2.28558	 -0.75395	 19.74915	707.75299	 23.30	
 16.009	 64.774	 17.36570	 12.65691	  4.80034	 17.08166	  1.34077	 -0.75759	 19.76572	707.99799	 23.30	
 15.992	 79.234	 17.41766	 10.37183	  6.73542	 17.88559	  0.88539	 -0.85375	 19.78230	708.23798	 23.30	
 16.005	 93.629	 17.45573	  8.05974	  8.98199	 18.05444	  0.78351	 -0.89850	 19.78391	708.57599	 23.30	
 15.993	107.966	 17.45873	  6.03696	 11.28538	 17.56016	  1.07097	 -0.89884	 19.74843	707.96399	 23.30	
 15.995	122.439	 17.48607	  4.09682	 13.52221	 16.48973	  1.76087	 -0.90235	 19.74727	707.95697	 23.30	
 16.002	136.836	 17.50682	  2.53478	 15.46149	 14.89556	  2.90923	 -0.88959	 19.78128	709.25403	 23.30	
 16.002	151.165	 17.49117	  1.44200	 16.91868	 12.85701	  4.49926	 -0.88620	 19.76901	707.63599	 23.30	
 15.990	165.604	 17.48204	  0.86814	 17.81889	 10.56293	  6.46104	 -0.90167	 19.77657	709.29797	 23.30	
 20.003	168.362	 16.00131	 -1.75118	 18.84455	  9.23523	  5.22508	 -1.02016	 19.75943	709.38000	 23.30	
 20.008	156.764	 16.01681	 -1.42093	 18.15776	 11.52155	  3.28690	 -1.03976	 19.76507	707.69800	 23.30	
 20.000	145.147	 15.99793	 -0.70074	 16.93747	 13.69309	  1.61897	 -1.00948	 19.72980	709.30798	 23.30	
 19.995	133.545	 16.06212	  0.44995	 15.33185	 15.66803	  0.35087	 -0.95796	 19.76849	707.97101	 23.30	
 20.009	121.926	 16.03748	  1.97933	 13.33228	 17.24545	 -0.67707	 -0.86703	 19.77913	708.53601	 23.30	
 20.005	110.327	 16.03086	  3.87728	 11.13120	 18.33401	 -1.28652	 -0.77370	 19.77708	708.67401	 23.30	
 19.989	 98.733	 16.00387	  5.85361	  8.85446	 18.92810	 -1.62849	 -0.73537	 19.78103	709.46399	 23.30	
 19.999	 87.075	 15.96264	  7.98015	  6.60082	 19.02773	 -1.70356	 -0.77045	 19.76634	708.46802	 23.30	
 19.992	 75.457	 15.90288	 10.25705	  4.54496	 18.63550	 -1.49818	 -0.86133	 19.75439	709.33002	 23.30	
 20.009	 63.844	 15.88207	 12.51543	  2.61574	 17.79847	 -1.03313	 -0.87316	 19.79053	709.35699	 23.30	
 19.989	 52.269	 15.84656	 14.59256	  0.93115	 16.42281	 -0.18394	 -0.83228	 19.76903	707.68103	 23.30	
 19.999	 40.602	 15.80791	 16.38313	 -0.40947	 14.62790	  0.97823	 -0.78131	 19.77043	709.33899	 23.30	
 20.004	 29.051	 15.79720	 17.76893	 -1.32523	 12.56134	  2.49952	 -0.67642	 19.78391	709.38898	 23.30	
 20.005	 17.433	 15.75791	 18.62852	 -1.90182	 10.31220	  4.27177	 -0.61939	 19.72868	709.28400	 23.30	
 20.006	  5.780	 15.80559	 19.09944	 -2.19828	  8.06339	  6.30171	 -0.63173	 19.77965	709.34900	 23.30	
 20.006	 -5.780	 15.82068	 19.05326	 -2.17429	  5.86001	  8.51094	 -0.64821	 19.76870	707.78497	 23.30	
 20.005	-17.433	 15.83380	 18.53799	 -1.89936	  3.79821	 10.77925	 -0.67619	 19.77634	709.41901	 23.30	
 20.004	-29.051	 15.82919	 17.51568	 -1.33316	  1.98605	 12.96749	 -0.66538	 19.76593	709.24298	 23.30	
 19.999	-40.602	 15.82075	 16.03702	 -0.44833	  0.50322	 14.94816	 -0.63599	 19.74797	709.32397	 23.30	
 19.989	-52.269	 15.83078	 14.16368	  0.83639	 -0.70557	 16.68720	 -0.60772	 19.75795	708.81000	 23.30	
 20.009	-63.844	 15.81814	 12.04766	  2.51253	 -1.53456	 17.97461	 -0.55185	 19.76653	708.03003	 23.30	
 19.992	-75.457	 15.81194	  9.79413	  4.46068	 -1.96748	 18.79736	 -0.55244	 19.77212	708.09698	 23.30	
 19.999	-87.075	 15.79774	  7.51477	  6.53911	 -2.19910	 19.12887	 -0.59955	 19.76224	707.81598	 23.30	
 19.989	-98.733	 15.77446	  5.33296	  8.73493	 -2.12978	 18.99603	 -0.64948	 19.75359	709.36298	 23.30	
 20.005	-110.327	 15.79214	  3.34869	 11.00980	 -1.79543	 18.44192	 -0.78457	 19.78901	708.78101	 23.30	
 20.009	-121.926	 15.83726	  1.71227	 13.22252	 -1.13751	 17.39445	 -0.86873	 19.80449	708.45801	 23.30	
 19.995	-133.545	 15.85279	  0.27670	 15.21246	 -0.14669	 15.84117	 -0.88564	 19.78483	707.86298	 23.30	
 20.000	-145.147	 15.88819	 -0.81273	 16.87637	  1.18034	 13.94915	 -0.91866	 19.79024	708.01599	 23.30	
 20.008	-156.764	 15.89971	 -1.53139	 18.07339	  2.85416	 11.78579	 -0.88683	 19.76577	707.58002	 23.30	
 20.003	-168.362	 15.93942	 -1.87192	 18.82079	  4.80491	  9.57399	 -0.87557	 19.77274	708.75897	 23.30	
 20.000	180.000	 15.97092	 -1.96259	 19.05755	  6.95649	  7.34213	 -0.95415	 19.76199	708.04999	 23.30	
