FileType=PCF
NHL=14
Date=08/28/17	08:54:38
Facility=APL
Serial=16328-10
Customer=NASA
NP=6
Mach=0.250000
Calibration=1:1
CalPts=490
TstPts=95
PortNumbering=AP Standard
Units=Torr C m/s kg/m^3 deg mm 
Theta[deg]	Phi[deg]	P1[Torr]	P2[Torr]	P3[Torr]	P4[Torr]	P5[Torr]	P6[Torr]	Pt[Torr]	Ps[Abs,Torr]	Ts[C]	
  0.000	  0.000	 30.86737	 17.18225	 17.15513	 16.74310	 17.33386	  0.26585	 30.82375	709.92902	 23.50	
  1.691	128.401	 30.89571	 16.21674	 18.05385	 17.90579	 16.20579	  0.25888	 30.85480	709.81897	 23.50	
  1.692	 77.194	 30.87584	 17.51632	 16.79690	 18.23179	 15.88803	  0.26257	 30.83273	709.73700	 23.50	
  1.699	 26.182	 30.85524	 18.53189	 15.76306	 17.35484	 16.64033	  0.27491	 30.81191	709.66199	 23.50	
  1.699	-26.182	 30.82889	 18.48170	 15.74606	 16.02761	 17.99875	  0.25464	 30.79406	709.79999	 23.50	
  1.692	-77.194	 30.82121	 17.43768	 16.75733	 15.25786	 18.79217	  0.24250	 30.78339	709.81598	 23.50	
  1.691	-128.401	 30.87377	 16.17117	 18.03432	 15.54740	 18.53830	  0.24523	 30.83258	709.89203	 23.50	
  1.700	180.000	 30.86195	 15.58645	 18.59279	 16.68744	 17.31646	  0.26423	 30.82292	709.83398	 23.50	
  3.400	180.000	 30.79683	 13.93925	 19.91947	 16.53478	 17.18377	  0.20113	 30.80397	709.86499	 23.50	
  3.388	-152.325	 30.78695	 14.22819	 19.54320	 15.18034	 18.64671	  0.18457	 30.80509	709.88098	 23.50	
  3.397	-124.529	 30.78031	 15.20177	 18.62308	 14.15706	 19.73403	  0.18258	 30.80673	709.79700	 23.50	
  3.399	-96.763	 30.79558	 16.60555	 17.31100	 13.67935	 20.26216	  0.17055	 30.82278	709.82001	 23.50	
  3.394	-69.283	 30.75632	 18.02688	 15.89230	 13.83522	 20.05570	  0.16224	 30.78268	709.83899	 23.50	
  3.400	-41.398	 30.82875	 19.29241	 14.71949	 14.65932	 19.27300	  0.17974	 30.84296	709.90698	 23.50	
  3.401	-14.021	 30.78152	 19.82903	 13.97898	 15.84157	 17.94894	  0.18989	 30.79242	709.91803	 23.50	
  3.401	 14.021	 30.74563	 19.83178	 14.04422	 17.22700	 16.38984	  0.21221	 30.75874	709.74902	 23.50	
  3.400	 41.398	 30.76557	 19.13906	 14.70438	 18.63950	 15.20881	  0.21409	 30.76875	709.81097	 23.40	
  3.394	 69.283	 30.82877	 18.16236	 15.93612	 19.53428	 14.48175	  0.21992	 30.82938	709.84998	 23.40	
  3.399	 96.763	 30.78239	 16.71013	 17.31373	 19.67615	 14.32226	  0.22353	 30.78194	709.84802	 23.40	
  3.397	124.529	 30.79319	 15.30644	 18.66613	 19.14091	 14.81911	  0.21337	 30.79343	709.81702	 23.40	
  3.388	152.325	 30.75603	 14.28709	 19.54178	 17.94815	 15.82697	  0.21007	 30.75850	709.83099	 23.40	
  5.099	161.165	 30.61985	 12.62484	 21.01943	 17.79954	 15.55897	  0.09393	 30.76715	709.96002	 23.40	
  5.109	142.013	 30.60255	 13.27953	 20.27374	 19.19461	 14.30403	  0.09812	 30.74354	709.88898	 23.40	
  5.095	123.033	 30.61915	 14.33864	 19.12056	 20.24164	 13.35552	  0.09252	 30.75169	709.83600	 23.40	
  5.105	104.191	 30.63887	 15.71454	 17.86346	 20.89647	 12.83307	  0.10010	 30.77309	709.90601	 23.40	
  5.093	 85.207	 30.63270	 17.23876	 16.40158	 21.00961	 12.71336	  0.06792	 30.76655	709.18103	 23.40	
  5.104	 66.290	 30.60735	 18.68785	 14.93625	 20.63733	 13.01149	  0.13398	 30.74209	710.04401	 23.40	
  5.094	 47.331	 30.61494	 19.79383	 13.65805	 19.78065	 13.73990	  0.13421	 30.75485	709.96802	 23.40	
  5.089	 28.397	 30.57092	 20.73206	 12.78778	 18.53610	 14.85876	  0.12471	 30.73093	709.87903	 23.40	
  5.096	  9.576	 30.59619	 21.24898	 12.35842	 17.10505	 16.21176	  0.11320	 30.76279	709.82800	 23.40	
  5.096	 -9.576	 30.55848	 21.17808	 12.32370	 15.59622	 17.68286	  0.06679	 30.72241	709.99902	 23.40	
  5.089	-28.397	 30.56854	 20.66151	 12.75235	 14.26508	 19.13706	  0.02936	 30.74450	709.93500	 23.40	
  5.094	-47.331	 30.55718	 19.64830	 13.58102	 13.06208	 20.33627	  0.01330	 30.73476	710.01599	 23.40	
  5.104	-66.290	 30.52798	 18.49666	 14.86268	 12.28309	 21.16558	  0.02979	 30.71544	710.03900	 23.40	
  5.093	-85.207	 30.52855	 17.05120	 16.29158	 11.93263	 21.53923	  0.02114	 30.72872	709.95697	 23.40	
  5.105	-104.191	 30.51774	 15.53589	 17.75199	 12.05211	 21.39412	  0.00769	 30.71139	709.89502	 23.40	
  5.095	-123.033	 30.55713	 14.17294	 19.04016	 12.63396	 20.83062	  0.07040	 30.75107	709.92700	 23.40	
  5.109	-142.013	 30.55537	 13.17412	 20.22376	 13.57208	 19.80480	  0.08046	 30.73644	710.01703	 23.40	
  5.099	-161.165	 30.55992	 12.55196	 20.97125	 14.83850	 18.45641	  0.09631	 30.72719	709.98297	 23.30	
  5.100	180.000	 30.56870	 12.37973	 21.22449	 16.26972	 16.96654	  0.09385	 30.72358	710.04498	 23.40	
  6.800	180.000	 30.31213	 10.67654	 22.49922	 15.94804	 16.62133	 -0.12067	 30.71884	709.91199	 23.40	
  6.796	-166.229	 30.32232	 10.80936	 22.32718	 14.57038	 18.07482	 -0.10921	 30.75620	710.03802	 23.40	
  6.808	-152.311	 30.28238	 11.25012	 21.75546	 13.21341	 19.49036	 -0.10003	 30.73005	709.98798	 23.40	
  6.795	-138.383	 30.26096	 11.99233	 20.87539	 12.09133	 20.72802	 -0.12855	 30.72201	710.10303	 23.40	
  6.792	-124.591	 30.22462	 12.96017	 19.70082	 11.18283	 21.70814	 -0.15446	 30.69208	709.94299	 23.40	
  6.787	-110.754	 30.26157	 14.14844	 18.47428	 10.58274	 22.45686	 -0.17414	 30.74519	709.90302	 23.40	
  6.800	-96.985	 30.25358	 15.54735	 17.09260	 10.24432	 22.81697	 -0.22048	 30.74098	709.82501	 23.40	
  6.800	-83.015	 30.22892	 17.06965	 15.61157	 10.24730	 22.79382	 -0.25687	 30.71314	709.89600	 23.40	
  6.787	-69.246	 30.23867	 18.47652	 14.17787	 10.59468	 22.43592	 -0.25977	 30.71040	710.00000	 23.40	
  6.792	-55.409	 30.23573	 19.76738	 12.87968	 11.21385	 21.71008	 -0.24323	 30.70364	709.96503	 23.40	
  6.795	-41.617	 30.27177	 20.86394	 11.89619	 12.12769	 20.71871	 -0.20870	 30.72558	709.96503	 23.40	
  6.808	-27.689	 30.27760	 21.77457	 11.15062	 13.23370	 19.47803	 -0.18556	 30.72089	709.96503	 23.40	
  6.796	-13.771	 30.28297	 22.34180	 10.71515	 14.64896	 18.04234	 -0.15114	 30.72859	709.86499	 23.40	
  6.800	  0.000	 30.24555	 22.51900	 10.57228	 16.02536	 16.56545	 -0.13421	 30.67226	709.86499	 23.30	
  6.796	 13.771	 30.30924	 22.41532	 10.75138	 17.42626	 15.22680	 -0.10097	 30.74093	709.97699	 23.40	
  6.808	 27.689	 30.25951	 21.86197	 11.19167	 18.88453	 13.84750	 -0.09705	 30.68323	709.82300	 23.30	
  6.795	 41.617	 30.33743	 21.04233	 11.98545	 20.16533	 12.87892	 -0.07407	 30.75142	709.81897	 23.30	
  6.792	 55.409	 30.31798	 19.87875	 12.98823	 21.16244	 11.98729	 -0.08011	 30.72857	709.96100	 23.30	
  6.787	 69.246	 30.26565	 18.63718	 14.26224	 21.84883	 11.33895	 -0.08002	 30.66693	709.90997	 23.30	
  6.800	 83.015	 30.32099	 17.25282	 15.68611	 22.26442	 11.03071	 -0.11872	 30.71043	709.79199	 23.30	
  6.800	 96.985	 30.32246	 15.72845	 17.14569	 22.25492	 11.03902	 -0.13615	 30.70597	709.91302	 23.30	
  6.787	110.754	 30.32277	 14.30631	 18.50816	 21.85756	 11.39125	 -0.13324	 30.69486	709.93701	 23.30	
  6.792	124.591	 30.32444	 13.18945	 19.76776	 21.14147	 12.00225	 -0.13380	 30.69896	710.06403	 23.30	
  6.795	138.383	 30.31942	 12.19576	 20.91832	 20.11762	 12.87853	 -0.08807	 30.69799	709.89600	 23.30	
  6.808	152.311	 30.30676	 11.38347	 21.77754	 18.85496	 13.94051	 -0.10255	 30.69741	709.97998	 23.30	
  6.796	166.229	 30.30722	 10.88508	 22.31622	 17.40118	 15.24350	 -0.09527	 30.70453	709.87903	 23.30	
  8.491	168.704	 29.93949	  9.08784	 23.56620	 16.96719	 14.82704	 -0.35293	 30.69676	709.92102	 23.30	
  8.502	157.493	 29.94702	  9.49582	 23.11852	 18.53398	 13.46209	 -0.32786	 30.69566	709.84698	 23.30	
  8.494	146.194	 29.97219	 10.16908	 22.36827	 19.93310	 12.30906	 -0.33284	 30.71227	709.89001	 23.30	
  8.495	135.039	 29.96678	 11.00566	 21.38788	 21.12218	 11.24877	 -0.36048	 30.70026	709.79700	 23.30	
  8.487	123.723	 29.96392	 12.01974	 20.18979	 22.13649	 10.40845	 -0.36191	 30.69703	709.92700	 23.30	
  8.492	112.575	 29.97763	 13.26593	 18.78313	 22.91549	  9.81668	 -0.38847	 30.71394	709.66803	 23.30	
  8.510	101.220	 29.93754	 14.56822	 17.49841	 23.37167	  9.40578	 -0.40144	 30.66737	709.96600	 23.30	
  8.500	 90.000	 29.95573	 16.12597	 16.05749	 23.53718	  9.28393	 -0.36890	 30.70265	710.07800	 23.30	
  8.510	 78.780	 29.90887	 17.60756	 14.53524	 23.36994	  9.38352	 -0.32965	 30.66773	709.88702	 23.30	
  8.492	 67.425	 29.94067	 19.03161	 13.08191	 22.90691	  9.80689	 -0.29804	 30.70512	710.06201	 23.30	
  8.487	 56.277	 29.87778	 20.29296	 11.84232	 22.11298	 10.38807	 -0.28628	 30.66224	710.09003	 23.30	
  8.495	 44.961	 29.91415	 21.53503	 10.79539	 21.12766	 11.22438	 -0.29160	 30.70597	710.03003	 23.30	
  8.494	 33.806	 29.85663	 22.44174	  9.93186	 19.90546	 12.23410	 -0.29984	 30.66500	710.08698	 23.30	
  8.502	 22.507	 29.85250	 23.18094	  9.31212	 18.55822	 13.36644	 -0.33055	 30.66471	708.79999	 23.30	
  8.491	 11.296	 29.85471	 23.61811	  8.94422	 16.99312	 14.75720	 -0.34013	 30.67303	709.88397	 23.30	
  8.500	  0.000	 29.87811	 23.78427	  8.81382	 15.59750	 16.19295	 -0.36969	 30.70630	709.84198	 23.30	
  8.491	-11.296	 29.85012	 23.57183	  8.90339	 14.18286	 17.58483	 -0.38901	 30.67355	709.86401	 23.30	
  8.502	-22.507	 29.86430	 23.09508	  9.25664	 12.77103	 19.11583	 -0.41302	 30.69147	709.83899	 23.30	
  8.494	-33.806	 29.82843	 22.27531	  9.84658	 11.50401	 20.46880	 -0.43072	 30.66052	710.07800	 23.30	
  8.495	-44.961	 29.80985	 21.27184	 10.65792	 10.43840	 21.68395	 -0.46791	 30.65430	709.95203	 23.30	
  8.487	-56.277	 29.88101	 20.08194	 11.76063	  9.62716	 22.73225	 -0.50522	 30.72649	709.97198	 23.20	
  8.492	-67.425	 29.82787	 18.83938	 12.95048	  8.98051	 23.42298	 -0.54819	 30.68002	709.90399	 23.20	
  8.510	-78.780	 29.80904	 17.38817	 14.44009	  8.54664	 23.89694	 -0.55523	 30.68453	710.04700	 23.20	
  8.500	-90.000	 29.79132	 15.86615	 15.90621	  8.40202	 24.02282	 -0.51613	 30.65564	709.96802	 23.20	
  8.510	-101.220	 29.81336	 14.36145	 17.38321	  8.54598	 23.89207	 -0.46368	 30.67723	710.12701	 23.20	
  8.492	-112.575	 29.84047	 13.05340	 18.80198	  8.97245	 23.43884	 -0.39784	 30.70541	710.14801	 23.20	
  8.487	-123.723	 29.82784	 11.84483	 20.08433	  9.55754	 22.68196	 -0.37621	 30.68468	710.01001	 23.20	
  8.495	-135.039	 29.85116	 10.78718	 21.30153	 10.40404	 21.69096	 -0.34959	 30.70256	710.02197	 23.20	
  8.494	-146.194	 29.84335	  9.94041	 22.26796	 11.48529	 20.49574	 -0.33646	 30.67496	709.97998	 23.20	
  8.502	-157.493	 29.88170	  9.34888	 23.06546	 12.75328	 19.14421	 -0.32442	 30.69084	709.96899	 23.20	
  8.491	-168.704	 29.83264	  8.98949	 23.47289	 13.98564	 17.62174	 -0.33771	 30.62719	709.91803	 23.20	
  8.500	180.000	 29.88746	  8.89034	 23.68624	 15.48640	 16.24440	 -0.35115	 30.66273	709.96002	 23.20	
 10.200	180.000	 29.39914	  6.88995	 24.82362	 15.01196	 15.79142	 -0.63187	 30.64123	709.97400	 23.20	
 10.191	-170.497	 29.42030	  7.00971	 24.70230	 13.61406	 17.18491	 -0.61480	 30.67802	710.00000	 23.20	
 10.210	-161.034	 29.39730	  7.31317	 24.31045	 12.25163	 18.70243	 -0.58258	 30.68663	710.00800	 23.20	
 10.194	-151.526	 29.33255	  7.83809	 23.59965	 10.88575	 20.11429	 -0.56298	 30.64534	710.05499	 23.20	
 10.190	-142.105	 29.32467	  8.55772	 22.71079	  9.68268	 21.39753	 -0.57788	 30.65624	710.05603	 23.20	
 10.215	-132.646	 29.31749	  9.48299	 21.63410	  8.64658	 22.58280	 -0.59896	 30.66693	709.96600	 23.20	
 10.203	-123.092	 29.32580	 10.61869	 20.38882	  7.80962	 23.60176	 -0.61394	 30.68721	709.91998	 23.20	
 10.192	-113.678	 29.29826	 11.84847	 19.02971	  7.18173	 24.36564	 -0.63942	 30.66665	709.87598	 23.20	
 10.208	-104.249	 29.26327	 13.14585	 17.65915	  6.73139	 24.89266	 -0.71686	 30.65370	709.92102	 23.20	
 10.210	-94.801	 29.27870	 14.54705	 16.19272	  6.48263	 25.18178	 -0.79638	 30.67009	709.90399	 23.20	
 10.210	-85.199	 29.28306	 16.14190	 14.64511	  6.49288	 25.17912	 -0.84905	 30.67288	709.97998	 23.20	
 10.208	-75.751	 29.27678	 17.63880	 13.07122	  6.74712	 24.91212	 -0.85672	 30.65314	710.06201	 23.20	
 10.192	-66.322	 29.25393	 19.02958	 11.74623	  7.19586	 24.35656	 -0.83550	 30.60872	709.95398	 23.20	
 10.203	-56.908	 29.28193	 20.31578	 10.52921	  7.84922	 23.61583	 -0.78287	 30.62434	709.95203	 23.20	
 10.215	-47.354	 29.28119	 21.58689	  9.41160	  8.68720	 22.60546	 -0.73328	 30.62571	709.88898	 23.20	
 10.190	-37.895	 29.30109	 22.68175	  8.50105	  9.70703	 21.43057	 -0.69263	 30.63981	708.56097	 23.20	
 10.194	-28.474	 29.31997	 23.61357	  7.78718	 10.90458	 20.11637	 -0.66298	 30.64741	709.91302	 23.20	
 10.210	-18.966	 29.34277	 24.33919	  7.26417	 12.23868	 18.67516	 -0.64987	 30.67466	710.04102	 23.20	
 10.191	 -9.503	 29.29390	 24.70934	  7.00152	 13.55139	 17.09617	 -0.62397	 30.61073	710.00500	 23.20	
 10.200	  0.000	 29.32853	 24.92358	  6.91172	 15.02527	 15.64390	 -0.61837	 30.63830	709.97699	 23.20	
 10.191	  9.503	 29.36757	 24.82837	  7.05107	 16.58047	 14.14290	 -0.60224	 30.67731	709.91498	 23.20	
 10.210	 18.966	 29.29047	 24.40791	  7.33227	 18.06316	 12.82402	 -0.58104	 30.60944	710.02399	 23.20	
 10.194	 28.474	 29.32869	 23.79854	  7.89347	 19.53847	 11.60035	 -0.54546	 30.64050	709.97498	 23.20	
 10.190	 37.895	 29.32075	 22.90764	  8.60919	 20.82047	 10.45964	 -0.52874	 30.61610	709.85797	 23.20	
 10.215	 47.354	 29.36363	 21.88696	  9.51382	 22.05296	  9.47976	 -0.50736	 30.66900	709.99103	 23.20	
 10.203	 56.908	 29.33992	 20.61228	 10.61896	 23.01936	  8.69475	 -0.50201	 30.61198	709.89899	 23.20	
 10.192	 66.322	 29.38655	 19.30046	 11.87011	 23.82084	  8.10408	 -0.50670	 30.63664	708.23700	 23.20	
 10.208	 75.751	 29.41005	 17.93091	 13.20137	 24.39206	  7.65797	 -0.56479	 30.65561	709.88898	 23.10	
 10.210	 85.199	 29.38291	 16.43192	 14.74283	 24.65115	  7.38623	 -0.63184	 30.62249	709.69501	 23.20	
 10.210	 94.801	 29.40302	 14.85978	 16.28963	 24.65534	  7.39913	 -0.67713	 30.62520	709.96100	 23.20	
 10.208	104.249	 29.43903	 13.42076	 17.77137	 24.38410	  7.67628	 -0.68813	 30.63971	708.26898	 23.10	
 10.192	113.678	 29.43849	 12.08944	 19.04841	 23.81773	  8.10780	 -0.65907	 30.62504	709.88202	 23.20	
 10.203	123.092	 29.42077	 10.80212	 20.45103	 23.02912	  8.70043	 -0.63515	 30.60053	709.37799	 23.10	
 10.215	132.646	 29.39998	  9.64759	 21.67916	 22.01420	  9.47583	 -0.62457	 30.60032	709.85602	 23.10	
 10.190	142.105	 29.41895	  8.77015	 22.76868	 20.83965	 10.51669	 -0.59458	 30.62741	709.90997	 23.10	
 10.194	151.526	 29.42793	  8.07583	 23.65724	 19.53575	 11.68877	 -0.57622	 30.63128	709.91803	 23.10	
 10.210	161.034	 29.45162	  7.49650	 24.34247	 18.07331	 12.95290	 -0.58662	 30.66764	709.89600	 23.10	
 10.191	170.497	 29.39116	  7.15323	 24.67746	 16.50567	 14.30055	 -0.61338	 30.61537	708.13397	 23.10	
 11.899	171.783	 28.84921	  4.99305	 25.88973	 16.02954	 13.72562	 -0.88036	 30.65067	708.30499	 23.10	
 11.890	163.610	 28.84893	  5.37711	 25.47380	 17.49073	 12.39433	 -0.84232	 30.61942	709.74902	 23.10	
 11.889	155.445	 28.87830	  5.88521	 24.88630	 19.06406	 11.10892	 -0.81261	 30.64571	708.09998	 23.10	
 11.909	147.299	 28.86664	  6.52762	 24.10764	 20.46698	  9.83366	 -0.82910	 30.64118	708.28003	 23.10	
 11.902	139.148	 28.85208	  7.34798	 23.11553	 21.72009	  8.71943	 -0.85079	 30.61830	708.24902	 23.10	
 11.894	130.867	 28.89826	  8.40657	 21.97288	 22.91043	  7.77250	 -0.86322	 30.64063	708.34802	 23.10	
 11.897	122.732	 28.87140	  9.52918	 20.72634	 23.89505	  6.95557	 -0.89163	 30.62694	709.71002	 23.10	
 11.903	114.597	 28.86057	 10.79853	 19.31120	 24.70533	  6.30555	 -0.92097	 30.62569	710.05103	 23.10	
 11.893	106.346	 28.85687	 12.20423	 17.97552	 25.30887	  5.85757	 -0.95553	 30.62468	709.91302	 23.10	
 11.892	 98.155	 28.85137	 13.57836	 16.52632	 25.67858	  5.53868	 -0.96997	 30.63007	709.95801	 23.10	
 11.900	 90.000	 28.79636	 15.11330	 14.97784	 25.77756	  5.41466	 -0.93938	 30.59636	710.02197	 23.10	
 11.892	 81.845	 28.81419	 16.68336	 13.37870	 25.67855	  5.56111	 -0.86920	 30.63255	708.36499	 23.10	
 11.893	 73.654	 28.83065	 18.18174	 11.98945	 25.30890	  5.87304	 -0.77546	 30.66229	709.95099	 23.10	
 11.903	 65.403	 28.75759	 19.56644	 10.62847	 24.66051	  6.33593	 -0.70965	 30.60510	709.36902	 23.10	
 11.897	 57.268	 28.74771	 20.87431	  9.37991	 23.86414	  6.95508	 -0.71335	 30.60905	708.23297	 23.10	
 11.894	 49.133	 28.78587	 22.15796	  8.24309	 22.91095	  7.77466	 -0.72597	 30.66474	710.00000	 23.10	
 11.902	 40.852	 28.71910	 23.27118	  7.10326	 21.72018	  8.67762	 -0.76641	 30.62531	709.30701	 23.10	
 11.909	 32.701	 28.70409	 24.23749	  6.33118	 20.42256	  9.75058	 -0.78547	 30.61732	709.31299	 23.10	
 11.889	 24.555	 28.71081	 25.01039	  5.76900	 19.06030	 10.99117	 -0.81757	 30.62740	709.89502	 23.10	
 11.890	 16.390	 28.69011	 25.56867	  5.33736	 17.51782	 12.29103	 -0.83599	 30.60359	708.59998	 23.10	
 11.899	  8.217	 28.70070	 25.92646	  5.06362	 16.04456	 13.57579	 -0.85867	 30.61180	709.14099	 23.10	
 11.900	  0.000	 28.71174	 26.03671	  4.95380	 14.48772	 15.17650	 -0.86302	 30.62436	708.40399	 23.10	
 11.899	 -8.217	 28.71765	 25.88807	  5.05336	 13.07751	 16.57421	 -0.87197	 30.63107	708.53900	 23.10	
 11.890	-16.390	 28.70334	 25.46222	  5.27614	 11.66887	 18.08588	 -0.86351	 30.61297	709.62000	 23.10	
 11.889	-24.555	 28.69525	 24.81511	  5.63005	 10.29655	 19.59039	 -0.89044	 30.61620	708.36401	 23.10	
 11.909	-32.701	 28.68307	 23.99983	  6.18646	  9.01773	 20.98241	 -0.89951	 30.61197	710.00598	 23.10	
 11.902	-40.852	 28.70070	 23.00590	  6.93694	  7.89673	 22.26805	 -0.93161	 30.61847	710.00500	 23.10	
 11.894	-49.133	 28.69463	 21.80632	  7.96863	  6.86537	 23.44112	 -0.97859	 30.62771	709.89502	 23.10	
 11.897	-57.268	 28.68632	 20.53988	  9.25039	  5.94646	 24.42561	 -1.02344	 30.62830	709.89502	 23.10	
 11.903	-65.403	 28.67176	 19.24501	 10.48691	  5.31787	 25.20920	 -1.06549	 30.62281	709.94598	 23.10	
 11.893	-73.654	 28.66726	 17.82513	 11.79178	  4.93120	 25.74523	 -1.08554	 30.62598	710.07001	 23.10	
 11.892	-81.845	 28.64459	 16.29465	 13.22705	  4.67370	 26.05280	 -1.07775	 30.60302	710.09198	 23.10	
 11.900	-90.000	 28.63576	 14.75001	 14.81397	  4.57942	 26.16507	 -1.05642	 30.60066	710.05902	 23.10	
 11.892	-98.155	 28.66853	 13.31424	 16.35874	  4.67922	 26.09491	 -0.99749	 30.64805	710.03302	 23.10	
 11.893	-106.346	 28.64655	 11.90594	 17.81429	  4.90465	 25.74483	 -0.91983	 30.63618	709.99402	 23.10	
 11.903	-114.597	 28.63182	 10.54968	 19.14876	  5.31166	 25.15982	 -0.85076	 30.61221	709.96802	 23.10	
 11.897	-122.732	 28.63517	  9.29574	 20.53784	  5.99633	 24.35126	 -0.81006	 30.59582	710.04401	 23.10	
 11.894	-130.867	 28.68460	  8.15933	 21.82334	  6.86335	 23.39266	 -0.80688	 30.62159	710.13397	 23.10	
 11.902	-139.148	 28.68119	  7.01604	 23.00021	  7.87401	 22.21284	 -0.80095	 30.59824	710.12598	 23.10	
 11.909	-147.299	 28.70765	  6.19547	 23.99702	  9.01001	 20.96714	 -0.80567	 30.60968	710.21301	 23.10	
 11.889	-155.445	 28.75659	  5.58210	 24.79746	 10.29780	 19.63036	 -0.82333	 30.62295	710.19702	 23.10	
 11.890	-163.610	 28.76110	  5.14438	 25.41037	 11.65733	 18.13336	 -0.85475	 30.61486	709.99402	 23.10	
 11.899	-171.783	 28.78108	  4.92886	 25.80196	 13.05382	 16.70617	 -0.89959	 30.61931	709.74103	 23.10	
 11.900	180.000	 28.83724	  4.89192	 25.99405	 14.43006	 15.26429	 -0.90743	 30.65331	710.01599	 23.10	
 13.600	180.000	 28.10642	  3.15662	 26.87647	 13.80439	 14.61286	 -1.15041	 30.59837	710.15100	 23.10	
 13.608	-172.853	 28.10864	  3.20195	 26.79116	 12.45409	 16.10969	 -1.15048	 30.62579	710.10101	 23.10	
 13.611	-165.583	 28.09582	  3.40429	 26.47536	 11.01134	 17.53561	 -1.13220	 30.62950	710.02502	 23.10	
 13.601	-158.353	 28.07937	  3.71496	 25.92335	  9.59903	 19.04209	 -1.07986	 30.63420	708.54401	 23.10	
 13.609	-151.210	 28.01577	  4.15303	 25.15917	  8.28385	 20.41435	 -1.04634	 30.58757	710.17401	 23.10	
 13.611	-143.999	 28.01744	  4.79526	 24.26840	  7.05631	 21.76337	 -1.03795	 30.61314	710.11700	 23.10	
 13.601	-136.825	 27.99224	  5.66331	 23.19324	  5.89640	 23.00949	 -1.00721	 30.60193	708.29199	 23.10	
 13.596	-129.640	 27.97694	  6.65845	 21.98384	  5.02659	 24.11281	 -0.99970	 30.60911	709.92700	 23.10	
 13.611	-122.431	 27.95778	  7.83915	 20.69095	  4.34129	 25.08205	 -1.00648	 30.61201	709.80298	 23.10	
 13.604	-115.211	 27.94608	  9.18145	 19.24371	  3.80745	 25.87477	 -1.04277	 30.61325	710.22699	 23.10	
 13.595	-108.042	 27.92232	 10.52056	 17.93569	  3.35423	 26.46132	 -1.09266	 30.60518	710.10999	 23.10	
 13.607	-100.793	 27.91679	 11.91146	 16.45362	  3.03506	 26.89608	 -1.16548	 30.62185	710.12598	 23.10	
 13.601	-93.617	 27.93846	 13.33049	 14.93938	  2.90709	 27.10535	 -1.20657	 30.62752	710.10699	 23.10	
 13.601	-86.383	 27.93890	 14.83041	 13.32438	  2.89083	 27.11705	 -1.19420	 30.62387	710.21002	 23.10	
 13.607	-79.207	 27.92993	 16.37601	 11.80932	  3.03867	 26.92223	 -1.20541	 30.61667	710.07800	 23.10	
 13.595	-71.958	 27.92450	 17.88233	 10.45569	  3.33367	 26.49475	 -1.21201	 30.58293	710.04797	 23.10	
 13.604	-64.789	 27.96981	 19.29601	  8.94740	  3.78774	 25.92759	 -1.20813	 30.61926	710.09497	 23.10	
 13.611	-57.569	 27.97910	 20.64067	  7.68298	  4.32484	 25.14961	 -1.17796	 30.60958	708.40601	 23.10	
 13.596	-50.360	 28.00055	 21.95569	  6.63128	  5.01721	 24.19637	 -1.15427	 30.62855	710.22400	 23.10	
 13.601	-43.175	 27.96115	 23.15029	  5.68896	  5.92038	 23.04304	 -1.11028	 30.58841	710.27600	 23.10	
 13.611	-36.001	 28.00986	 24.27884	  4.87141	  7.06822	 21.81459	 -1.09379	 30.63642	710.18500	 23.10	
 13.609	-28.790	 27.97069	 25.16051	  4.19175	  8.28910	 20.42028	 -1.07815	 30.59499	710.13501	 23.10	
 13.601	-21.647	 27.96945	 25.92924	  3.69412	  9.61610	 18.97767	 -1.07190	 30.58564	710.17200	 23.10	
 13.611	-14.417	 27.98134	 26.49992	  3.34196	 11.01325	 17.46281	 -1.07542	 30.59990	710.14801	 23.10	
 13.608	 -7.147	 27.97365	 26.81785	  3.16073	 12.43446	 15.91913	 -1.07429	 30.58517	710.15399	 23.10	
 13.600	  0.000	 28.02927	 26.99547	  3.11943	 13.82982	 14.55884	 -1.06393	 30.64848	710.36603	 23.10	
 13.608	  7.147	 28.00247	 26.91141	  3.19474	 15.42767	 13.05137	 -1.05528	 30.63313	708.60602	 23.10	
 13.611	 14.417	 27.96375	 26.62849	  3.39761	 16.89924	 11.64196	 -1.06186	 30.59584	710.21100	 23.10	
 13.601	 21.647	 27.97166	 26.14468	  3.75849	 18.43099	 10.30212	 -1.04239	 30.60614	710.00500	 23.10	
 13.609	 28.790	 27.99129	 25.41554	  4.31256	 19.89472	  9.01036	 -1.03158	 30.62483	710.05103	 23.10	
 13.611	 36.001	 27.96207	 24.51844	  4.95425	 21.20947	  7.78499	 -1.02099	 30.57363	708.35797	 23.10	
 13.601	 43.175	 28.06108	 23.54843	  5.79549	 22.52650	  6.76149	 -0.97739	 30.64664	709.66998	 23.10	
 13.596	 50.360	 28.03495	 22.32964	  6.71389	 23.64156	  5.84329	 -0.93464	 30.61148	710.10699	 23.10	
 13.611	 57.569	 28.05375	 21.05168	  7.77438	 24.65311	  5.14729	 -0.91337	 30.61716	710.17700	 23.10	
 13.604	 64.789	 28.06004	 19.69034	  9.26978	 25.45047	  4.57721	 -0.92303	 30.61378	710.02502	 23.10	
 13.595	 71.958	 28.06599	 18.34737	 10.61603	 26.06207	  4.18136	 -0.97602	 30.60464	709.22900	 23.10	
 13.607	 79.207	 28.05371	 16.84240	 11.95896	 26.47966	  3.87048	 -1.07237	 30.58011	710.05603	 23.10	
 13.601	 86.383	 28.09194	 15.31597	 13.46217	 26.70826	  3.71782	 -1.16579	 30.59216	709.00897	 23.10	
 13.601	 93.617	 28.11276	 13.69735	 15.08909	 26.68965	  3.73009	 -1.19100	 30.57463	710.12701	 23.10	
 13.607	100.793	 28.13058	 12.28634	 16.60781	 26.49762	  3.87335	 -1.20243	 30.58028	709.90601	 23.10	
 13.595	108.042	 28.16737	 10.85662	 18.09228	 26.07014	  4.16389	 -1.19705	 30.59701	709.33600	 23.10	
 13.604	115.211	 28.15697	  9.39853	 19.41167	 25.45574	  4.55008	 -1.17842	 30.58597	710.14001	 23.10	
 13.611	122.431	 28.15600	  8.10195	 20.82669	 24.63329	  5.09917	 -1.14359	 30.56735	710.23297	 23.10	
 13.596	129.640	 28.20497	  7.02738	 22.13185	 23.67241	  5.93632	 -1.11054	 30.60006	710.28302	 23.10	
 13.601	136.825	 28.21587	  6.03167	 23.34565	 22.54504	  6.91297	 -1.08325	 30.62266	710.09003	 23.10	
 13.611	143.999	 28.16705	  5.13706	 24.35764	 21.25192	  7.94739	 -1.07102	 30.58689	709.15002	 23.10	
 13.609	151.210	 28.12569	  4.40103	 25.21394	 19.88136	  9.11299	 -1.05628	 30.55205	710.14001	 23.10	
 13.601	158.353	 28.15983	  3.93630	 25.98358	 18.42508	 10.41145	 -1.05982	 30.58770	710.25800	 23.10	
 13.611	165.583	 28.14736	  3.56174	 26.50087	 16.85731	 11.75876	 -1.10013	 30.59762	710.16199	 23.10	
 13.608	172.853	 28.11064	  3.28682	 26.78087	 15.35367	 13.12008	 -1.13587	 30.57854	710.22498	 23.10	
 15.298	173.587	 27.34204	  1.64897	 27.58964	 14.71542	 12.43313	 -1.34108	 30.56844	709.17700	 23.10	
 15.291	167.167	 27.40862	  1.90222	 27.38264	 16.19641	 11.07670	 -1.31954	 30.61882	710.24200	 23.10	
 15.307	160.676	 27.41768	  2.24973	 26.95263	 17.70179	  9.69302	 -1.30543	 30.60692	710.26898	 23.10	
 15.300	154.261	 27.39198	  2.66710	 26.29757	 19.22861	  8.35580	 -1.28805	 30.57511	710.20203	 23.10	
 15.288	147.854	 27.38833	  3.26359	 25.46102	 20.61175	  7.13589	 -1.29940	 30.54838	710.16901	 23.10	
 15.293	141.428	 27.42884	  3.92583	 24.54319	 21.98661	  5.94048	 -1.30652	 30.58144	708.61499	 23.10	
 15.299	134.985	 27.44159	  4.67398	 23.45048	 23.24799	  5.02364	 -1.31710	 30.59562	710.14899	 23.10	
 15.305	128.583	 27.43337	  5.65687	 22.20464	 24.36570	  4.22664	 -1.32845	 30.58245	710.19702	 23.10	
 15.309	122.142	 27.43653	  6.78662	 20.89385	 25.34764	  3.57268	 -1.34242	 30.60559	709.08502	 23.10	
 15.304	115.711	 27.41980	  8.03160	 19.48261	 26.12583	  3.04638	 -1.34344	 30.59122	708.53101	 23.10	
 15.297	109.291	 27.39391	  9.35357	 18.11716	 26.75271	  2.62381	 -1.32674	 30.58839	709.60498	 23.10	
 15.293	102.897	 27.32760	 10.90811	 16.62774	 27.16560	  2.29113	 -1.33838	 30.53065	710.08698	 23.10	
 15.293	 96.458	 27.32702	 12.37030	 15.11413	 27.45143	  2.11498	 -1.32969	 30.54277	709.25598	 23.10	
 15.300	 90.000	 27.35480	 13.86046	 13.55319	 27.58895	  2.06456	 -1.32963	 30.61591	709.40900	 23.10	
 15.293	 83.542	 27.33626	 15.42541	 11.99735	 27.50062	  2.12508	 -1.28473	 30.61386	708.67401	 23.10	
 15.293	 77.103	 27.30517	 16.94180	 10.60400	 27.20463	  2.31958	 -1.20273	 30.60751	708.44897	 23.10	
 15.297	 70.709	 27.28228	 18.35456	  9.00092	 26.71366	  2.67317	 -1.13314	 30.58217	710.20203	 23.10	
 15.304	 64.289	 27.25785	 19.73026	  7.69041	 26.07743	  3.06898	 -1.11165	 30.57553	710.14301	 23.10	
 15.309	 57.858	 27.19219	 21.08473	  6.47701	 25.24918	  3.57372	 -1.08404	 30.54245	710.22400	 23.10	
 15.305	 51.417	 27.18503	 22.41522	  5.41816	 24.28280	  4.22943	 -1.10759	 30.55018	710.15802	 23.10	
 15.299	 45.015	 27.18346	 23.63300	  4.47568	 23.15865	  5.01191	 -1.13734	 30.55845	710.15503	 23.10	
 15.293	 38.572	 27.16658	 24.70163	  3.64754	 21.89109	  5.94508	 -1.16534	 30.54796	708.72803	 23.10	
 15.288	 32.146	 27.15372	 25.61427	  2.96730	 20.56244	  7.01524	 -1.17129	 30.56031	710.17902	 23.10	
 15.300	 25.739	 27.14168	 26.43219	  2.39406	 19.19453	  8.24734	 -1.17092	 30.57087	708.83801	 23.10	
 15.307	 19.324	 27.12846	 27.03694	  1.96688	 17.64190	  9.56369	 -1.16583	 30.56402	710.24799	 23.10	
 15.291	 12.833	 27.17429	 27.46242	  1.67204	 16.18616	 10.97820	 -1.16231	 30.59356	708.43799	 23.10	
 15.298	  6.413	 27.15491	 27.68476	  1.46692	 14.69862	 12.34499	 -1.17006	 30.57335	708.42297	 23.10	
 15.300	  0.000	 27.15966	 27.75020	  1.39356	 13.16509	 13.73947	 -1.17987	 30.58066	708.54498	 23.10	
 15.298	 -6.413	 27.18190	 27.64550	  1.46967	 11.74251	 15.24180	 -1.19733	 30.59031	708.82300	 23.10	
 15.291	-12.833	 27.18185	 27.35391	  1.64123	 10.30906	 16.73944	 -1.18870	 30.59003	709.09399	 23.10	
 15.307	-19.324	 27.16697	 26.87853	  1.91273	  8.85137	 18.27403	 -1.19422	 30.58489	710.25897	 23.10	
 15.300	-25.739	 27.18862	 26.23082	  2.33247	  7.53196	 19.75339	 -1.17970	 30.60115	710.14801	 23.10	
 15.288	-32.146	 27.20834	 25.37377	  2.89984	  6.22785	 21.15724	 -1.19178	 30.60437	710.21698	 23.10	
 15.293	-38.572	 27.15717	 24.34279	  3.57499	  5.13851	 22.45303	 -1.18918	 30.55859	710.20001	 23.10	
 15.299	-45.015	 27.18210	 23.23989	  4.38822	  4.23415	 23.72474	 -1.20444	 30.60283	710.17700	 23.10	
 15.305	-51.417	 27.17835	 21.97894	  5.34029	  3.47319	 24.78883	 -1.21032	 30.58581	708.62402	 23.10	
 15.309	-57.858	 27.16660	 20.63092	  6.39232	  2.78722	 25.73515	 -1.20675	 30.58566	710.15698	 23.10	
 15.304	-64.289	 27.16235	 19.20023	  7.57859	  2.23278	 26.53254	 -1.20361	 30.59106	710.07001	 23.10	
 15.297	-70.709	 27.13124	 17.86859	  8.86695	  1.80207	 27.13615	 -1.19354	 30.57520	710.10901	 23.10	
 15.293	-77.103	 27.11308	 16.38428	 10.37133	  1.46355	 27.57950	 -1.17637	 30.57801	710.19702	 23.10	
 15.293	-83.542	 27.07613	 14.83888	 11.79207	  1.26312	 27.80316	 -1.17939	 30.54755	709.54102	 23.10	
 15.300	-90.000	 27.10488	 13.31648	 13.34892	  1.19548	 27.92377	 -1.21178	 30.58391	710.11700	 23.10	
 15.293	-96.458	 27.06430	 11.87472	 14.92857	  1.22953	 27.80543	 -1.22659	 30.55298	710.32300	 23.10	
 15.293	-102.897	 27.07443	 10.44585	 16.46147	  1.38616	 27.54861	 -1.22423	 30.56618	710.23798	 23.10	
 15.297	-109.291	 27.05543	  9.01504	 17.90618	  1.72870	 27.06378	 -1.21793	 30.52952	708.56201	 23.10	
 15.304	-115.711	 27.13883	  7.62521	 19.25169	  2.20965	 26.48598	 -1.19763	 30.59511	710.20300	 23.10	
 15.309	-122.142	 27.18194	  6.39580	 20.71477	  2.80144	 25.73190	 -1.17672	 30.62259	708.53101	 23.10	
 15.305	-128.583	 27.14270	  5.26441	 21.98436	  3.47333	 24.72001	 -1.16936	 30.54323	708.56201	 23.10	
 15.299	-134.985	 27.17875	  4.35286	 23.23038	  4.22913	 23.68195	 -1.18763	 30.57219	710.12000	 23.10	
 15.293	-141.428	 27.17466	  3.60404	 24.34130	  5.10794	 22.43185	 -1.21308	 30.54165	709.71503	 23.10	
 15.288	-147.854	 27.23899	  2.96683	 25.35894	  6.21497	 21.13457	 -1.25603	 30.58365	709.44202	 23.10	
 15.300	-154.261	 27.24368	  2.41538	 26.16029	  7.51685	 19.75127	 -1.26663	 30.57577	710.03900	 23.10	
 15.307	-160.676	 27.24995	  2.00318	 26.81651	  8.85780	 18.26552	 -1.30023	 30.56384	708.78900	 23.10	
 15.291	-167.167	 27.30235	  1.76286	 27.29514	 10.30683	 16.80512	 -1.35228	 30.59401	710.29797	 23.10	
 15.298	-173.587	 27.30171	  1.57005	 27.57312	 11.73735	 15.41076	 -1.36454	 30.59062	708.47198	 23.10	
 15.300	180.000	 27.31810	  1.52629	 27.66557	 13.16278	 13.84479	 -1.36313	 30.56878	710.16901	 23.10	
 17.000	180.000	 26.47866	 -0.06692	 28.44871	 12.43486	 13.11779	 -1.49246	 30.60264	710.32098	 23.10	
 16.990	-174.179	 26.40593	 -0.02539	 28.29336	 10.95559	 14.57356	 -1.46995	 30.53570	709.15802	 23.10	
 17.009	-168.383	 26.40759	  0.13276	 28.06667	  9.50289	 15.99736	 -1.44453	 30.56961	708.52802	 23.10	
 17.000	-162.596	 26.39540	  0.34929	 27.63734	  8.06794	 17.48785	 -1.41483	 30.55752	708.75800	 23.10	
 16.990	-156.759	 26.41157	  0.68208	 27.08108	  6.70064	 18.95264	 -1.40452	 30.58800	708.58698	 23.10	
 16.995	-150.919	 26.34537	  1.13906	 26.29579	  5.45847	 20.36159	 -1.40547	 30.53946	709.11603	 23.10	
 16.988	-145.161	 26.34242	  1.72716	 25.41718	  4.43434	 21.74688	 -1.37715	 30.57021	708.37500	 23.10	
 17.014	-139.343	 26.30887	  2.38807	 24.38914	  3.46923	 23.04485	 -1.35245	 30.56851	710.14600	 23.10	
 17.007	-133.546	 26.28064	  3.15392	 23.21880	  2.63070	 24.19761	 -1.32721	 30.54355	708.48499	 23.10	
 17.001	-127.699	 26.27714	  3.98521	 21.95032	  1.83999	 25.29349	 -1.30503	 30.56021	710.08197	 23.10	
 17.006	-121.937	 26.24502	  4.98537	 20.59384	  1.16610	 26.20984	 -1.31060	 30.55061	709.83600	 23.10	
 17.002	-116.134	 26.20465	  6.16987	 19.27569	  0.62066	 26.99108	 -1.29241	 30.54439	708.39001	 23.10	
 17.001	-110.310	 26.19593	  7.40835	 17.87832	  0.14517	 27.64425	 -1.25522	 30.57072	710.06403	 23.10	
 16.988	-104.517	 26.18077	  8.76150	 16.41392	 -0.17305	 28.10165	 -1.21624	 30.55785	710.14600	 23.10	
 17.008	-98.662	 26.17697	 10.29652	 14.88425	 -0.40799	 28.43957	 -1.17138	 30.55915	710.03601	 23.10	
 16.996	-92.909	 26.21153	 11.77863	 13.33838	 -0.45636	 28.60153	 -1.14831	 30.57143	710.12701	 23.10	
 16.996	-87.091	 26.21084	 13.20892	 11.69837	 -0.43678	 28.61086	 -1.10840	 30.57681	710.15698	 23.10	
 17.012	-81.253	 26.19865	 14.66954	 10.19670	 -0.33096	 28.46766	 -1.10465	 30.57011	708.56799	 23.10	
 16.988	-75.483	 26.22308	 16.21300	  8.82615	 -0.12251	 28.17148	 -1.08808	 30.57023	708.66199	 23.00	
 17.001	-69.690	 26.21988	 17.70148	  7.46876	  0.17227	 27.69487	 -1.11860	 30.55500	708.67700	 23.10	
 17.002	-63.866	 26.27543	 19.15305	  6.23232	  0.61802	 27.08988	 -1.12316	 30.60130	708.58698	 23.10	
 17.006	-58.063	 26.25282	 20.49279	  5.06999	  1.15621	 26.26063	 -1.14538	 30.54782	709.80902	 23.10	
 17.001	-52.301	 26.28375	 21.88442	  4.03095	  1.82524	 25.33993	 -1.17554	 30.56838	708.71002	 23.10	
 17.007	-46.454	 26.25240	 23.15863	  3.07886	  2.58539	 24.23054	 -1.17425	 30.52547	710.10602	 23.10	
 17.014	-40.657	 26.26175	 24.34222	  2.26857	  3.41055	 23.11069	 -1.19142	 30.55474	708.66302	 23.10	
 16.988	-34.839	 26.32092	 25.43348	  1.62145	  4.39178	 21.84760	 -1.20830	 30.60940	708.81000	 23.10	
 16.995	-29.081	 26.29100	 26.31652	  1.06659	  5.42685	 20.44942	 -1.20878	 30.56904	708.66302	 23.10	
 16.990	-23.241	 26.26576	 27.04496	  0.60714	  6.70440	 18.99267	 -1.22295	 30.53604	708.60602	 23.10	
 17.000	-17.404	 26.27573	 27.65611	  0.24561	  8.08811	 17.53400	 -1.21408	 30.57054	708.76703	 23.10	
 17.009	-11.617	 26.25780	 28.08124	 -0.00182	  9.50293	 15.97614	 -1.20537	 30.54807	710.01703	 23.10	
 16.990	 -5.821	 26.26129	 28.35029	 -0.16368	 10.96309	 14.46830	 -1.19203	 30.55429	708.46002	 23.10	
 17.000	  0.000	 26.29793	 28.51723	 -0.25418	 12.42621	 13.07923	 -1.16525	 30.60500	710.10101	 23.10	
 16.990	  5.821	 26.29978	 28.46440	 -0.17533	 13.87854	 11.62271	 -1.16125	 30.61468	709.24597	 23.10	
 17.009	 11.617	 26.21374	 28.18336	 -0.01034	 15.35453	 10.15786	 -1.15482	 30.52878	708.71301	 23.10	
 17.000	 17.404	 26.24308	 27.83846	  0.26998	 16.83747	  8.79607	 -1.15436	 30.56361	708.49597	 23.10	
 16.990	 23.241	 26.26740	 27.31253	  0.63851	 18.36513	  7.43016	 -1.18884	 30.58269	708.52502	 23.10	
 16.995	 29.081	 26.27138	 26.61744	  1.09542	 19.84377	  6.24371	 -1.22700	 30.58885	708.97803	 23.10	
 16.988	 34.839	 26.29077	 25.79682	  1.67671	 21.21545	  5.21799	 -1.23961	 30.58599	708.48297	 23.10	
 17.014	 40.657	 26.29219	 24.81198	  2.33188	 22.55999	  4.23394	 -1.26615	 30.59016	709.18103	 23.10	
 17.007	 46.454	 26.26521	 23.65056	  3.14553	 23.74970	  3.35583	 -1.25747	 30.53916	708.63202	 23.10	
 17.001	 52.301	 26.31321	 22.42509	  4.11861	 24.87469	  2.62186	 -1.24256	 30.57310	708.64099	 23.10	
 17.006	 58.063	 26.33747	 21.09958	  5.15909	 25.84264	  1.97996	 -1.23815	 30.58327	708.65698	 23.10	
 17.002	 63.866	 26.33730	 19.77395	  6.30864	 26.64532	  1.44429	 -1.25592	 30.55761	709.03900	 23.10	
 17.001	 69.690	 26.36659	 18.40602	  7.56111	 27.33877	  1.01615	 -1.27659	 30.59185	708.72803	 23.10	
 16.988	 75.483	 26.35171	 16.86330	  8.89703	 27.79215	  0.69438	 -1.30729	 30.54400	708.64301	 23.10	
 17.012	 81.253	 26.37995	 15.39199	 10.42282	 28.16435	  0.44731	 -1.34203	 30.57623	710.24402	 23.10	
 16.996	 87.091	 26.41282	 13.86996	 11.90062	 28.31535	  0.35253	 -1.36630	 30.55595	710.29199	 23.10	
 16.996	 92.909	 26.46682	 12.40906	 13.48083	 28.33818	  0.36616	 -1.34424	 30.58348	708.69299	 23.10	
 17.008	 98.662	 26.43557	 10.94959	 15.00679	 28.14429	  0.43174	 -1.33174	 30.54582	709.25098	 23.10	
 16.988	104.517	 26.50048	  9.28689	 16.57460	 27.84469	  0.67070	 -1.31993	 30.57295	708.52002	 23.10	
 17.001	110.310	 26.51012	  7.93327	 18.02881	 27.34265	  0.99846	 -1.35342	 30.55414	708.90198	 23.10	
 17.002	116.134	 26.55830	  6.67313	 19.41382	 26.72475	  1.45069	 -1.40570	 30.58639	708.62402	 23.10	
 17.006	121.937	 26.55201	  5.44523	 20.80550	 25.89531	  1.97528	 -1.44782	 30.55702	708.50800	 23.10	
 17.001	127.699	 26.57774	  4.43111	 22.15601	 24.95102	  2.58661	 -1.47440	 30.56206	708.53003	 23.10	
 17.007	133.546	 26.56003	  3.50123	 23.41518	 23.85452	  3.33303	 -1.47837	 30.55266	710.20801	 23.10	
 17.014	139.343	 26.57640	  2.67939	 24.59297	 22.65092	  4.20837	 -1.48306	 30.58730	708.65100	 23.10	
 16.988	145.161	 26.57136	  2.01652	 25.59447	 21.29517	  5.18595	 -1.49125	 30.57223	708.60699	 23.10	
 16.995	150.919	 26.55299	  1.42031	 26.44761	 19.90551	  6.24946	 -1.49387	 30.57020	708.72803	 23.10	
 16.990	156.759	 26.55393	  0.94750	 27.16195	 18.44562	  7.54027	 -1.48617	 30.57602	708.61700	 23.10	
 17.000	162.596	 26.51414	  0.55616	 27.70261	 16.89900	  8.88799	 -1.48598	 30.55048	708.75897	 23.10	
 17.009	168.383	 26.50800	  0.25195	 28.12602	 15.42211	 10.25511	 -1.49059	 30.57825	708.90198	 23.10	
 16.990	174.179	 26.46492	  0.00873	 28.32701	 13.85272	 11.65155	 -1.50004	 30.54755	708.57202	 23.10	
 18.709	174.675	 25.51467	 -1.61566	 28.98277	 13.06511	 10.81818	 -1.53797	 30.54631	709.44598	 23.10	
 18.703	169.441	 25.53883	 -1.37825	 28.76855	 14.51189	  9.40579	 -1.57832	 30.53945	708.65399	 23.10	
 18.691	164.085	 25.56823	 -1.10929	 28.41014	 16.06448	  7.95242	 -1.58458	 30.53609	708.75598	 23.10	
 18.706	158.818	 25.59743	 -0.77571	 27.93196	 17.57905	  6.61481	 -1.60736	 30.55236	708.75000	 23.10	
 18.695	153.537	 25.60723	 -0.37942	 27.28625	 19.03272	  5.48332	 -1.61560	 30.55212	709.54401	 23.10	
 18.704	148.255	 25.60000	  0.11286	 26.49811	 20.46410	  4.44364	 -1.60578	 30.53661	708.75800	 23.10	
 18.698	142.952	 25.62416	  0.72026	 25.59076	 21.87729	  3.47602	 -1.59295	 30.56957	710.25800	 23.10	
 18.699	137.625	 25.63280	  1.42412	 24.51555	 23.17406	  2.56747	 -1.56831	 30.55454	708.57501	 23.10	
 18.705	132.343	 25.62881	  2.26345	 23.33496	 24.33728	  1.70275	 -1.54287	 30.54045	708.53302	 23.10	
 18.713	127.067	 25.61164	  3.19859	 22.04999	 25.40791	  0.96135	 -1.50166	 30.52339	708.57599	 23.10	
 18.700	121.794	 25.60792	  4.18564	 20.69346	 26.36960	  0.35477	 -1.45220	 30.54864	708.62402	 23.10	
 18.698	116.504	 25.58745	  5.25907	 19.29607	 27.17182	 -0.11003	 -1.38151	 30.54471	710.13800	 23.10	
 18.707	111.165	 25.58031	  6.49630	 17.90894	 27.85908	 -0.56324	 -1.30410	 30.56901	710.42499	 23.10	
 18.690	105.863	 25.56953	  7.85492	 16.45104	 28.35973	 -0.88936	 -1.23964	 30.57531	708.69299	 23.10	
 18.696	100.583	 25.50476	  9.21597	 14.91431	 28.67818	 -1.10276	 -1.21635	 30.52972	708.73401	 23.10	
 18.700	 95.309	 25.51389	 10.62140	 13.35367	 28.91038	 -1.20477	 -1.22580	 30.56111	708.71698	 23.10	
 18.700	 90.000	 25.49543	 12.32962	 11.82581	 28.97367	 -1.23729	 -1.25847	 30.55269	708.71002	 23.10	
 18.700	 84.691	 25.48133	 13.82485	 10.28332	 28.91513	 -1.17909	 -1.30449	 30.58160	708.61700	 23.10	
 18.696	 79.417	 25.43210	 15.28203	  8.84487	 28.67488	 -1.05514	 -1.34466	 30.55842	710.26703	 23.10	
 18.690	 74.137	 25.40611	 16.81392	  7.47723	 28.30697	 -0.84736	 -1.36638	 30.56107	708.78900	 23.10	
 18.707	 68.835	 25.37249	 18.31895	  6.15598	 27.79049	 -0.54803	 -1.36748	 30.56395	708.79999	 23.10	
 18.698	 63.496	 25.33751	 19.67081	  4.93328	 27.08723	 -0.12976	 -1.37525	 30.52901	708.82800	 23.10	
 18.700	 58.206	 25.35971	 21.00065	  3.81486	 26.30405	  0.38435	 -1.36042	 30.56758	708.95599	 23.10	
 18.713	 52.933	 25.29545	 22.31755	  2.78874	 25.30521	  0.97154	 -1.31608	 30.52726	710.42499	 23.10	
 18.705	 47.657	 25.34340	 23.62694	  1.91804	 24.26226	  1.70844	 -1.29850	 30.58461	708.73297	 23.10	
 18.699	 42.375	 25.29761	 24.74233	  1.12694	 23.05572	  2.52611	 -1.27350	 30.55255	708.71002	 23.10	
 18.698	 37.048	 25.24238	 25.73923	  0.43457	 21.72157	  3.43501	 -1.22827	 30.49655	708.77899	 23.10	
 18.704	 31.745	 25.24219	 26.67665	 -0.17100	 20.34607	  4.46608	 -1.16652	 30.52024	708.68201	 23.10	
 18.695	 26.463	 25.23420	 27.43579	 -0.65391	 18.91159	  5.49744	 -1.12365	 30.51573	708.66302	 23.10	
 18.706	 21.182	 25.24123	 28.05540	 -1.05306	 17.47351	  6.65536	 -1.07821	 30.54279	708.67200	 23.10	
 18.691	 15.915	 25.28472	 28.56536	 -1.35539	 15.98905	  7.93768	 -1.06944	 30.57237	709.85101	 23.10	
 18.703	 10.559	 25.26499	 28.89047	 -1.64038	 14.46320	  9.32983	 -1.04732	 30.56174	708.74799	 23.10	
 18.709	  5.325	 25.23063	 29.05088	 -1.83078	 13.05690	 10.75999	 -1.05221	 30.52372	708.88800	 23.10	
 18.700	  0.000	 25.24286	 29.09221	 -1.87991	 11.58420	 12.26363	 -1.07370	 30.52704	708.62299	 23.10	
 18.709	 -5.325	 25.24227	 28.99079	 -1.83539	 10.09472	 13.64591	 -1.09261	 30.52581	708.66901	 23.10	
 18.703	-10.559	 25.27481	 28.75488	 -1.64092	  8.67185	 15.10542	 -1.12671	 30.53224	708.68201	 23.10	
 18.691	-15.915	 25.26699	 28.32639	 -1.39823	  7.22031	 16.66019	 -1.14968	 30.50845	708.63397	 23.10	
 18.706	-21.182	 25.29625	 27.82547	 -1.11667	  5.87763	 18.12503	 -1.16581	 30.53814	708.74103	 23.10	
 18.695	-26.463	 25.28907	 27.12252	 -0.72774	  4.71051	 19.56862	 -1.14771	 30.52202	709.63098	 23.10	
 18.704	-31.745	 25.27538	 26.29377	 -0.25994	  3.63782	 20.98057	 -1.11626	 30.51852	708.62903	 23.10	
 18.698	-37.048	 25.30872	 25.34529	  0.33440	  2.66671	 22.34484	 -1.11839	 30.55364	708.71899	 23.10	
 18.699	-42.375	 25.30765	 24.24452	  1.04247	  1.77696	 23.59057	 -1.10934	 30.54168	708.63202	 23.10	
 18.705	-47.657	 25.32616	 23.05932	  1.82935	  0.93684	 24.77038	 -1.08929	 30.57216	708.79797	 23.10	
 18.713	-52.933	 25.29593	 21.74451	  2.71015	  0.19778	 25.79315	 -1.06799	 30.54217	708.59302	 23.10	
 18.700	-58.206	 25.28918	 20.36519	  3.73017	 -0.39951	 26.66785	 -1.03783	 30.53592	709.65601	 23.10	
 18.698	-63.496	 25.30949	 19.01250	  4.86289	 -0.88312	 27.48350	 -1.00542	 30.57769	708.74799	 23.10	
 18.707	-68.835	 25.24324	 17.56989	  6.06036	 -1.33059	 28.07138	 -0.97331	 30.50630	708.59497	 23.10	
 18.690	-74.137	 25.27151	 16.09335	  7.38662	 -1.60952	 28.59155	 -0.98384	 30.55028	708.75000	 23.10	
 18.696	-79.417	 25.23004	 14.54532	  8.72065	 -1.83462	 28.91579	 -0.99028	 30.52632	708.73401	 23.10	
 18.700	-84.691	 25.23789	 13.07627	 10.12919	 -1.98132	 29.13635	 -1.00914	 30.55251	708.87701	 23.10	
 18.700	-90.000	 25.23129	 11.55886	 11.59593	 -2.05582	 29.19907	 -1.00710	 30.53511	708.84198	 23.10	
 18.700	-95.309	 25.19434	  9.99420	 13.17441	 -2.02159	 29.10055	 -1.02698	 30.51155	708.82898	 23.10	
 18.696	-100.583	 25.19797	  8.60570	 14.78383	 -1.90789	 28.89228	 -1.10060	 30.52777	708.85199	 23.10	
 18.690	-105.863	 25.22565	  7.27833	 16.30643	 -1.68082	 28.55584	 -1.17714	 30.54920	708.89398	 23.10	
 18.707	-111.165	 25.18206	  5.93129	 17.71959	 -1.35614	 28.01147	 -1.26848	 30.49007	708.78400	 23.10	
 18.698	-116.504	 25.25438	  4.75863	 19.18996	 -0.89447	 27.41507	 -1.34736	 30.54745	708.85400	 23.10	
 18.700	-121.794	 25.27662	  3.74067	 20.48418	 -0.40338	 26.64955	 -1.37485	 30.55219	708.93903	 23.10	
 18.713	-127.067	 25.26196	  2.81801	 21.81695	  0.20503	 25.69875	 -1.37302	 30.50773	708.85101	 23.10	
 18.705	-132.343	 25.30883	  1.96676	 23.12520	  0.95190	 24.67139	 -1.37718	 30.53302	708.96399	 23.10	
 18.699	-137.625	 25.34289	  1.19558	 24.29195	  1.79439	 23.51619	 -1.40389	 30.54626	708.72101	 23.10	
 18.698	-142.952	 25.36911	  0.49166	 25.36608	  2.71143	 22.26612	 -1.42177	 30.54611	708.92999	 23.10	
 18.704	-148.255	 25.38702	 -0.12834	 26.32533	  3.67612	 20.94279	 -1.41740	 30.55908	708.78400	 23.10	
 18.695	-153.537	 25.38849	 -0.62510	 27.10605	  4.73653	 19.49378	 -1.41659	 30.50233	708.80701	 23.10	
 18.706	-158.818	 25.41367	 -1.01728	 27.81370	  5.87585	 18.06730	 -1.40822	 30.53790	708.89099	 23.10	
 18.691	-164.085	 25.42139	 -1.30634	 28.31469	  7.19534	 16.65731	 -1.39182	 30.52159	709.33600	 23.10	
 18.703	-169.441	 25.45072	 -1.52409	 28.72412	  8.65237	 15.13776	 -1.42057	 30.54411	708.80603	 23.10	
 18.709	-174.675	 25.43344	 -1.69156	 28.93292	 10.10569	 13.66995	 -1.44028	 30.51846	709.00598	 23.10	
 18.700	180.000	 25.47995	 -1.71699	 29.02758	 11.60425	 12.27532	 -1.49257	 30.53629	708.93103	 23.10	
 20.400	180.000	 24.47045	 -3.32514	 29.56756	 10.69581	 11.39897	 -1.41418	 30.53767	708.80603	 23.10	
 20.401	-175.153	 24.43587	 -3.29995	 29.48778	  9.22376	 12.82705	 -1.34422	 30.53199	708.71002	 23.10	
 20.407	-170.264	 24.42610	 -3.19390	 29.29311	  7.76637	 14.24354	 -1.32420	 30.54474	708.83698	 23.10	
 20.410	-165.423	 24.39056	 -2.96575	 28.91657	  6.35455	 15.72369	 -1.32506	 30.51266	708.79797	 23.10	
 20.392	-160.496	 24.40969	 -2.69922	 28.45973	  5.11337	 17.20321	 -1.32672	 30.54080	708.90802	 23.10	
 20.401	-155.705	 24.35339	 -2.36958	 27.81943	  3.98040	 18.57642	 -1.34500	 30.51715	708.79797	 23.10	
 20.405	-150.835	 24.37211	 -1.91914	 27.12223	  2.88928	 20.04494	 -1.35903	 30.56820	708.88800	 23.10	
 20.397	-145.903	 24.34838	 -1.37260	 26.24098	  1.89290	 21.41372	 -1.39406	 30.56137	708.78302	 23.10	
 20.392	-141.062	 24.34395	 -0.72976	 25.26394	  0.98600	 22.70721	 -1.39540	 30.56407	708.75000	 23.10	
 20.396	-136.227	 24.27248	 -0.04666	 24.11373	  0.11128	 23.88207	 -1.40474	 30.51212	708.76202	 23.10	
 20.408	-131.372	 24.24399	  0.70361	 22.92430	 -0.67220	 25.02279	 -1.39849	 30.53360	708.82800	 23.10	
 20.410	-126.511	 24.25771	  1.54841	 21.67718	 -1.30460	 26.05398	 -1.39504	 30.55054	708.68799	 23.10	
 20.400	-121.604	 24.25221	  2.48701	 20.33026	 -1.88219	 26.96879	 -1.35801	 30.56627	708.77301	 23.10	
 20.403	-116.741	 24.19964	  3.46953	 19.00854	 -2.41452	 27.72958	 -1.32102	 30.53090	708.77502	 23.10	
 20.413	-111.900	 24.15213	  4.49226	 17.57899	 -2.86840	 28.37242	 -1.25758	 30.52650	708.71301	 23.10	
 20.398	-107.004	 24.12220	  5.70483	 16.11568	 -3.20452	 28.87736	 -1.14113	 30.50421	708.90698	 23.10	
 20.394	-102.132	 24.12071	  7.02127	 14.61396	 -3.43649	 29.26482	 -1.04685	 30.49396	709.62799	 23.10	
 20.403	-97.332	 24.13183	  8.38082	 13.03851	 -3.57806	 29.53095	 -0.98535	 30.52875	709.58099	 23.10	
 20.392	-92.440	 24.16311	  9.81250	 11.48884	 -3.64582	 29.66777	 -0.94921	 30.54140	708.88800	 23.10	
 20.392	-87.560	 24.13503	 11.23480	 10.00241	 -3.63187	 29.64903	 -0.95020	 30.51134	708.97998	 23.10	
 20.403	-82.668	 24.14992	 12.80646	  8.58434	 -3.57926	 29.57135	 -0.93927	 30.53495	709.01202	 23.10	
 20.394	-77.868	 24.12633	 14.29428	  7.22036	 -3.39885	 29.28178	 -0.93986	 30.48115	708.94098	 23.10	
 20.398	-72.996	 24.19146	 15.85933	  5.90196	 -3.17029	 28.95621	 -0.93146	 30.53951	708.87701	 23.10	
 20.413	-68.100	 24.22242	 17.38370	  4.62912	 -2.86337	 28.46749	 -0.89637	 30.56532	709.01202	 23.10	
 20.403	-63.259	 24.18507	 18.77240	  3.46710	 -2.47742	 27.76438	 -0.90451	 30.51039	708.99402	 23.10	
 20.400	-58.396	 24.23495	 20.18008	  2.44822	 -1.99017	 27.02530	 -0.92861	 30.55886	709.00897	 23.10	
 20.410	-53.489	 24.25668	 21.51404	  1.45164	 -1.33971	 26.13629	 -0.99756	 30.53945	708.99500	 23.10	
 20.408	-48.628	 24.24562	 22.79988	  0.59894	 -0.70059	 25.12948	 -1.00144	 30.54191	708.88800	 23.10	
 20.396	-43.773	 24.26550	 24.03616	 -0.17831	  0.07705	 24.01618	 -1.03523	 30.55215	708.89301	 23.10	
 20.392	-38.938	 24.26339	 25.16241	 -0.87777	  0.93035	 22.78970	 -1.05833	 30.54189	708.94397	 23.10	
 20.397	-34.097	 24.25354	 26.16352	 -1.47816	  1.83889	 21.49954	 -1.04895	 30.53577	708.90002	 23.10	
 20.405	-29.165	 24.22560	 27.04214	 -1.98824	  2.84199	 20.12317	 -1.08188	 30.52318	708.89099	 23.10	
 20.401	-24.295	 24.24485	 27.83063	 -2.42082	  3.94827	 18.70211	 -1.08554	 30.53148	708.79797	 23.10	
 20.392	-19.504	 24.27303	 28.49096	 -2.76922	  5.07155	 17.27242	 -1.10281	 30.56717	708.77600	 23.10	
 20.410	-14.577	 24.22498	 28.96891	 -3.07816	  6.32089	 15.75334	 -1.08566	 30.55172	708.80298	 23.10	
 20.407	 -9.736	 24.19367	 29.30213	 -3.30169	  7.73381	 14.28527	 -1.05324	 30.52719	708.80603	 23.10	
 20.401	 -4.847	 24.21314	 29.55556	 -3.45737	  9.22506	 12.89257	 -1.02196	 30.55490	708.75201	 23.10	
 20.400	  0.000	 24.18183	 29.62008	 -3.49425	 10.67491	 11.39624	 -1.00423	 30.52508	708.63098	 23.10	
 20.401	  4.847	 24.17442	 29.59039	 -3.42730	 12.16801	  9.84705	 -0.97534	 30.53616	708.63800	 23.10	
 20.407	  9.736	 24.14529	 29.40184	 -3.30759	 13.57805	  8.42485	 -0.98638	 30.50227	708.68500	 23.10	
 20.410	 14.577	 24.18420	 29.16011	 -3.05635	 15.03571	  7.10510	 -1.00745	 30.55951	708.77600	 23.10	
 20.392	 19.504	 24.18642	 28.70677	 -2.75214	 16.56746	  5.86680	 -1.01686	 30.54616	708.78302	 23.10	
 20.401	 24.295	 24.15445	 28.11926	 -2.37745	 17.98935	  4.76366	 -1.02865	 30.50595	708.78400	 23.10	
 20.405	 29.165	 24.18401	 27.45208	 -1.94143	 19.46838	  3.68354	 -1.07451	 30.53627	708.76398	 23.10	
 20.397	 34.097	 24.17454	 26.57901	 -1.39515	 20.88491	  2.62236	 -1.14731	 30.50754	708.77899	 23.10	
 20.392	 38.938	 24.20393	 25.63713	 -0.79616	 22.21111	  1.68347	 -1.20472	 30.52407	708.79199	 23.10	
 20.396	 43.773	 24.23677	 24.59127	 -0.11449	 23.46069	  0.84703	 -1.27210	 30.53173	708.90698	 23.10	
 20.408	 48.628	 24.21946	 23.40974	  0.64010	 24.61831	  0.04960	 -1.31580	 30.52065	708.88501	 23.10	
 20.410	 53.489	 24.23255	 22.15129	  1.49245	 25.68953	 -0.61220	 -1.35132	 30.52308	708.95898	 23.10	
 20.400	 58.396	 24.24413	 20.84582	  2.46509	 26.64050	 -1.20986	 -1.37189	 30.54238	708.87299	 23.10	
 20.403	 63.259	 24.29432	 19.54004	  3.53009	 27.48756	 -1.69042	 -1.40472	 30.56039	708.85400	 23.10	
 20.413	 68.100	 24.29230	 18.16813	  4.69926	 28.13927	 -2.10398	 -1.39386	 30.53598	708.82599	 23.20	
 20.398	 72.996	 24.33353	 16.72968	  5.97110	 28.70739	 -2.41259	 -1.35964	 30.55261	708.82098	 23.20	
 20.394	 77.868	 24.34111	 15.18038	  7.30182	 29.09189	 -2.64419	 -1.30434	 30.53609	708.81201	 23.20	
 20.403	 82.668	 24.37391	 13.68103	  8.66513	 29.36571	 -2.78940	 -1.21102	 30.53846	708.83698	 23.20	
 20.392	 87.560	 24.40319	 12.21239	 10.11534	 29.47339	 -2.85115	 -1.16537	 30.51148	710.43201	 23.10	
 20.392	 92.440	 24.44308	 10.51566	 11.61672	 29.48242	 -2.83229	 -1.10751	 30.52813	708.74200	 23.20	
 20.403	 97.332	 24.45939	  9.07890	 13.15838	 29.36710	 -2.76898	 -1.09238	 30.52548	708.74402	 23.20	
 20.394	102.132	 24.49973	  7.71172	 14.70737	 29.12410	 -2.62409	 -1.11593	 30.53712	708.86200	 23.10	
 20.398	107.004	 24.52254	  6.36776	 16.26058	 28.73322	 -2.39837	 -1.15831	 30.53163	708.80298	 23.20	
 20.413	111.900	 24.53765	  5.07807	 17.74102	 28.20695	 -2.07724	 -1.20484	 30.53148	708.88000	 23.20	
 20.403	116.741	 24.58992	  3.98380	 19.14398	 27.57535	 -1.64262	 -1.28270	 30.56651	708.87701	 23.20	
 20.400	121.604	 24.58207	  2.96007	 20.49217	 26.75337	 -1.21290	 -1.35480	 30.53003	708.82300	 23.20	
 20.410	126.511	 24.61372	  1.99796	 21.87592	 25.84298	 -0.63828	 -1.43435	 30.56645	708.74103	 23.20	
 20.408	131.372	 24.64226	  1.03257	 23.17663	 24.79947	  0.03923	 -1.51314	 30.57740	708.79797	 23.20	
 20.396	136.227	 24.63251	  0.22077	 24.35242	 23.61566	  0.88981	 -1.54219	 30.55633	708.77600	 23.20	
 20.392	141.062	 24.59181	 -0.49678	 25.41239	 22.34981	  1.72319	 -1.57668	 30.51917	708.73401	 23.20	
 20.397	145.903	 24.60201	 -1.06509	 26.40970	 21.05560	  2.61700	 -1.61975	 30.54814	708.80701	 23.20	
 20.405	150.835	 24.59334	 -1.62351	 27.28286	 19.61545	  3.64316	 -1.63580	 30.54571	708.90503	 23.20	
 20.401	155.705	 24.58823	 -2.08517	 28.00003	 18.14639	  4.71992	 -1.64540	 30.53864	708.92200	 23.20	
 20.392	160.496	 24.56440	 -2.44468	 28.54761	 16.67706	  5.79076	 -1.62909	 30.52225	708.82300	 23.20	
 20.410	165.423	 24.56002	 -2.78119	 29.03549	 15.14595	  7.08661	 -1.60215	 30.54795	708.97998	 23.20	
 20.407	170.264	 24.51854	 -3.03101	 29.33077	 13.65615	  8.46804	 -1.53486	 30.53311	708.92200	 23.20	
 20.401	175.153	 24.47801	 -3.24634	 29.49187	 12.19550	  9.93005	 -1.46618	 30.52032	708.91602	 23.20	
  0.141	 45.000	 30.54708	 17.10917	 16.87556	 16.62203	 17.08838	  0.28664	 30.50423	708.96997	 23.20	
  4.001	128.691	 30.49763	 14.62306	 18.86948	 19.18893	 14.38014	  0.18099	 30.54457	709.05103	 23.20	
  4.002	 76.995	 30.46688	 17.65968	 15.97743	 19.90110	 13.70598	  0.18980	 30.51041	708.93103	 23.20	
  4.002	 25.892	 30.47500	 19.91971	 13.60430	 17.92188	 15.43072	  0.18933	 30.52251	709.03400	 23.20	
  4.002	-25.892	 30.45985	 19.85391	 13.52899	 14.83774	 18.55867	  0.16022	 30.51572	708.98401	 23.20	
  4.002	-76.995	 30.42927	 17.52742	 15.92402	 12.98020	 20.46815	  0.11504	 30.50297	708.87402	 23.20	
  4.001	-128.691	 30.45436	 14.49385	 18.82588	 13.67449	 19.80396	  0.14446	 30.53289	708.89001	 23.20	
  4.000	180.000	 30.44862	 13.26572	 20.20500	 16.27801	 16.96161	  0.17620	 30.49389	708.90802	 23.20	
  8.000	180.000	 29.89228	  9.38737	 23.24813	 15.56243	 16.30110	 -0.27582	 30.56054	708.84601	 23.20	
  7.991	-152.370	 29.82880	 10.03817	 22.31696	 12.41521	 19.59209	 -0.24306	 30.53032	708.78998	 23.20	
  7.997	-124.550	 29.80151	 12.05478	 19.94812	 10.02155	 22.26567	 -0.31196	 30.53099	708.75800	 23.20	
  8.006	-96.837	 29.75924	 15.02992	 16.80482	  8.92031	 23.53745	 -0.40498	 30.51150	708.86200	 23.20	
  7.988	-69.228	 29.77264	 18.45632	 13.37032	  9.34521	 23.09765	 -0.45993	 30.50407	708.87402	 23.20	
  7.997	-41.563	 29.72892	 21.23284	 10.75614	 11.06071	 21.01435	 -0.38898	 30.44110	708.92499	 23.20	
  8.008	-13.821	 29.75560	 22.98990	  9.39814	 13.97883	 17.85673	 -0.33104	 30.45786	710.51801	 23.20	
  8.008	 13.821	 29.78914	 23.07647	  9.44578	 17.26701	 14.58095	 -0.27464	 30.49200	708.75500	 23.20	
  7.997	 41.563	 29.84949	 21.48454	 10.87125	 20.46724	 11.85112	 -0.22840	 30.53106	708.82098	 23.20	
  7.988	 69.228	 29.87239	 18.65534	 13.45959	 22.54825	 10.14496	 -0.24649	 30.52616	708.81500	 23.20	
  8.006	 96.837	 29.85783	 15.25392	 16.85757	 22.98611	  9.75300	 -0.32933	 30.48883	708.93103	 23.20	
  7.997	124.550	 29.87855	 12.21221	 19.99326	 21.66201	 10.84570	 -0.31145	 30.49792	708.96899	 23.20	
  7.991	152.370	 29.89809	 10.21761	 22.35884	 18.97601	 13.15688	 -0.26674	 30.51955	708.98999	 23.20	
 12.009	161.059	 28.67162	  5.40238	 25.25122	 17.89705	 11.88425	 -0.83719	 30.47921	708.94702	 23.20	
 12.013	142.081	 28.68651	  6.91416	 23.43099	 21.19558	  8.99347	 -0.85184	 30.49072	708.91602	 23.20	
 12.006	123.113	 28.70736	  9.35136	 20.70844	 23.79337	  6.86596	 -0.92214	 30.48544	708.92401	 23.20	
 12.007	104.200	 28.68518	 12.44492	 17.50310	 25.38528	  5.64579	 -0.98886	 30.49341	709.02301	 23.20	
 11.989	 85.301	 28.67139	 15.95324	 13.99816	 25.71019	  5.37793	 -0.91779	 30.51721	709.05902	 23.20	
 12.013	 66.294	 28.61181	 19.34250	 10.65650	 24.68705	  6.16795	 -0.74054	 30.49207	708.87402	 23.20	
 12.012	 47.388	 28.58338	 22.32998	  7.88498	 22.58141	  7.84485	 -0.75505	 30.50174	708.89099	 23.20	
 11.990	 28.440	 28.55235	 24.61864	  5.88979	 19.64585	 10.28004	 -0.82432	 30.50205	708.94897	 23.20	
 11.991	  9.464	 28.53272	 25.82861	  4.97898	 16.17586	 13.27018	 -0.87404	 30.47972	708.83099	 23.20	
 11.991	 -9.464	 28.56141	 25.78822	  4.96288	 12.75706	 16.73322	 -0.88687	 30.50808	708.96899	 23.20	
 11.990	-28.440	 28.54684	 24.41035	  5.74085	  9.55964	 20.21029	 -0.90321	 30.50223	708.82001	 23.20	
 12.012	-47.388	 28.54622	 22.01959	  7.54903	  6.96978	 23.18094	 -0.97375	 30.51801	709.01202	 23.20	
 12.013	-66.294	 28.48690	 18.99626	 10.49901	  5.11498	 25.22673	 -1.07949	 30.48092	708.92999	 23.20	
 11.989	-85.301	 28.50920	 15.57492	 13.82954	  4.46729	 26.10091	 -1.09540	 30.50404	709.10400	 23.20	
 12.007	-104.200	 28.48705	 12.16377	 17.34616	  4.70205	 25.80695	 -0.96613	 30.50890	708.90802	 23.20	
 12.006	-123.113	 28.50612	  9.14342	 20.54940	  5.92246	 24.29203	 -0.82508	 30.50389	708.88000	 23.20	
 12.013	-142.081	 28.55632	  6.58715	 23.34825	  8.15244	 21.75271	 -0.82474	 30.50186	708.92499	 23.20	
 12.009	-161.059	 28.61090	  5.13301	 25.19791	 11.11021	 18.56356	 -0.87208	 30.51069	708.88800	 23.20	
 16.000	180.000	 26.89455	  0.84440	 27.90923	 12.82832	 13.48364	 -1.42997	 30.48781	708.99799	 23.20	
 15.990	-165.604	 26.87063	  1.14078	 27.41488	  9.48520	 16.95135	 -1.38302	 30.50718	708.99500	 23.20	
 16.002	-151.165	 26.81648	  2.02155	 25.96752	  6.25178	 20.34014	 -1.32023	 30.48626	708.99402	 23.20	
 16.002	-136.836	 26.74509	  3.50049	 23.65016	  3.88667	 23.38801	 -1.25359	 30.47546	709.05701	 23.20	
 15.995	-122.439	 26.73660	  5.74664	 20.70476	  2.17270	 25.81137	 -1.23283	 30.49758	709.08502	 23.20	
 15.993	-107.966	 26.65292	  8.69425	 17.46615	  0.95898	 27.41794	 -1.23666	 30.49086	709.07001	 23.20	
 16.005	-93.629	 26.67135	 12.10646	 13.95652	  0.47524	 28.16213	 -1.19503	 30.51986	709.06500	 23.20	
 15.992	-79.234	 26.66855	 15.54529	 10.27459	  0.67355	 27.94343	 -1.15419	 30.49911	708.94702	 23.20	
 16.009	-64.774	 26.73189	 18.95916	  7.14791	  1.47347	 26.82673	 -1.17956	 30.52564	709.00897	 23.20	
 15.997	-50.364	 26.73156	 22.18217	  4.56375	  2.92912	 24.72225	 -1.20122	 30.47908	708.94397	 23.20	
 15.997	-36.045	 26.71290	 24.86728	  2.60662	  4.90549	 21.94061	 -1.19144	 30.46272	708.99200	 23.20	
 16.000	-21.597	 26.72102	 26.82812	  1.39513	  7.82687	 18.67826	 -1.20739	 30.47823	708.92102	 23.20	
 16.003	 -7.169	 26.74831	 27.85575	  0.79806	 11.15708	 15.14192	 -1.21382	 30.52193	708.95898	 23.20	
 16.003	  7.169	 26.71991	 27.90516	  0.77876	 14.57812	 11.78642	 -1.17886	 30.49281	708.84302	 23.20	
 16.000	 21.597	 26.70648	 27.03482	  1.42128	 18.04239	  8.56691	 -1.17339	 30.49412	708.87598	 23.20	
 15.997	 36.045	 26.75676	 25.26596	  2.69421	 21.38935	  5.75428	 -1.21781	 30.50713	708.85999	 23.20	
 15.997	 50.364	 26.77064	 22.67415	  4.65022	 24.23898	  3.74266	 -1.17187	 30.49340	708.95502	 23.20	
 16.009	 64.774	 26.82541	 19.61040	  7.22009	 26.35588	  2.32378	 -1.17090	 30.51220	708.84302	 23.20	
 15.992	 79.234	 26.83662	 16.17077	 10.54341	 27.55192	  1.49877	 -1.28186	 30.49078	708.95203	 23.20	
 16.005	 93.629	 26.89628	 12.68030	 14.07019	 27.80998	  1.33474	 -1.34977	 30.49489	708.82898	 23.20	
 15.993	107.966	 26.96105	  9.15211	 17.61825	 27.08335	  1.84824	 -1.35366	 30.48613	708.93298	 23.20	
 15.995	122.439	 27.01893	  6.18262	 20.88745	 25.44887	  2.95339	 -1.39784	 30.50594	708.95300	 23.20	
 16.002	136.836	 27.01983	  3.85886	 23.84451	 22.96619	  4.66166	 -1.38241	 30.50047	708.85199	 23.20	
 16.002	151.165	 26.98348	  2.29529	 26.08027	 19.85227	  7.17564	 -1.36264	 30.49076	708.91400	 23.20	
 15.990	165.604	 26.97756	  1.31464	 27.47571	 16.32104	 10.27722	 -1.38459	 30.50082	708.94397	 23.20	
 20.003	168.362	 24.76018	 -2.53868	 29.08488	 14.35329	  8.19007	 -1.58441	 30.51405	708.92499	 23.20	
 20.008	156.764	 24.76001	 -1.81293	 27.97195	 17.85911	  5.20750	 -1.65613	 30.47154	708.97601	 23.20	
 20.000	145.147	 24.82239	 -0.65264	 26.18918	 21.25535	  2.80550	 -1.61248	 30.52621	708.95502	 23.20	
 19.995	133.545	 24.83114	  0.99909	 23.64905	 24.18715	  0.80409	 -1.54359	 30.49028	708.86798	 23.20	
 20.009	121.926	 24.77966	  3.17547	 20.59295	 26.57858	 -0.81898	 -1.39348	 30.49057	708.84302	 23.20	
 20.005	110.327	 24.76238	  5.76328	 17.36120	 28.25339	 -1.80347	 -1.21283	 30.50451	708.85101	 23.20	
 19.989	 98.733	 24.70042	  8.92803	 13.78345	 29.14211	 -2.33022	 -1.12368	 30.48629	708.90802	 23.20	
 19.999	 87.075	 24.63506	 12.52122	 10.20947	 29.29830	 -2.44257	 -1.20545	 30.47182	708.77301	 23.20	
 19.992	 75.457	 24.57793	 16.05534	  6.94381	 28.73995	 -2.10698	 -1.34045	 30.48830	708.76599	 23.20	
 20.009	 63.844	 24.52641	 19.40060	  4.00841	 27.42279	 -1.33632	 -1.41298	 30.49321	708.87598	 23.20	
 19.989	 52.269	 24.47352	 22.49040	  1.66574	 25.32954	 -0.08557	 -1.32575	 30.50538	708.83398	 23.20	
 19.999	 40.602	 24.46666	 25.24082	 -0.22297	 22.63962	  1.73332	 -1.25354	 30.52155	708.84900	 23.20	
 20.004	 29.051	 24.41255	 27.35523	 -1.58059	 19.45659	  4.01947	 -1.11205	 30.50277	708.81403	 23.20	
 20.005	 17.433	 24.39863	 28.74471	 -2.49503	 16.01241	  6.64016	 -1.01975	 30.49125	708.89398	 23.20	
 20.006	  5.780	 24.38125	 29.40555	 -3.05336	 12.60531	  9.81726	 -0.99310	 30.48498	708.84900	 23.20	
 20.006	 -5.780	 24.40109	 29.33535	 -3.05325	  9.17788	 13.28525	 -1.04876	 30.48035	708.95203	 23.20	
 20.005	-17.433	 24.41372	 28.50352	 -2.53905	  5.83922	 16.69500	 -1.10397	 30.45177	708.91400	 23.20	
 20.004	-29.051	 24.45952	 26.96477	 -1.65581	  3.18476	 20.11830	 -1.08805	 30.48355	708.85199	 23.20	
 19.999	-40.602	 24.48718	 24.71904	 -0.32270	  0.98122	 23.18843	 -1.05829	 30.50502	708.92102	 23.20	
 19.989	-52.269	 24.45881	 21.84947	  1.55783	 -0.84662	 25.79286	 -0.98154	 30.48963	708.89398	 23.20	
 20.009	-63.844	 24.44368	 18.67134	  3.90911	 -2.09349	 27.74172	 -0.96186	 30.49119	708.99799	 23.20	
 19.992	-75.457	 24.39175	 15.22349	  6.83270	 -2.88663	 28.97275	 -0.93336	 30.45789	708.96399	 23.20	
 19.999	-87.075	 24.36915	 11.66170	 10.06721	 -3.22966	 29.49025	 -0.96513	 30.46326	708.88501	 23.20	
 19.989	-98.733	 24.35894	  8.26089	 13.67433	 -3.14211	 29.30768	 -1.02758	 30.47554	708.93597	 23.20	
 20.005	-110.327	 24.36210	  5.18313	 17.16591	 -2.59699	 28.41260	 -1.25532	 30.46138	708.97803	 23.20	
 20.009	-121.926	 24.43240	  2.73799	 20.37399	 -1.50084	 26.79099	 -1.37650	 30.47836	708.99799	 23.20	
 19.995	-133.545	 24.49322	  0.71082	 23.42698	  0.03220	 24.48774	 -1.40429	 30.49302	708.97498	 23.20	
 20.000	-145.147	 24.51235	 -0.90186	 25.93165	  2.06906	 21.58797	 -1.41714	 30.44697	708.88800	 23.20	
 20.008	-156.764	 24.59144	 -2.07074	 27.85604	  4.50594	 18.34283	 -1.36358	 30.48536	709.04602	 23.20	
 20.003	-168.362	 24.63607	 -2.70512	 29.00264	  7.46610	 14.96309	 -1.38452	 30.48924	708.88800	 23.20	
 20.000	180.000	 24.64667	 -2.92361	 29.36298	 10.87831	 11.59212	 -1.45353	 30.45643	708.95599	 23.20	
