FileType=PCF
NHL=14
Date=08/28/17	10:03:21
Facility=APL
Serial=16328-10
Customer=NASA
NP=6
Mach=0.150000
Calibration=1:1
CalPts=490
TstPts=95
PortNumbering=AP Standard
Units=Torr C m/s kg/m^3 deg mm 
Theta[deg]	Phi[deg]	P1[Torr]	P2[Torr]	P3[Torr]	P4[Torr]	P5[Torr]	P6[Torr]	Pt[Torr]	Ps[Abs,Torr]	Ts[C]	
  0.000	  0.000	 11.12168	  6.11029	  6.08811	  5.99756	  6.27361	  0.07711	 11.11099	707.70599	 23.70	
  1.691	128.401	 11.10765	  5.76364	  6.40411	  6.40278	  5.83501	  0.07559	 11.09503	707.89801	 23.70	
  1.692	 77.194	 11.10872	  6.22038	  5.94948	  6.51244	  5.73552	  0.07522	 11.10012	707.83197	 23.70	
  1.699	 26.182	 11.11051	  6.58466	  5.59186	  6.22685	  6.01495	  0.07371	 11.10306	707.76703	 23.70	
  1.699	-26.182	 11.10283	  6.57060	  5.58829	  5.74418	  6.48293	  0.06719	 11.09538	707.78003	 23.70	
  1.692	-77.194	 11.12230	  6.21107	  5.95562	  5.47805	  6.77227	  0.06494	 11.11476	707.73700	 23.70	
  1.691	-128.401	 11.13864	  5.76774	  6.41808	  5.57811	  6.68723	  0.06913	 11.13064	707.74200	 23.70	
  1.700	180.000	 11.12954	  5.56624	  6.62362	  5.98858	  6.26357	  0.07177	 11.11605	707.85303	 23.70	
  3.400	180.000	 11.10964	  5.00979	  7.13210	  5.93560	  6.21445	  0.04839	 11.11525	707.73499	 23.70	
  3.388	-152.325	 11.08935	  5.11065	  6.98701	  5.44240	  6.69814	  0.04463	 11.09810	707.76001	 23.70	
  3.397	-124.529	 11.09164	  5.42398	  6.63373	  5.07876	  7.09324	  0.04000	 11.10423	708.53601	 23.70	
  3.399	-96.763	 11.08980	  5.89280	  6.12763	  4.90563	  7.27046	  0.02735	 11.10626	707.76501	 23.70	
  3.394	-69.283	 11.11470	  6.42147	  5.64718	  4.97816	  7.22959	  0.03109	 11.12871	707.73499	 23.70	
  3.400	-41.398	 11.09880	  6.85349	  5.22550	  5.25379	  6.90167	  0.02128	 11.11053	707.75403	 23.70	
  3.401	-14.021	 11.08238	  7.10490	  5.00606	  5.67468	  6.45500	  0.04033	 11.09074	707.77698	 23.70	
  3.401	 14.021	 11.11173	  7.13490	  5.02489	  6.21573	  5.94817	  0.04859	 11.12180	707.79797	 23.70	
  3.400	 41.398	 11.10508	  6.88480	  5.24821	  6.66461	  5.52198	  0.05217	 11.11354	707.69800	 23.70	
  3.394	 69.283	 11.10145	  6.45681	  5.64355	  6.94889	  5.24817	  0.04851	 11.10657	707.63898	 23.70	
  3.399	 96.763	 11.14498	  5.94727	  6.18709	  7.04160	  5.20822	  0.04601	 11.14472	707.66302	 23.70	
  3.397	124.529	 11.13029	  5.48167	  6.65213	  6.85131	  5.36645	  0.04574	 11.13597	707.78497	 23.70	
  3.388	152.325	 11.08637	  5.13293	  6.96920	  6.44041	  5.70414	  0.04809	 11.09208	707.61902	 23.70	
  5.099	161.165	 11.07863	  4.49612	  7.54999	  6.39339	  5.60775	  0.00642	 11.13227	708.28900	 23.70	
  5.109	142.013	 11.06103	  4.73846	  7.26655	  6.88566	  5.14711	  0.00352	 11.11360	707.76202	 23.70	
  5.095	123.033	 11.05077	  5.11003	  6.83948	  7.24811	  4.82223	  0.00326	 11.09827	707.80200	 23.70	
  5.105	104.191	 11.05136	  5.58474	  6.33262	  7.48836	  4.62180	  0.00008	 11.10195	707.76001	 23.70	
  5.093	 85.207	 11.05821	  6.11988	  5.80242	  7.53409	  4.59083	  0.00567	 11.11013	707.67499	 23.70	
  5.104	 66.290	 11.07233	  6.65948	  5.30429	  7.40454	  4.71419	  0.01041	 11.12442	707.68298	 23.70	
  5.094	 47.331	 11.06035	  7.11661	  4.87559	  7.08247	  4.97556	  0.00936	 11.11558	707.74597	 23.70	
  5.089	 28.397	 11.05717	  7.45936	  4.56985	  6.64380	  5.36586	  0.00195	 11.11704	707.82098	 23.70	
  5.096	  9.576	 11.03930	  7.62849	  4.39770	  6.11809	  5.84130	 -0.00868	 11.10021	707.73499	 23.70	
  5.096	 -9.576	 11.05507	  7.62925	  4.39880	  5.57695	  6.39594	 -0.01547	 11.11967	707.84601	 23.70	
  5.089	-28.397	 11.06280	  7.43811	  4.55939	  5.09799	  6.90704	 -0.02739	 11.12871	707.73700	 23.70	
  5.094	-47.331	 11.04034	  7.06815	  4.84931	  4.68457	  7.33737	 -0.03194	 11.11216	707.79102	 23.70	
  5.104	-66.290	 11.03135	  6.59035	  5.26846	  4.40198	  7.64830	 -0.03728	 11.10556	707.79901	 23.70	
  5.093	-85.207	 11.03727	  6.06280	  5.77643	  4.28216	  7.79028	 -0.03476	 11.10693	707.74200	 23.70	
  5.105	-104.191	 11.04294	  5.52650	  6.32727	  4.31931	  7.75163	 -0.02362	 11.11682	707.76501	 23.70	
  5.095	-123.033	 11.04273	  5.05811	  6.83284	  4.52030	  7.51935	 -0.01057	 11.11147	707.67999	 23.70	
  5.109	-142.013	 11.03930	  4.68903	  7.25015	  4.86122	  7.12932	 -0.00470	 11.10627	707.65900	 23.80	
  5.099	-161.165	 11.06475	  4.47074	  7.54293	  5.32952	  6.65056	  0.00224	 11.12625	707.78998	 23.70	
  5.100	180.000	 11.07001	  4.40669	  7.63764	  5.84497	  6.13070	  0.00430	 11.12359	707.70801	 23.70	
  6.800	180.000	 10.96147	  3.76832	  8.11456	  5.73123	  6.00381	 -0.06355	 11.11147	707.80499	 23.80	
  6.796	-166.229	 10.95887	  3.81021	  8.04591	  5.21634	  6.52682	 -0.05898	 11.11168	707.90100	 23.80	
  6.808	-152.311	 10.96400	  3.97045	  7.84956	  4.73977	  7.04055	 -0.06003	 11.12449	707.76501	 23.70	
  6.795	-138.383	 10.93605	  4.23113	  7.50626	  4.31380	  7.48588	 -0.07228	 11.09920	707.80103	 23.70	
  6.792	-124.591	 10.95131	  4.60159	  7.09621	  3.99134	  7.87441	 -0.07863	 11.12105	708.48199	 23.70	
  6.787	-110.754	 10.93804	  5.03863	  6.59959	  3.76610	  8.12793	 -0.08861	 11.11440	707.83301	 23.70	
  6.800	-96.985	 10.93894	  5.53700	  6.07722	  3.65226	  8.26464	 -0.10454	 11.11665	707.74298	 23.70	
  6.800	-83.015	 10.95011	  6.08138	  5.54405	  3.65709	  8.27124	 -0.12429	 11.12365	707.79303	 23.80	
  6.787	-69.246	 10.95512	  6.60875	  5.04930	  3.77583	  8.14053	 -0.12196	 11.12941	707.78003	 23.80	
  6.792	-55.409	 10.94932	  7.09701	  4.59994	  3.99431	  7.87790	 -0.11819	 11.11984	707.87201	 23.80	
  6.795	-41.617	 10.95522	  7.52698	  4.23534	  4.32471	  7.50918	 -0.10943	 11.12004	707.80701	 23.80	
  6.808	-27.689	 10.95951	  7.86437	  3.95960	  4.74106	  7.05023	 -0.09658	 11.12092	707.88300	 23.80	
  6.796	-13.771	 10.97742	  8.08734	  3.80555	  5.23019	  6.55281	 -0.08323	 11.14045	707.94000	 23.70	
  6.800	  0.000	 10.97725	  8.16457	  3.75168	  5.74672	  6.02753	 -0.07920	 11.13489	707.94598	 23.70	
  6.796	 13.771	 10.95506	  8.08690	  3.80502	  6.27033	  5.49712	 -0.07155	 11.11403	707.83801	 23.70	
  6.808	 27.689	 10.97962	  7.91254	  3.98230	  6.79859	  5.03185	 -0.05885	 11.13460	707.84399	 23.80	
  6.795	 41.617	 10.96745	  7.57983	  4.26161	  7.24470	  4.62656	 -0.05387	 11.11885	707.89398	 23.80	
  6.792	 55.409	 10.95754	  7.15907	  4.62519	  7.60901	  4.30474	 -0.05211	 11.10170	707.93903	 23.80	
  6.787	 69.246	 10.97693	  6.68604	  5.07779	  7.88651	  4.09233	 -0.05396	 11.11800	707.83301	 23.80	
  6.800	 83.015	 10.98989	  6.17223	  5.57592	  8.04021	  3.97943	 -0.06445	 11.13013	707.91901	 23.80	
  6.800	 96.985	 10.98700	  5.63243	  6.10885	  8.03555	  3.97520	 -0.06979	 11.12599	707.84100	 23.80	
  6.787	110.754	 10.97285	  5.12541	  6.61999	  7.88195	  4.08614	 -0.06546	 11.10863	707.91101	 23.80	
  6.792	124.591	 10.98551	  4.68207	  7.11797	  7.62670	  4.30943	 -0.06542	 11.11844	707.81598	 23.80	
  6.795	138.383	 10.98785	  4.31302	  7.53709	  7.24997	  4.62924	 -0.06748	 11.12394	708.22302	 23.80	
  6.808	152.311	 10.97748	  4.01833	  7.85799	  6.79027	  5.02227	 -0.05962	 11.11607	708.44598	 23.80	
  6.796	166.229	 10.96650	  3.83917	  8.04853	  6.27150	  5.48558	 -0.05792	 11.11072	708.13599	 23.80	
  8.491	168.704	 10.83828	  3.17896	  8.51987	  6.14951	  5.33068	 -0.14305	 11.11062	707.76202	 23.80	
  8.502	157.493	 10.85842	  3.32982	  8.37000	  6.69028	  4.84862	 -0.13339	 11.12955	707.95398	 23.80	
  8.494	146.194	 10.86079	  3.57238	  8.09361	  7.19398	  4.41060	 -0.14485	 11.13011	707.83899	 23.80	
  8.495	135.039	 10.86206	  3.88854	  7.73030	  7.64172	  4.02943	 -0.15425	 11.12926	707.80701	 23.80	
  8.487	123.723	 10.85208	  4.28126	  7.27568	  8.00719	  3.71800	 -0.15529	 11.11901	707.87799	 23.80	
  8.492	112.575	 10.86569	  4.73539	  6.78960	  8.28992	  3.50590	 -0.15972	 11.13407	707.88397	 23.80	
  8.510	101.220	 10.85047	  5.23495	  6.24388	  8.45599	  3.36076	 -0.16641	 11.11692	707.86902	 23.80	
  8.500	 90.000	 10.84896	  5.76711	  5.70335	  8.50669	  3.32396	 -0.15796	 11.11829	707.90002	 23.80	
  8.510	 78.780	 10.84210	  6.31030	  5.16746	  8.45055	  3.36539	 -0.14155	 11.11489	707.90100	 23.80	
  8.492	 67.425	 10.82692	  6.83895	  4.65868	  8.26594	  3.49840	 -0.12698	 11.10554	707.88300	 23.80	
  8.487	 56.277	 10.85961	  7.35358	  4.22815	  8.01899	  3.73018	 -0.12686	 11.14073	707.93903	 23.80	
  8.495	 44.961	 10.83344	  7.78247	  3.82567	  7.63255	  4.02774	 -0.13420	 11.12178	707.84100	 23.80	
  8.494	 33.806	 10.81903	  8.13150	  3.51132	  7.17796	  4.40395	 -0.13418	 11.11284	707.93103	 23.80	
  8.502	 22.507	 10.82861	  8.40991	  3.28344	  6.68432	  4.85511	 -0.14295	 11.12653	707.89398	 23.80	
  8.491	 11.296	 10.82056	  8.56043	  3.14581	  6.14961	  5.34290	 -0.15791	 11.11743	707.83301	 23.80	
  8.500	  0.000	 10.81765	  8.61017	  3.08921	  5.59425	  5.87498	 -0.16375	 11.11781	707.91498	 23.80	
  8.491	-11.296	 10.83815	  8.55728	  3.14075	  5.06926	  6.42800	 -0.16310	 11.13807	707.86401	 23.80	
  8.502	-22.507	 10.82170	  8.36847	  3.26472	  4.56081	  6.94498	 -0.17177	 11.12665	708.00201	 23.80	
  8.494	-33.806	 10.80498	  8.06915	  3.48448	  4.09684	  7.43830	 -0.19348	 11.10918	707.93103	 23.80	
  8.495	-44.961	 10.81331	  7.70195	  3.79380	  3.71013	  7.88615	 -0.20375	 11.12024	708.00403	 23.80	
  8.487	-56.277	 10.81052	  7.24404	  4.18547	  3.40590	  8.24087	 -0.21243	 11.11765	707.95099	 23.80	
  8.492	-67.425	 10.82475	  6.75497	  4.63749	  3.18352	  8.52389	 -0.22188	 11.13595	707.83301	 23.80	
  8.510	-78.780	 10.81282	  6.20804	  5.13543	  3.03095	  8.69005	 -0.22910	 11.13177	707.83899	 23.80	
  8.500	-90.000	 10.81543	  5.66005	  5.67402	  2.98619	  8.74600	 -0.21513	 11.13725	707.87799	 23.80	
  8.510	-101.220	 10.80635	  5.12252	  6.21458	  3.02535	  8.68390	 -0.19039	 11.12413	707.65198	 23.80	
  8.492	-112.575	 10.81001	  4.62185	  6.75609	  3.17247	  8.50886	 -0.16605	 11.12582	707.85199	 23.80	
  8.487	-123.723	 10.81100	  4.17966	  7.25132	  3.39795	  8.23629	 -0.16049	 11.12285	707.78003	 23.80	
  8.495	-135.039	 10.79423	  3.78696	  7.68726	  3.69818	  7.86126	 -0.15792	 11.10429	707.75702	 23.80	
  8.494	-146.194	 10.83262	  3.50203	  8.07570	  4.10306	  7.44256	 -0.14485	 11.13163	707.85999	 23.80	
  8.502	-157.493	 10.83049	  3.27870	  8.35133	  4.56065	  6.93175	 -0.13593	 11.12253	707.79303	 23.80	
  8.491	-168.704	 10.82648	  3.15479	  8.50966	  5.05760	  6.40269	 -0.14810	 11.11210	707.73700	 23.80	
  8.500	180.000	 10.83959	  3.11749	  8.58105	  5.59552	  5.86828	 -0.15505	 11.12067	707.80200	 23.80	
 10.200	180.000	 10.68684	  2.46957	  9.01975	  5.43692	  5.70904	 -0.25199	 11.14024	707.70300	 23.80	
 10.191	-170.497	 10.67313	  2.49288	  8.96316	  4.89368	  6.24712	 -0.24827	 11.12955	707.84698	 23.80	
 10.210	-161.034	 10.65016	  2.58988	  8.80319	  4.36852	  6.77449	 -0.22901	 11.11433	707.81500	 23.80	
 10.194	-151.526	 10.64673	  2.77972	  8.55821	  3.88982	  7.30241	 -0.22984	 11.11318	707.91699	 23.80	
 10.190	-142.105	 10.62835	  3.02945	  8.22352	  3.46035	  7.77400	 -0.23303	 11.10450	707.87500	 23.90	
 10.215	-132.646	 10.64490	  3.35066	  7.84849	  3.09977	  8.21682	 -0.24323	 11.13031	707.76001	 23.90	
 10.203	-123.092	 10.64373	  3.74374	  7.38646	  2.79940	  8.58078	 -0.24446	 11.13824	707.88300	 23.90	
 10.192	-113.678	 10.63717	  4.19048	  6.87319	  2.57026	  8.85934	 -0.25052	 11.13567	707.75897	 23.90	
 10.208	-104.249	 10.61454	  4.66675	  6.32712	  2.40664	  9.04249	 -0.27806	 11.11713	707.79901	 23.90	
 10.210	-94.801	 10.63738	  5.20361	  5.78625	  2.33318	  9.15977	 -0.31031	 11.14246	707.85498	 23.90	
 10.210	-85.199	 10.62002	  5.75511	  5.21969	  2.33130	  9.14675	 -0.32767	 11.12549	707.82501	 23.80	
 10.208	-75.751	 10.61240	  6.30076	  4.68754	  2.40738	  9.04295	 -0.33096	 11.11273	707.87799	 23.90	
 10.192	-66.322	 10.62207	  6.83832	  4.20226	  2.57087	  8.85505	 -0.32066	 11.11351	707.79102	 23.90	
 10.203	-56.908	 10.63910	  7.36387	  3.75601	  2.80111	  8.58972	 -0.30888	 11.12556	707.84900	 23.90	
 10.215	-47.354	 10.64564	  7.84254	  3.35872	  3.10336	  8.23353	 -0.29409	 11.13506	707.86298	 23.90	
 10.190	-37.895	 10.63539	  8.23521	  3.03252	  3.46605	  7.79772	 -0.27989	 11.11876	707.80798	 23.90	
 10.194	-28.474	 10.64777	  8.57702	  2.77472	  3.89185	  7.32879	 -0.26858	 11.13240	707.77600	 23.90	
 10.210	-18.966	 10.64347	  8.82727	  2.58223	  4.36954	  6.79841	 -0.25719	 11.12791	707.80200	 23.90	
 10.191	 -9.503	 10.65869	  8.98971	  2.48237	  4.89346	  6.26853	 -0.24997	 11.14015	707.78400	 23.90	
 10.200	  0.000	 10.65220	  9.04609	  2.44328	  5.42936	  5.71954	 -0.24917	 11.13049	707.90302	 23.90	
 10.191	  9.503	 10.63680	  8.99618	  2.47829	  5.98388	  5.16739	 -0.24832	 11.11566	707.97302	 23.90	
 10.210	 18.966	 10.63925	  8.86165	  2.59257	  6.52939	  4.66208	 -0.23869	 11.11816	707.78003	 23.90	
 10.194	 28.474	 10.65515	  8.64143	  2.79290	  7.06303	  4.20153	 -0.22633	 11.12721	707.91998	 23.90	
 10.190	 37.895	 10.63365	  8.30925	  3.05118	  7.53762	  3.77176	 -0.21546	 11.10348	707.82202	 23.90	
 10.215	 47.354	 10.65764	  7.93888	  3.37835	  7.99219	  3.40899	 -0.21461	 11.12735	707.90802	 23.90	
 10.203	 56.908	 10.65343	  7.47367	  3.77721	  8.34685	  3.11639	 -0.20765	 11.11472	707.93903	 23.90	
 10.192	 66.322	 10.67391	  6.97579	  4.23861	  8.63459	  2.90763	 -0.20487	 11.12593	707.86102	 23.90	
 10.208	 75.751	 10.68335	  6.44652	  4.73392	  8.83888	  2.75385	 -0.22083	 11.12964	707.95001	 23.90	
 10.210	 85.199	 10.67223	  5.89178	  5.25192	  8.92793	  2.67186	 -0.24936	 11.11723	707.86401	 23.90	
 10.210	 94.801	 10.68158	  5.33312	  5.81598	  8.93173	  2.67352	 -0.26307	 11.12006	707.94202	 23.90	
 10.208	104.249	 10.70147	  4.81242	  6.37599	  8.84656	  2.75419	 -0.26610	 11.13761	707.95599	 23.90	
 10.192	113.678	 10.70008	  4.31785	  6.90704	  8.64474	  2.90749	 -0.25470	 11.12867	707.90002	 23.90	
 10.203	123.092	 10.69805	  3.86260	  7.41270	  8.36767	  3.12093	 -0.24818	 11.13103	707.88800	 23.90	
 10.215	132.646	 10.69713	  3.45206	  7.87836	  8.00646	  3.40689	 -0.24790	 11.13158	707.91199	 23.90	
 10.190	142.105	 10.69988	  3.12195	  8.27320	  7.57143	  3.77156	 -0.24048	 11.13292	707.90002	 23.90	
 10.194	151.526	 10.70314	  2.85230	  8.59761	  7.08261	  4.19610	 -0.22714	 11.14029	708.01001	 23.90	
 10.210	161.034	 10.66002	  2.63571	  8.80296	  6.52875	  4.64383	 -0.22030	 11.09816	707.89502	 23.90	
 10.191	170.497	 10.67056	  2.51855	  8.95140	  5.99160	  5.15346	 -0.23508	 11.10796	707.97302	 23.90	
 11.899	171.783	 10.46324	  1.86368	  9.35003	  5.80019	  4.95367	 -0.33079	 11.10947	707.90900	 23.90	
 11.890	163.610	 10.47140	  1.97052	  9.23150	  6.35350	  4.44927	 -0.31608	 11.11474	707.97699	 23.90	
 11.889	155.445	 10.47947	  2.14240	  9.03081	  6.89696	  3.97225	 -0.31578	 11.12024	707.92798	 23.90	
 11.909	147.299	 10.48071	  2.36698	  8.75274	  7.41764	  3.52407	 -0.32508	 11.11939	707.87000	 23.90	
 11.902	139.148	 10.48863	  2.66620	  8.40030	  7.89303	  3.13872	 -0.33171	 11.12409	707.90601	 23.90	
 11.894	130.867	 10.48950	  3.02270	  7.97531	  8.31082	  2.80608	 -0.33444	 11.12112	707.93597	 23.90	
 11.897	122.732	 10.50011	  3.42540	  7.51430	  8.67963	  2.52674	 -0.34268	 11.13285	707.85999	 23.90	
 11.903	114.597	 10.49237	  3.86624	  7.00370	  8.96804	  2.30174	 -0.35508	 11.12620	707.84601	 23.90	
 11.893	106.346	 10.48272	  4.36050	  6.45255	  9.17259	  2.14159	 -0.36551	 11.11998	707.85199	 23.90	
 11.892	 98.155	 10.48992	  4.88788	  5.90403	  9.30745	  2.05083	 -0.36497	 11.13067	708.07397	 23.90	
 11.900	 90.000	 10.47163	  5.42448	  5.34547	  9.34181	  2.01737	 -0.35984	 11.12301	708.11200	 23.90	
 11.892	 81.845	 10.45688	  5.97384	  4.79761	  9.28793	  2.05000	 -0.33518	 11.11375	707.95398	 23.90	
 11.893	 73.654	 10.48919	  6.54895	  4.29218	  9.19025	  2.15409	 -0.30391	 11.15244	707.91998	 23.90	
 11.903	 65.403	 10.45039	  7.06900	  3.78658	  8.94549	  2.30748	 -0.28615	 11.11564	707.96997	 23.90	
 11.897	 57.268	 10.45813	  7.58501	  3.34430	  8.66542	  2.53538	 -0.28823	 11.12987	707.88800	 23.90	
 11.894	 49.133	 10.45052	  8.04802	  2.94955	  8.30158	  2.81929	 -0.28976	 11.12811	707.84900	 23.90	
 11.902	 40.852	 10.42859	  8.45150	  2.59469	  7.86859	  3.14683	 -0.29925	 11.11352	707.97400	 23.90	
 11.909	 32.701	 10.42476	  8.80339	  2.30835	  7.39957	  3.53401	 -0.31105	 11.11752	708.12799	 23.90	
 11.889	 24.555	 10.43704	  9.08569	  2.09349	  6.88766	  3.98805	 -0.32145	 11.13253	707.87799	 23.90	
 11.890	 16.390	 10.43219	  9.27965	  1.93328	  6.34910	  4.46628	 -0.33704	 11.13165	708.00201	 23.90	
 11.899	  8.217	 10.43585	  9.40251	  1.83419	  5.80038	  4.97641	 -0.33787	 11.13155	708.06000	 23.90	
 11.900	  0.000	 10.43292	  9.43397	  1.79710	  5.23296	  5.52168	 -0.33101	 11.13044	707.98798	 23.90	
 11.899	 -8.217	 10.43571	  9.38291	  1.82632	  4.68950	  6.07018	 -0.33298	 11.13237	708.08301	 23.90	
 11.890	-16.390	 10.42671	  9.23578	  1.91935	  4.16947	  6.60760	 -0.33253	 11.12262	708.04401	 23.90	
 11.889	-24.555	 10.41746	  9.00913	  2.07216	  3.67288	  7.13887	 -0.34324	 11.11371	707.95599	 23.90	
 11.909	-32.701	 10.42082	  8.72026	  2.28715	  3.22646	  7.64971	 -0.35474	 11.12035	707.93103	 23.90	
 11.902	-40.852	 10.41763	  8.35086	  2.57172	  2.83559	  8.10702	 -0.36513	 11.11566	707.98999	 23.90	
 11.894	-49.133	 10.41123	  7.91222	  2.91397	  2.48670	  8.52184	 -0.37959	 11.11114	707.89398	 23.90	
 11.897	-57.268	 10.41383	  7.44337	  3.30367	  2.20074	  8.87763	 -0.39267	 11.11722	707.91101	 23.90	
 11.903	-65.403	 10.41668	  6.92947	  3.74726	  1.97381	  9.16759	 -0.40913	 11.12259	707.95099	 23.90	
 11.893	-73.654	 10.43100	  6.39202	  4.24936	  1.81805	  9.38457	 -0.41914	 11.14124	708.09100	 23.90	
 11.892	-81.845	 10.42867	  5.83660	  4.77028	  1.72364	  9.50610	 -0.41995	 11.14595	707.94202	 23.90	
 11.900	-90.000	 10.40862	  5.27096	  5.30430	  1.68320	  9.53402	 -0.41152	 11.12705	707.84601	 23.90	
 11.892	-98.155	 10.40353	  4.72891	  5.85505	  1.71787	  9.48392	 -0.39234	 11.12509	707.90302	 23.90	
 11.893	-106.346	 10.39283	  4.20921	  6.39965	  1.80882	  9.35237	 -0.36161	 11.11398	707.97699	 23.90	
 11.903	-114.597	 10.41750	  3.72680	  6.95648	  1.96735	  9.16558	 -0.33832	 11.13695	707.90002	 23.90	
 11.897	-122.732	 10.42767	  3.29263	  7.46969	  2.19817	  8.88136	 -0.32792	 11.13625	707.89203	 23.90	
 11.894	-130.867	 10.43430	  2.90986	  7.94275	  2.48699	  8.52566	 -0.32657	 11.13604	707.95599	 23.90	
 11.902	-139.148	 10.43660	  2.56832	  8.36739	  2.83613	  8.09985	 -0.32242	 11.13123	707.86700	 23.90	
 11.909	-147.299	 10.43958	  2.28871	  8.72521	  3.22641	  7.64020	 -0.32145	 11.13323	707.89502	 23.90	
 11.889	-155.445	 10.46302	  2.09010	  9.01938	  3.68440	  7.14248	 -0.32540	 11.14234	707.91101	 23.90	
 11.890	-163.610	 10.44840	  1.93339	  9.21140	  4.17211	  6.59074	 -0.33603	 11.11349	708.08301	 23.90	
 11.899	-171.783	 10.45843	  1.84458	  9.35040	  4.69358	  6.05025	 -0.35218	 11.12425	708.13000	 23.90	
 11.900	180.000	 10.46929	  1.82057	  9.40112	  5.24173	  5.50464	 -0.35029	 11.12560	707.97302	 23.90	
 13.600	180.000	 10.23792	  1.17872	  9.76635	  5.02396	  5.28361	 -0.44915	 11.13671	707.98999	 23.90	
 13.608	-172.853	 10.22654	  1.19013	  9.72497	  4.47975	  5.81995	 -0.44909	 11.13449	707.92499	 23.90	
 13.611	-165.583	 10.21774	  1.25867	  9.60903	  3.94819	  6.37344	 -0.44073	 11.13260	707.81500	 23.90	
 13.601	-158.353	 10.20596	  1.39275	  9.40891	  3.43873	  6.92399	 -0.42249	 11.13067	707.89801	 23.90	
 13.609	-151.210	 10.19611	  1.56748	  9.15171	  2.97957	  7.43676	 -0.41074	 11.12665	707.86298	 23.90	
 13.611	-143.999	 10.18517	  1.80296	  8.82680	  2.56311	  7.92419	 -0.40600	 11.12397	707.97400	 23.90	
 13.601	-136.825	 10.18244	  2.09370	  8.44165	  2.18847	  8.38132	 -0.39941	 11.13030	707.96198	 23.90	
 13.596	-129.640	 10.16017	  2.42802	  7.98929	  1.86061	  8.77591	 -0.39392	 11.11108	707.95398	 23.90	
 13.611	-122.431	 10.15326	  2.81027	  7.50920	  1.58194	  9.12801	 -0.39602	 11.11654	707.91699	 23.90	
 13.604	-115.211	 10.15863	  3.24689	  7.00242	  1.37140	  9.41887	 -0.40681	 11.12733	708.02100	 23.90	
 13.595	-108.042	 10.17200	  3.72711	  6.47536	  1.21720	  9.65076	 -0.42985	 11.14196	707.92499	 23.90	
 13.607	-100.793	 10.16497	  4.23291	  5.91503	  1.10093	  9.80240	 -0.45249	 11.14132	707.95099	 23.90	
 13.601	-93.617	 10.15488	  4.75674	  5.35631	  1.04777	  9.86454	 -0.46247	 11.13215	708.02100	 24.00	
 13.601	-86.383	 10.14695	  5.30750	  4.79666	  1.04696	  9.85760	 -0.46395	 11.12367	707.97101	 23.90	
 13.607	-79.207	 10.16236	  5.86782	  4.27120	  1.09692	  9.80500	 -0.46532	 11.13754	707.95099	 23.90	
 13.595	-71.958	 10.16218	  6.42662	  3.76003	  1.21261	  9.65049	 -0.46520	 11.12941	708.00201	 24.00	
 13.604	-64.789	 10.15838	  6.96493	  3.27804	  1.37481	  9.42759	 -0.45385	 11.12067	707.97302	 23.90	
 13.611	-57.569	 10.16050	  7.48554	  2.83549	  1.58337	  9.14912	 -0.44580	 11.12194	707.90900	 24.00	
 13.596	-50.360	 10.18013	  7.98207	  2.45202	  1.86096	  8.81559	 -0.43495	 11.13640	707.84100	 23.90	
 13.601	-43.175	 10.18416	  8.43037	  2.10801	  2.18873	  8.41024	 -0.42305	 11.14013	708.12799	 24.00	
 13.611	-36.001	 10.17006	  8.81417	  1.80743	  2.55834	  7.94185	 -0.41528	 11.12131	707.99799	 24.00	
 13.609	-28.790	 10.17730	  9.15258	  1.57008	  2.97883	  7.45601	 -0.41517	 11.13074	707.93903	 24.00	
 13.601	-21.647	 10.16229	  9.40055	  1.38550	  3.42911	  6.92904	 -0.40924	 11.11401	707.96997	 24.00	
 13.611	-14.417	 10.18421	  9.62214	  1.25244	  3.93920	  6.39306	 -0.40356	 11.13876	707.84601	 24.00	
 13.608	 -7.147	 10.16308	  9.72482	  1.17283	  4.45879	  5.82571	 -0.39940	 11.11551	708.04401	 24.00	
 13.600	  0.000	 10.18858	  9.79553	  1.15441	  5.01118	  5.29667	 -0.40029	 11.14137	708.08301	 24.00	
 13.608	  7.147	 10.19054	  9.77447	  1.17972	  5.56890	  4.75757	 -0.40641	 11.14921	708.01801	 24.00	
 13.611	 14.417	 10.18351	  9.66863	  1.26154	  6.12601	  4.23439	 -0.41037	 11.13872	708.13702	 24.00	
 13.601	 21.647	 10.19325	  9.49843	  1.40197	  6.68514	  3.75005	 -0.40383	 11.14793	708.13898	 24.00	
 13.609	 28.790	 10.17600	  9.23901	  1.58658	  7.20717	  3.28595	 -0.39396	 11.13256	707.98102	 24.00	
 13.611	 36.001	 10.17129	  8.92093	  1.82994	  7.70271	  2.87193	 -0.38133	 11.11917	707.91998	 24.00	
 13.601	 43.175	 10.18888	  8.55329	  2.13342	  8.16607	  2.51416	 -0.37307	 11.12815	707.96198	 24.00	
 13.596	 50.360	 10.19432	  8.12741	  2.47718	  8.58627	  2.19166	 -0.36408	 11.13136	708.06403	 24.00	
 13.611	 57.569	 10.20984	  7.66130	  2.87140	  8.96392	  1.90870	 -0.36276	 11.14139	707.91998	 24.00	
 13.604	 64.789	 10.18767	  7.12879	  3.30424	  9.23358	  1.68591	 -0.36363	 11.11297	708.05200	 24.00	
 13.595	 71.958	 10.21733	  6.60808	  3.79328	  9.47530	  1.53376	 -0.37809	 11.13399	708.00201	 24.00	
 13.607	 79.207	 10.22945	  6.05586	  4.30883	  9.63573	  1.42134	 -0.41409	 11.14678	708.02698	 24.00	
 13.601	 86.383	 10.22891	  5.49573	  4.84449	  9.69718	  1.37406	 -0.43702	 11.13262	708.09802	 24.00	
 13.601	 93.617	 10.23287	  4.93589	  5.40201	  9.69499	  1.37566	 -0.45584	 11.12975	708.13000	 24.00	
 13.607	100.793	 10.23859	  4.40159	  5.95670	  9.62353	  1.42596	 -0.46184	 11.12847	708.08002	 24.00	
 13.595	108.042	 10.23871	  3.88576	  6.51191	  9.47002	  1.53416	 -0.45920	 11.12037	707.95599	 24.00	
 13.604	115.211	 10.24712	  3.40244	  7.05496	  9.25576	  1.69127	 -0.44862	 11.12895	707.97302	 24.00	
 13.611	122.431	 10.25483	  2.96413	  7.57129	  8.96856	  1.90816	 -0.43789	 11.13087	707.89099	 24.00	
 13.596	129.640	 10.26057	  2.56931	  8.05332	  8.61114	  2.18310	 -0.42503	 11.13266	707.89203	 24.00	
 13.601	136.825	 10.25494	  2.21335	  8.48612	  8.19223	  2.50048	 -0.41931	 11.12861	708.18201	 24.00	
 13.611	143.999	 10.25899	  1.90481	  8.87351	  7.74338	  2.86218	 -0.41766	 11.13880	708.01599	 24.00	
 13.609	151.210	 10.23445	  1.64764	  9.17419	  7.22572	  3.26676	 -0.41359	 11.11805	708.02399	 24.00	
 13.601	158.353	 10.25197	  1.45626	  9.44163	  6.70399	  3.73118	 -0.40548	 11.13222	707.99500	 24.00	
 13.611	165.583	 10.27049	  1.30556	  9.65062	  6.16413	  4.22845	 -0.41933	 11.16221	708.06702	 24.00	
 13.608	172.853	 10.23581	  1.21016	  9.72827	  5.58232	  4.73751	 -0.43483	 11.13073	708.02100	 24.00	
 15.298	173.587	  9.95539	  0.57733	 10.04142	  5.33186	  4.48299	 -0.51781	 11.12624	708.00500	 24.00	
 15.291	167.167	  9.95988	  0.65434	  9.94970	  5.88726	  3.97121	 -0.50384	 11.12626	708.07202	 24.00	
 15.307	160.676	  9.96547	  0.77756	  9.78982	  6.44877	  3.47265	 -0.49609	 11.12427	707.89502	 24.00	
 15.300	154.261	  9.97765	  0.95531	  9.56705	  7.00019	  3.01122	 -0.49390	 11.13039	707.92798	 24.00	
 15.288	147.854	  9.96558	  1.17181	  9.26843	  7.50678	  2.58724	 -0.49381	 11.11644	707.89801	 24.00	
 15.293	141.428	  9.96838	  1.43749	  8.92136	  7.99138	  2.20442	 -0.49196	 11.11368	708.08099	 24.00	
 15.299	134.985	  9.97685	  1.74496	  8.52727	  8.45366	  1.85381	 -0.49629	 11.12477	708.08801	 24.00	
 15.305	128.583	  9.98043	  2.09696	  8.08386	  8.86534	  1.54924	 -0.50061	 11.13116	708.00098	 24.00	
 15.309	122.142	  9.98594	  2.49391	  7.60461	  9.22180	  1.29923	 -0.50456	 11.14324	708.07397	 24.00	
 15.304	115.711	  9.99662	  2.93466	  7.09639	  9.52300	  1.09905	 -0.51920	 11.15481	708.12799	 24.00	
 15.297	109.291	  9.97971	  3.40127	  6.54775	  9.73855	  0.93984	 -0.51798	 11.14036	708.02698	 24.00	
 15.293	102.897	  9.97462	  3.90147	  5.99754	  9.90482	  0.82563	 -0.52341	 11.13951	708.12000	 24.00	
 15.293	 96.458	  9.96040	  4.42435	  5.43029	  9.99416	  0.75458	 -0.51058	 11.13010	708.18500	 24.00	
 15.300	 90.000	  9.95980	  4.97494	  4.87776	 10.03598	  0.72981	 -0.51245	 11.13934	708.07397	 24.00	
 15.293	 83.542	  9.94817	  5.53756	  4.33142	  9.99440	  0.75947	 -0.49348	 11.13746	708.07397	 24.00	
 15.293	 77.103	  9.94643	  6.10037	  3.80546	  9.89461	  0.83111	 -0.46320	 11.13944	708.06702	 24.00	
 15.297	 70.709	  9.94102	  6.64898	  3.30906	  9.72700	  0.94918	 -0.43867	 11.14311	708.08099	 24.00	
 15.304	 64.289	  9.95041	  7.19954	  2.84041	  9.50852	  1.10844	 -0.42137	 11.16310	708.05798	 24.00	
 15.309	 57.858	  9.91147	  7.68777	  2.39588	  9.19368	  1.30408	 -0.42296	 11.13110	708.27100	 24.00	
 15.305	 51.417	  9.89882	  8.16030	  2.00534	  8.83176	  1.56451	 -0.42379	 11.12444	708.17102	 24.00	
 15.299	 45.015	  9.89551	  8.59852	  1.66428	  8.42180	  1.87412	 -0.43081	 11.12340	708.17603	 24.00	
 15.293	 38.572	  9.90512	  9.00112	  1.36856	  7.97486	  2.22627	 -0.43455	 11.14110	708.11200	 24.00	
 15.288	 32.146	  9.88555	  9.32567	  1.11147	  7.47361	  2.60946	 -0.43555	 11.12073	708.14502	 24.00	
 15.300	 25.739	  9.88820	  9.61587	  0.89605	  6.96464	  3.02873	 -0.44335	 11.13386	708.06000	 24.00	
 15.307	 19.324	  9.88148	  9.82829	  0.73501	  6.41754	  3.49010	 -0.43941	 11.12442	708.14203	 24.00	
 15.291	 12.833	  9.87391	  9.97098	  0.62044	  5.85429	  3.98264	 -0.44218	 11.11467	708.14301	 24.00	
 15.298	  6.413	  9.89365	 10.08174	  0.54687	  5.31343	  4.50052	 -0.44265	 11.13872	708.14301	 24.00	
 15.300	  0.000	  9.87632	 10.08478	  0.52325	  4.74307	  5.03062	 -0.43409	 11.11744	708.13397	 24.00	
 15.298	 -6.413	  9.86965	 10.03407	  0.54479	  4.20339	  5.56925	 -0.43143	 11.10825	708.05701	 24.00	
 15.291	-12.833	  9.88663	  9.94035	  0.60848	  3.69203	  6.12311	 -0.43347	 11.12921	707.98999	 24.00	
 15.307	-19.324	  9.88719	  9.76383	  0.72020	  3.18103	  6.68295	 -0.44173	 11.12679	708.06000	 24.00	
 15.300	-25.739	  9.88992	  9.52388	  0.88237	  2.72265	  7.21065	 -0.44450	 11.12599	708.03497	 24.00	
 15.288	-32.146	  9.90685	  9.23648	  1.09137	  2.30006	  7.72898	 -0.44775	 11.14502	708.12201	 24.00	
 15.293	-38.572	  9.89060	  8.86183	  1.33940	  1.90045	  8.20157	 -0.44361	 11.12867	708.05701	 24.00	
 15.299	-45.015	  9.89422	  8.45617	  1.63623	  1.54518	  8.65349	 -0.45000	 11.13425	708.05298	 24.00	
 15.305	-51.417	  9.88458	  7.99461	  1.98012	  1.24941	  9.03325	 -0.44797	 11.12675	708.00897	 24.00	
 15.309	-57.858	  9.88676	  7.50793	  2.36337	  0.99194	  9.38020	 -0.45096	 11.12985	708.06598	 24.00	
 15.304	-64.289	  9.87425	  6.97758	  2.79317	  0.78473	  9.65652	 -0.45175	 11.11731	708.01202	 24.00	
 15.297	-70.709	  9.90434	  6.45752	  3.27109	  0.62413	  9.91362	 -0.45189	 11.15832	708.05298	 24.00	
 15.293	-77.103	  9.88718	  5.89599	  3.75959	  0.50308	 10.06130	 -0.46220	 11.14231	708.03601	 24.00	
 15.293	-83.542	  9.88019	  5.33247	  4.28194	  0.43047	 10.15784	 -0.46559	 11.14329	707.95398	 24.00	
 15.300	-90.000	  9.85860	  4.76432	  4.81777	  0.40408	 10.17212	 -0.47297	 11.12232	708.04303	 24.00	
 15.293	-96.458	  9.86683	  4.22732	  5.37713	  0.42824	 10.14511	 -0.48277	 11.13268	708.06403	 24.00	
 15.293	-102.897	  9.85735	  3.70693	  5.92477	  0.49483	 10.03848	 -0.48454	 11.12357	707.95001	 24.00	
 15.297	-109.291	  9.86983	  3.21844	  6.48238	  0.61278	  9.88240	 -0.47321	 11.13537	708.12201	 24.00	
 15.304	-115.711	  9.87886	  2.76279	  7.02147	  0.77625	  9.65979	 -0.46207	 11.13739	708.02100	 24.00	
 15.309	-122.142	  9.88498	  2.34011	  7.53899	  0.98934	  9.36839	 -0.45202	 11.13486	708.17603	 24.00	
 15.305	-128.583	  9.87844	  1.95574	  8.01619	  1.24725	  9.01066	 -0.44532	 11.11714	708.13599	 24.00	
 15.299	-134.985	  9.89596	  1.61940	  8.47186	  1.54302	  8.63480	 -0.46120	 11.13086	708.12000	 24.00	
 15.293	-141.428	  9.92249	  1.32875	  8.89314	  1.90060	  8.20295	 -0.47200	 11.14838	708.11603	 24.00	
 15.288	-147.854	  9.91743	  1.08362	  9.23447	  2.29943	  7.70700	 -0.48731	 11.13730	707.98102	 24.00	
 15.300	-154.261	  9.92601	  0.87933	  9.53052	  2.72578	  7.20473	 -0.49826	 11.13561	707.96997	 24.00	
 15.307	-160.676	  9.92369	  0.72361	  9.75815	  3.18900	  6.66987	 -0.51506	 11.12797	708.13397	 24.00	
 15.291	-167.167	  9.92622	  0.62188	  9.91729	  3.70365	  6.11034	 -0.52643	 11.11363	708.13397	 24.00	
 15.298	-173.587	  9.93251	  0.55803	 10.02066	  4.22581	  5.56070	 -0.53557	 11.11862	708.14697	 24.00	
 15.300	180.000	  9.94252	  0.54730	 10.06183	  4.76668	  5.02500	 -0.52770	 11.12134	708.08099	 24.00	
 17.000	180.000	  9.62597	 -0.07157	 10.33589	  4.49252	  4.74578	 -0.58808	 11.11570	708.17401	 24.00	
 16.990	-174.179	  9.61375	 -0.06037	 10.29492	  3.95328	  5.28032	 -0.58282	 11.11005	708.27100	 24.00	
 17.009	-168.383	  9.61183	 -0.01902	 10.21482	  3.43170	  5.82763	 -0.57549	 11.12179	708.16998	 24.00	
 17.000	-162.596	  9.63362	  0.07375	 10.08975	  2.93629	  6.39259	 -0.56465	 11.15010	708.11102	 24.00	
 16.990	-156.759	  9.60938	  0.21136	  9.85758	  2.46404	  6.91744	 -0.55440	 11.13128	708.17798	 24.00	
 16.995	-150.919	  9.59905	  0.38688	  9.58502	  2.02359	  7.43949	 -0.54817	 11.12701	708.08801	 24.00	
 16.988	-145.161	  9.58821	  0.59568	  9.25914	  1.61932	  7.93379	 -0.53612	 11.12171	708.06403	 24.00	
 17.014	-139.343	  9.58515	  0.84586	  8.89734	  1.24533	  8.41071	 -0.52696	 11.13928	708.08301	 24.00	
 17.007	-133.546	  9.58188	  1.14614	  8.48271	  0.92813	  8.83653	 -0.51511	 11.13713	708.02899	 24.00	
 17.001	-127.699	  9.56190	  1.48077	  8.01150	  0.64244	  9.21290	 -0.50088	 11.12657	708.03003	 24.00	
 17.006	-121.937	  9.56397	  1.85638	  7.53022	  0.39711	  9.56517	 -0.50259	 11.13385	708.11603	 24.00	
 17.002	-116.134	  9.54459	  2.26116	  7.00503	  0.19097	  9.84164	 -0.49710	 11.12222	708.08502	 24.00	
 17.001	-110.310	  9.52322	  2.70009	  6.45912	  0.02775	 10.06035	 -0.49857	 11.10610	708.14502	 24.00	
 16.988	-104.517	  9.54124	  3.19050	  5.92456	 -0.08164	 10.24759	 -0.48363	 11.12957	708.09100	 24.00	
 17.008	-98.662	  9.55755	  3.69911	  5.37529	 -0.16831	 10.38930	 -0.46948	 11.15057	708.09998	 24.00	
 16.996	-92.909	  9.56399	  4.22226	  4.83149	 -0.20228	 10.44907	 -0.45578	 11.15353	708.09698	 24.00	
 16.996	-87.091	  9.54308	  4.75772	  4.27397	 -0.20271	 10.42700	 -0.43424	 11.12516	707.94202	 24.00	
 17.012	-81.253	  9.55381	  5.31590	  3.74410	 -0.17296	 10.38878	 -0.42049	 11.14149	708.08502	 24.00	
 16.988	-75.483	  9.55867	  5.86364	  3.24936	 -0.08402	 10.27151	 -0.41171	 11.14093	708.14203	 24.00	
 17.001	-69.690	  9.54686	  6.40600	  2.75759	  0.02601	 10.09274	 -0.41098	 11.12397	708.21600	 24.00	
 17.002	-63.866	  9.56897	  6.96262	  2.31045	  0.18718	  9.87718	 -0.41698	 11.14457	708.18500	 24.00	
 17.006	-58.063	  9.57284	  7.48561	  1.88956	  0.39307	  9.58750	 -0.42401	 11.14133	708.07703	 24.00	
 17.001	-52.301	  9.59199	  7.99323	  1.51469	  0.63794	  9.26151	 -0.42908	 11.15617	708.01001	 24.00	
 17.007	-46.454	  9.57785	  8.44896	  1.16922	  0.92379	  8.85802	 -0.43635	 11.14388	707.95697	 24.00	
 17.014	-40.657	  9.58081	  8.87807	  0.86469	  1.23747	  8.44002	 -0.43641	 11.14809	708.14697	 24.00	
 16.988	-34.839	  9.60111	  9.27231	  0.61522	  1.61627	  7.98278	 -0.44367	 11.16554	708.01599	 24.00	
 16.995	-29.081	  9.57654	  9.57501	  0.39753	  2.01455	  7.46763	 -0.43961	 11.13515	708.15100	 24.00	
 16.990	-23.241	  9.57405	  9.85324	  0.21655	  2.45213	  6.94060	 -0.44993	 11.13495	708.12299	 24.00	
 17.000	-17.404	  9.55565	 10.05539	  0.07566	  2.91009	  6.39221	 -0.44039	 11.11278	708.16998	 24.00	
 17.009	-11.617	  9.58256	 10.24674	 -0.02044	  3.42005	  5.86037	 -0.43540	 11.14974	708.30798	 24.00	
 16.990	 -5.821	  9.58294	 10.34173	 -0.06970	  3.94188	  5.31545	 -0.42764	 11.14822	708.20599	 24.00	
 17.000	  0.000	  9.57188	 10.37522	 -0.09212	  4.47256	  4.76611	 -0.42808	 11.13708	708.19000	 24.00	
 16.990	  5.821	  9.58348	 10.36978	 -0.06870	  5.03697	  4.23373	 -0.42544	 11.15371	708.15399	 24.00	
 17.009	 11.617	  9.57311	 10.28907	 -0.01575	  5.58186	  3.72024	 -0.43098	 11.14482	708.25702	 24.00	
 17.000	 17.404	  9.56105	 10.13880	  0.08450	  6.12787	  3.22809	 -0.43660	 11.13241	708.09998	 24.00	
 16.990	 23.241	  9.56984	  9.95170	  0.23071	  6.68650	  2.76453	 -0.43823	 11.13954	708.16101	 24.00	
 16.995	 29.081	  9.59360	  9.71535	  0.41381	  7.23532	  2.33442	 -0.44991	 11.16104	708.14203	 24.00	
 16.988	 34.839	  9.57382	  9.38373	  0.63593	  7.71879	  1.93845	 -0.45458	 11.13266	708.06897	 24.00	
 17.014	 40.657	  9.56937	  9.02489	  0.88806	  8.20264	  1.56067	 -0.46436	 11.12962	708.11200	 24.00	
 17.007	 46.454	  9.57927	  8.62410	  1.18640	  8.65117	  1.23314	 -0.46742	 11.13673	708.14301	 24.00	
 17.001	 52.301	  9.58157	  8.16870	  1.53313	  9.04292	  0.95457	 -0.47114	 11.12925	708.07397	 23.90	
 17.006	 58.063	  9.58794	  7.68874	  1.91303	  9.39503	  0.70999	 -0.46798	 11.12753	708.06097	 23.90	
 17.002	 63.866	  9.58413	  7.17046	  2.32823	  9.68383	  0.50532	 -0.47012	 11.11872	708.07397	 23.90	
 17.001	 69.690	  9.58660	  6.63441	  2.78013	  9.92688	  0.33720	 -0.47863	 11.11356	708.09497	 23.90	
 16.988	 75.483	  9.60630	  6.09378	  3.27196	 10.11646	  0.22053	 -0.49916	 11.12848	708.20203	 23.90	
 17.012	 81.253	  9.60437	  5.53865	  3.77074	 10.23564	  0.13354	 -0.51492	 11.11758	708.14203	 23.90	
 16.996	 87.091	  9.62177	  4.98646	  4.31514	 10.30092	  0.09920	 -0.52356	 11.12387	708.16199	 23.90	
 16.996	 92.909	  9.62421	  4.43100	  4.86336	 10.29331	  0.10123	 -0.52667	 11.12051	708.11603	 23.90	
 17.008	 98.662	  9.64392	  3.90557	  5.41618	 10.25385	  0.13640	 -0.52821	 11.12850	708.15002	 23.90	
 16.988	104.517	  9.65572	  3.39155	  5.98082	 10.13248	  0.22269	 -0.53353	 11.13238	708.07397	 23.90	
 17.001	110.310	  9.66752	  2.90098	  6.53517	  9.96480	  0.33875	 -0.54184	 11.13863	708.19501	 23.90	
 17.002	116.134	  9.65730	  2.44005	  7.06477	  9.70721	  0.50444	 -0.54716	 11.11725	708.20697	 23.90	
 17.006	121.937	  9.69168	  2.02171	  7.60441	  9.44339	  0.70319	 -0.54802	 11.15315	708.14203	 23.90	
 17.001	127.699	  9.67460	  1.63224	  8.07885	  9.08080	  0.94046	 -0.55064	 11.12889	708.19202	 23.90	
 17.007	133.546	  9.65675	  1.27746	  8.51958	  8.67207	  1.21677	 -0.56124	 11.11439	708.19299	 23.90	
 17.014	139.343	  9.65660	  0.96671	  8.93768	  8.23607	  1.53475	 -0.56268	 11.11084	708.28497	 23.90	
 16.988	145.161	  9.67772	  0.70700	  9.32228	  7.76784	  1.91315	 -0.56886	 11.13359	708.08899	 23.90	
 16.995	150.919	  9.67362	  0.47650	  9.63776	  7.26518	  2.30753	 -0.56602	 11.13195	708.19897	 23.90	
 16.990	156.759	  9.68396	  0.29051	  9.91039	  6.74153	  2.74332	 -0.56962	 11.15186	708.22302	 23.90	
 17.000	162.596	  9.67253	  0.13436	 10.10750	  6.17755	  3.21293	 -0.57241	 11.13837	708.32501	 23.90	
 17.009	168.383	  9.64959	  0.02335	 10.23850	  5.61118	  3.69782	 -0.57615	 11.12390	708.23199	 23.90	
 16.990	174.179	  9.64368	 -0.03840	 10.31526	  5.06052	  4.20801	 -0.58074	 11.11989	708.20599	 23.90	
 18.709	174.675	  9.29539	 -0.64907	 10.55438	  4.76141	  3.91244	 -0.61063	 11.11725	708.28900	 23.90	
 18.703	169.441	  9.31717	 -0.58947	 10.49946	  5.31343	  3.42062	 -0.61590	 11.13945	708.09198	 23.90	
 18.691	164.085	  9.32582	 -0.49191	 10.37027	  5.87793	  2.92745	 -0.61952	 11.13862	708.10602	 23.90	
 18.706	158.818	  9.33959	 -0.36888	 10.20078	  6.43652	  2.45703	 -0.62369	 11.15272	708.23297	 23.90	
 18.695	153.537	  9.34386	 -0.19583	  9.95765	  6.96470	  2.02747	 -0.62263	 11.14040	708.26300	 23.90	
 18.704	148.255	  9.33090	  0.00021	  9.65793	  7.47454	  1.61672	 -0.62087	 11.12758	708.25201	 23.90	
 18.698	142.952	  9.34348	  0.23829	  9.32318	  7.98409	  1.24445	 -0.61382	 11.13900	708.16101	 23.90	
 18.699	137.625	  9.33554	  0.51102	  8.92756	  8.44455	  0.90048	 -0.60070	 11.12279	708.11401	 23.90	
 18.705	132.343	  9.33657	  0.81704	  8.50283	  8.86486	  0.60568	 -0.59789	 11.12156	708.11401	 23.90	
 18.713	127.067	  9.32887	  1.15532	  8.03681	  9.25414	  0.33207	 -0.58018	 11.12479	708.13098	 23.90	
 18.700	121.794	  9.33954	  1.53585	  7.55448	  9.60809	  0.10460	 -0.56211	 11.13935	708.13599	 23.90	
 18.698	116.504	  9.33562	  1.95215	  7.03955	  9.90422	 -0.08559	 -0.54043	 11.13782	708.09998	 23.90	
 18.707	111.165	  9.30902	  2.39318	  6.48682	 10.12820	 -0.24614	 -0.51845	 11.11810	708.07397	 23.90	
 18.690	105.863	  9.31870	  2.87581	  5.95169	 10.32338	 -0.35851	 -0.50710	 11.13294	708.13702	 23.90	
 18.696	100.583	  9.30844	  3.37826	  5.39675	 10.45247	 -0.44249	 -0.49639	 11.13131	708.01801	 23.90	
 18.700	 95.309	  9.31062	  3.89740	  4.85159	 10.53864	 -0.49170	 -0.49196	 11.14135	708.18402	 23.90	
 18.700	 90.000	  9.29921	  4.43639	  4.30268	 10.55741	 -0.50693	 -0.49674	 11.13688	708.15302	 23.90	
 18.700	 84.691	  9.28433	  4.98091	  3.76497	 10.52380	 -0.48737	 -0.50274	 11.13016	708.20898	 23.90	
 18.696	 79.417	  9.29814	  5.54105	  3.25930	 10.46776	 -0.43827	 -0.50950	 11.16193	708.16803	 23.90	
 18.690	 74.137	  9.28251	  6.08701	  2.76039	 10.32235	 -0.35105	 -0.51306	 11.15094	708.10797	 23.90	
 18.707	 68.835	  9.26328	  6.62699	  2.27858	 10.12817	 -0.23682	 -0.51150	 11.14648	708.23297	 23.80	
 18.698	 63.496	  9.24389	  7.15085	  1.82941	  9.86248	 -0.07418	 -0.50374	 11.12738	708.25403	 23.90	
 18.700	 58.206	  9.24125	  7.66260	  1.42348	  9.56612	  0.12160	 -0.49695	 11.12957	708.10498	 23.90	
 18.713	 52.933	  9.23671	  8.15272	  1.05151	  9.22348	  0.35140	 -0.49374	 11.13850	708.33099	 23.90	
 18.705	 47.657	  9.23857	  8.60819	  0.72334	  8.83226	  0.62807	 -0.48673	 11.13989	708.21802	 23.90	
 18.699	 42.375	  9.21850	  9.00834	  0.42288	  8.39223	  0.92547	 -0.47310	 11.12637	708.28900	 23.90	
 18.698	 37.048	  9.22845	  9.39973	  0.16123	  7.93634	  1.26660	 -0.45922	 11.14263	708.17902	 23.80	
 18.704	 31.745	  9.21880	  9.72646	 -0.06907	  7.42688	  1.64484	 -0.43768	 11.13383	708.13098	 23.80	
 18.695	 26.463	  9.22185	 10.01194	 -0.25961	  6.90981	  2.05373	 -0.41568	 11.14404	708.06097	 23.80	
 18.706	 21.182	  9.21367	 10.23277	 -0.42153	  6.37621	  2.47764	 -0.40999	 11.13678	708.03003	 23.80	
 18.691	 15.915	  9.19801	 10.37963	 -0.53277	  5.81392	  2.93857	 -0.39952	 11.10738	708.01300	 23.80	
 18.703	 10.559	  9.22340	 10.53649	 -0.62744	  5.26982	  3.43806	 -0.39239	 11.13983	708.02698	 23.90	
 18.709	  5.325	  9.21938	 10.60045	 -0.68159	  4.72879	  3.93323	 -0.39333	 11.13913	708.23798	 23.80	
 18.700	  0.000	  9.22664	 10.61800	 -0.69574	  4.17822	  4.47368	 -0.39361	 11.14076	708.12000	 23.80	
 18.709	 -5.325	  9.20937	 10.56416	 -0.68565	  3.63521	  5.00200	 -0.39827	 11.12210	708.18500	 23.80	
 18.703	-10.559	  9.21135	 10.47495	 -0.63669	  3.13132	  5.54503	 -0.40811	 11.12485	708.09497	 23.80	
 18.691	-15.915	  9.22425	 10.33584	 -0.54633	  2.63459	  6.10896	 -0.42655	 11.12853	708.18201	 23.80	
 18.706	-21.182	  9.20834	 10.12368	 -0.43333	  2.16825	  6.62832	 -0.43417	 11.11157	708.32800	 23.80	
 18.695	-26.463	  9.21649	  9.87894	 -0.27540	  1.73636	  7.15698	 -0.42453	 11.11836	708.24402	 23.80	
 18.704	-31.745	  9.23000	  9.59291	 -0.09235	  1.32156	  7.67965	 -0.41991	 11.14184	708.16699	 23.80	
 18.698	-37.048	  9.21841	  9.22351	  0.13898	  0.95068	  8.15018	 -0.40764	 11.11724	708.22101	 23.80	
 18.699	-42.375	  9.21158	  8.81855	  0.40565	  0.61590	  8.59188	 -0.40162	 11.10933	708.29401	 23.80	
 18.705	-47.657	  9.21004	  8.38803	  0.69677	  0.30782	  9.01000	 -0.39649	 11.11224	708.23700	 23.80	
 18.713	-52.933	  9.22721	  7.94038	  1.02732	  0.03543	  9.41093	 -0.39542	 11.14068	708.21802	 23.80	
 18.700	-58.206	  9.21840	  7.43255	  1.40404	 -0.18735	  9.73506	 -0.38556	 11.12895	708.24902	 23.80	
 18.698	-63.496	  9.22963	  6.92599	  1.81349	 -0.37304	 10.02638	 -0.37585	 11.14222	708.26001	 23.80	
 18.707	-68.835	  9.20531	  6.37193	  2.24909	 -0.53165	 10.24193	 -0.36382	 11.11821	708.24902	 23.80	
 18.690	-74.137	  9.20819	  5.82627	  2.72689	 -0.63880	 10.42065	 -0.36381	 11.12083	708.37299	 23.80	
 18.696	-79.417	  9.20764	  5.28095	  3.21520	 -0.73045	 10.55372	 -0.37416	 11.13019	708.23199	 23.80	
 18.700	-84.691	  9.22773	  4.74138	  3.73339	 -0.78992	 10.66148	 -0.37908	 11.15880	708.32300	 23.80	
 18.700	-90.000	  9.20861	  4.18931	  4.26311	 -0.80453	 10.66568	 -0.40032	 11.14120	708.28198	 23.80	
 18.700	-95.309	  9.19555	  3.65464	  4.79853	 -0.79218	 10.62870	 -0.42558	 11.12944	708.33398	 23.80	
 18.696	-100.583	  9.19770	  3.15231	  5.34771	 -0.73848	 10.55260	 -0.44129	 11.13063	708.21503	 23.80	
 18.690	-105.863	  9.20616	  2.66955	  5.90160	 -0.64938	 10.42798	 -0.47080	 11.13990	708.32703	 23.80	
 18.707	-111.165	  9.19946	  2.20331	  6.43871	 -0.52996	 10.23790	 -0.49495	 11.12972	708.12299	 23.80	
 18.698	-116.504	  9.21985	  1.77344	  6.98377	 -0.37577	 10.01657	 -0.51759	 11.14996	708.15399	 23.80	
 18.700	-121.794	  9.20916	  1.36780	  7.48377	 -0.18861	  9.71815	 -0.52178	 11.13074	708.21002	 23.80	
 18.713	-127.067	  9.22728	  1.00298	  7.98527	  0.04032	  9.39608	 -0.52985	 11.14191	708.26099	 23.80	
 18.705	-132.343	  9.22606	  0.67341	  8.43752	  0.31032	  9.00394	 -0.54258	 11.12964	708.31299	 23.70	
 18.699	-137.625	  9.26426	  0.38631	  8.89097	  0.62146	  8.60832	 -0.55138	 11.16531	708.34698	 23.70	
 18.698	-142.952	  9.23875	  0.12546	  9.24751	  0.95774	  8.12659	 -0.56049	 11.12320	708.29401	 23.70	
 18.704	-148.255	  9.25103	 -0.10095	  9.59903	  1.32975	  7.64750	 -0.56278	 11.13099	708.29401	 23.70	
 18.695	-153.537	  9.25912	 -0.28059	  9.88925	  1.74435	  7.13257	 -0.55971	 11.12672	708.23199	 23.70	
 18.706	-158.818	  9.27617	 -0.43099	 10.14493	  2.18457	  6.61489	 -0.56709	 11.13407	708.14502	 23.70	
 18.691	-164.085	  9.28920	 -0.54110	 10.34050	  2.65646	  6.08617	 -0.57463	 11.13949	708.21802	 23.70	
 18.703	-169.441	  9.28781	 -0.62250	 10.47404	  3.16231	  5.52653	 -0.58574	 11.13242	708.28003	 23.70	
 18.709	-174.675	  9.29934	 -0.66365	 10.55989	  3.67615	  4.99249	 -0.59076	 11.13479	708.13599	 23.70	
 18.700	180.000	  9.31094	 -0.66830	 10.59459	  4.21536	  4.45506	 -0.60625	 11.14524	708.14301	 23.70	
 20.400	180.000	  8.93218	 -1.25795	 10.78177	  3.90475	  4.13662	 -0.57774	 11.13532	708.14502	 23.70	
 20.401	-175.153	  8.92389	 -1.26372	 10.76277	  3.37931	  4.65883	 -0.56006	 11.13907	708.21503	 23.70	
 20.407	-170.264	  8.90547	 -1.22911	 10.67548	  2.85967	  5.19100	 -0.54686	 11.12653	708.23798	 23.70	
 20.410	-165.423	  8.89303	 -1.16069	 10.54555	  2.36269	  5.73090	 -0.53917	 11.12268	708.23199	 23.70	
 20.392	-160.496	  8.90572	 -1.05896	 10.38745	  1.90259	  6.28244	 -0.54078	 11.13518	708.29498	 23.70	
 20.401	-155.705	  8.89759	 -0.93581	 10.16795	  1.46269	  6.80124	 -0.54025	 11.14244	708.15100	 23.70	
 20.405	-150.835	  8.88247	 -0.77871	  9.89178	  1.04087	  7.31852	 -0.54342	 11.13807	708.24597	 23.70	
 20.397	-145.903	  8.86960	 -0.57840	  9.56426	  0.65736	  7.81482	 -0.55409	 11.13111	708.19000	 23.70	
 20.392	-141.062	  8.83922	 -0.34741	  9.18090	  0.31528	  8.25881	 -0.55173	 11.09999	708.32300	 23.70	
 20.396	-136.227	  8.86124	 -0.09229	  8.81415	 -0.00730	  8.73666	 -0.55274	 11.14266	708.20203	 23.70	
 20.408	-131.372	  8.84079	  0.18829	  8.36954	 -0.30606	  9.14025	 -0.54811	 11.13267	708.19202	 23.70	
 20.410	-126.511	  8.83743	  0.51281	  7.90848	 -0.55247	  9.51460	 -0.53341	 11.13092	708.22900	 23.70	
 20.400	-121.604	  8.84095	  0.87534	  7.42071	 -0.76599	  9.85357	 -0.52807	 11.15020	708.25702	 23.70	
 20.403	-116.741	  8.82173	  1.26230	  6.89691	 -0.95102	 10.12724	 -0.50583	 11.13278	708.27698	 23.70	
 20.413	-111.900	  8.80013	  1.67164	  6.36128	 -1.11016	 10.35173	 -0.48884	 11.11967	708.24902	 23.70	
 20.398	-107.004	  8.81412	  2.12293	  5.83265	 -1.22521	 10.55567	 -0.44708	 11.13795	708.27698	 23.70	
 20.394	-102.132	  8.81039	  2.59522	  5.28592	 -1.32198	 10.69649	 -0.42463	 11.13497	708.23700	 23.70	
 20.403	-97.332	  8.80990	  3.07508	  4.75042	 -1.37936	 10.79107	 -0.39325	 11.13602	708.19897	 23.70	
 20.392	-92.440	  8.81355	  3.58967	  4.21045	 -1.41023	 10.83772	 -0.37556	 11.13930	707.99298	 23.60	
 20.392	-87.560	  8.79675	  4.11259	  3.67070	 -1.40488	 10.81509	 -0.35815	 11.10591	708.12799	 23.70	
 20.403	-82.668	  8.81943	  4.66402	  3.15636	 -1.38500	 10.80385	 -0.34910	 11.14040	708.26898	 23.60	
 20.394	-77.868	  8.81966	  5.19859	  2.66553	 -1.32564	 10.71020	 -0.33963	 11.13925	708.13000	 23.60	
 20.398	-72.996	  8.82178	  5.74403	  2.18723	 -1.22885	 10.56668	 -0.33043	 11.13297	708.13000	 23.60	
 20.413	-68.100	  8.85330	  6.31296	  1.73326	 -1.11374	 10.40993	 -0.34514	 11.16554	708.18500	 23.60	
 20.403	-63.259	  8.84042	  6.82842	  1.31989	 -0.95109	 10.14741	 -0.34178	 11.13614	708.14502	 23.60	
 20.400	-58.396	  8.85529	  7.35738	  0.92521	 -0.76087	  9.87172	 -0.35474	 11.14072	708.16400	 23.60	
 20.410	-53.489	  8.83478	  7.84323	  0.54831	 -0.55725	  9.52650	 -0.35996	 11.12242	708.20898	 23.60	
 20.408	-48.628	  8.83733	  8.31755	  0.22098	 -0.30801	  9.16204	 -0.37230	 11.12782	708.09998	 23.60	
 20.396	-43.773	  8.84269	  8.76044	 -0.06620	 -0.01979	  8.75661	 -0.38122	 11.12436	708.13702	 23.60	
 20.392	-38.938	  8.85301	  9.17533	 -0.32827	  0.29802	  8.32065	 -0.38336	 11.13791	708.21301	 23.60	
 20.397	-34.097	  8.85024	  9.54366	 -0.56200	  0.64136	  7.85495	 -0.38859	 11.13548	708.19000	 23.60	
 20.405	-29.165	  8.84586	  9.87462	 -0.76826	  1.01793	  7.35795	 -0.39196	 11.14093	708.24402	 23.60	
 20.401	-24.295	  8.83867	 10.14321	 -0.92654	  1.44295	  6.82896	 -0.39997	 11.12847	708.25201	 23.60	
 20.392	-19.504	  8.82837	 10.35771	 -1.05670	  1.86978	  6.30161	 -0.39508	 11.11622	708.12598	 23.60	
 20.410	-14.577	  8.82857	 10.54802	 -1.17034	  2.33031	  5.76703	 -0.38983	 11.12333	708.14697	 23.60	
 20.407	 -9.736	  8.83675	 10.69152	 -1.24308	  2.82167	  5.22965	 -0.38011	 11.13705	708.27698	 23.60	
 20.401	 -4.847	  8.82565	 10.75892	 -1.28129	  3.33296	  4.68677	 -0.37151	 11.12717	708.13599	 23.60	
 20.400	  0.000	  8.82877	 10.80029	 -1.29706	  3.85149	  4.16511	 -0.35862	 11.13110	708.17102	 23.60	
 20.401	  4.847	  8.82643	 10.78908	 -1.27902	  4.39171	  3.62956	 -0.36269	 11.13522	708.21600	 23.60	
 20.407	  9.736	  8.82086	 10.73017	 -1.23886	  4.92895	  3.12850	 -0.35878	 11.13208	708.22400	 23.60	
 20.410	 14.577	  8.81369	 10.61580	 -1.16601	  5.47085	  2.64434	 -0.36056	 11.12329	708.09802	 23.60	
 20.392	 19.504	  8.82331	 10.46015	 -1.04620	  6.03728	  2.18555	 -0.36961	 11.13165	708.22400	 23.60	
 20.401	 24.295	  8.81325	 10.25180	 -0.91357	  6.55678	  1.75470	 -0.37568	 11.11937	708.23297	 23.60	
 20.405	 29.165	  8.82751	 10.01303	 -0.74867	  7.09514	  1.34455	 -0.39268	 11.13955	708.27802	 23.60	
 20.397	 34.097	  8.82519	  9.69721	 -0.54147	  7.61182	  0.96003	 -0.42456	 11.12768	708.14301	 23.60	
 20.392	 38.938	  8.82162	  9.34195	 -0.30494	  8.08544	  0.61458	 -0.44200	 11.11679	708.23999	 23.60	
 20.396	 43.773	  8.83383	  8.96231	 -0.04152	  8.54297	  0.30116	 -0.46823	 11.12114	708.14203	 23.60	
 20.408	 48.628	  8.84419	  8.54807	  0.24169	  8.97638	  0.00621	 -0.49093	 11.13358	708.08099	 23.60	
 20.410	 53.489	  8.83794	  8.08036	  0.56755	  9.35504	 -0.24944	 -0.50344	 11.12406	708.18500	 23.60	
 20.400	 58.396	  8.84718	  7.59157	  0.93460	  9.70407	 -0.46936	 -0.50854	 11.12687	708.02698	 23.60	
 20.403	 63.259	  8.85618	  7.08445	  1.33245	 10.00190	 -0.65326	 -0.50879	 11.12608	708.05298	 23.60	
 20.413	 68.100	  8.86324	  6.56539	  1.75202	 10.25153	 -0.80771	 -0.51735	 11.12942	708.13702	 23.60	
 20.398	 72.996	  8.86636	  6.02054	  2.20810	 10.44257	 -0.92909	 -0.50239	 11.12235	708.19202	 23.60	
 20.394	 77.868	  8.87520	  5.47125	  2.69054	 10.59187	 -1.02177	 -0.48867	 11.12284	708.23700	 23.60	
 20.403	 82.668	  8.88859	  4.93802	  3.18154	 10.69716	 -1.08704	 -0.46386	 11.12813	708.28198	 23.60	
 20.392	 87.560	  8.92029	  4.40393	  3.71459	 10.76093	 -1.10923	 -0.44711	 11.14271	708.23999	 23.60	
 20.392	 92.440	  8.93552	  3.86842	  4.25823	 10.76910	 -1.11012	 -0.43957	 11.15258	708.05798	 23.60	
 20.403	 97.332	  8.92840	  3.33797	  4.79636	 10.70932	 -1.08163	 -0.43017	 11.13332	708.16803	 23.60	
 20.394	102.132	  8.94026	  2.84621	  5.33771	 10.61809	 -1.01961	 -0.44347	 11.13393	708.17798	 23.60	
 20.398	107.004	  8.95119	  2.35987	  5.89183	 10.47788	 -0.92900	 -0.46230	 11.13811	708.09198	 23.60	
 20.413	111.900	  8.96756	  1.89428	  6.44620	 10.29937	 -0.80961	 -0.47654	 11.15562	708.20697	 23.60	
 20.403	116.741	  8.96689	  1.46472	  6.96499	 10.05115	 -0.66234	 -0.50301	 11.14259	708.20898	 23.60	
 20.400	121.604	  8.98316	  1.05904	  7.49180	  9.77339	 -0.48052	 -0.52799	 11.15916	708.13599	 23.60	
 20.410	126.511	  8.96999	  0.68121	  7.97736	  9.41965	 -0.26891	 -0.55286	 11.13642	708.29401	 23.60	
 20.408	131.372	  8.97838	  0.34308	  8.44899	  9.03845	 -0.01137	 -0.57447	 11.14264	708.16400	 23.60	
 20.396	136.227	  8.97137	  0.04863	  8.87419	  8.60510	  0.27856	 -0.60059	 11.12530	708.24103	 23.60	
 20.392	141.062	  8.96521	 -0.22154	  9.26552	  8.15485	  0.58520	 -0.61466	 11.12762	708.23199	 23.60	
 20.397	145.903	  8.97201	 -0.46241	  9.63327	  7.68293	  0.93157	 -0.62401	 11.14259	708.22601	 23.60	
 20.405	150.835	  8.99326	 -0.67772	  9.97884	  7.18169	  1.32043	 -0.63425	 11.16773	708.20099	 23.60	
 20.401	155.705	  8.96399	 -0.84619	 10.21244	  6.63311	  1.72865	 -0.63558	 11.13312	708.24597	 23.50	
 20.392	160.496	  8.97705	 -0.98660	 10.43798	  6.11771	  2.16031	 -0.64426	 11.15190	708.22900	 23.50	
 20.410	165.423	  8.94854	 -1.10508	 10.58348	  5.54023	  2.62603	 -0.62617	 11.12488	708.16101	 23.50	
 20.407	170.264	  8.95103	 -1.18558	 10.70223	  4.99484	  3.11282	 -0.61315	 11.13829	708.09998	 23.50	
 20.401	175.153	  8.94267	 -1.23394	 10.76229	  4.45081	  3.61374	 -0.59884	 11.13687	708.16803	 23.50	
  0.141	 45.000	 11.15542	  6.15988	  6.07419	  6.04647	  6.25977	  0.07544	 11.14013	708.09802	 23.50	
  4.001	128.691	 11.10851	  5.26839	  6.81584	  6.92256	  5.24140	  0.03321	 11.12121	708.18201	 23.50	
  4.002	 76.995	 11.10391	  6.33546	  5.71788	  7.17258	  5.01770	  0.03232	 11.11662	708.19000	 23.50	
  4.002	 25.892	 11.12539	  7.23070	  4.91728	  6.48581	  5.66459	  0.03051	 11.14068	708.20599	 23.50	
  4.002	-25.892	 11.10029	  7.18972	  4.89432	  5.36946	  6.73881	  0.01381	 11.12392	708.28601	 23.50	
  4.002	-76.995	 11.08443	  6.27944	  5.69567	  4.71256	  7.44266	  0.00485	 11.11062	708.19897	 23.50	
  4.001	-128.691	 11.11554	  5.23752	  6.81010	  4.95848	  7.19925	  0.02367	 11.13838	708.16803	 23.50	
  4.000	180.000	 11.12877	  4.81776	  7.32204	  5.91391	  6.20943	  0.03330	 11.14540	708.21301	 23.50	
  8.000	180.000	 10.88392	  3.31526	  8.44747	  5.64037	  5.91087	 -0.12759	 11.11937	708.20898	 23.50	
  7.991	-152.370	 10.87106	  3.54795	  8.12165	  4.46613	  7.12774	 -0.11568	 11.11771	708.28601	 23.50	
  7.997	-124.550	 10.86768	  4.28665	  7.23915	  3.59071	  8.12220	 -0.13848	 11.13118	708.20203	 23.50	
  8.006	-96.837	 10.87430	  5.40404	  6.03942	  3.19839	  8.60694	 -0.17077	 11.14840	708.25403	 23.50	
  7.988	-69.228	 10.86224	  6.64993	  4.81377	  3.33467	  8.43412	 -0.18792	 11.13087	708.18201	 23.50	
  7.997	-41.563	 10.85683	  7.73705	  3.85283	  3.96489	  7.68787	 -0.17250	 11.11344	708.21002	 23.50	
  8.008	-13.821	 10.86272	  8.38976	  3.33968	  5.02422	  6.53970	 -0.14257	 11.11606	708.31299	 23.50	
  8.008	 13.821	 10.86436	  8.41132	  3.35128	  6.27368	  5.30390	 -0.13125	 11.11659	708.26001	 23.50	
  7.997	 41.563	 10.88036	  7.81419	  3.88076	  7.43029	  4.28288	 -0.10868	 11.12086	708.24902	 23.50	
  7.988	 69.228	 10.87943	  6.74325	  4.83871	  8.18665	  3.65216	 -0.10632	 11.11014	708.24902	 23.50	
  8.006	 96.837	 10.90170	  5.50909	  6.05614	  8.36585	  3.52520	 -0.13677	 11.12418	708.22302	 23.50	
  7.997	124.550	 10.92349	  4.39617	  7.26815	  7.90256	  3.91477	 -0.12762	 11.14101	708.29199	 23.50	
  7.991	152.370	 10.90075	  3.61059	  8.13799	  6.88597	  4.76060	 -0.11266	 11.12568	708.14203	 23.50	
 12.009	161.059	 10.46804	  1.98042	  9.20310	  6.52632	  4.27420	 -0.32079	 11.11941	708.29199	 23.50	
 12.013	142.081	 10.47018	  2.51719	  8.54504	  7.73590	  3.23389	 -0.33335	 11.11987	708.21002	 23.50	
 12.006	123.113	 10.47201	  3.37164	  7.52992	  8.66874	  2.49654	 -0.34656	 11.11583	708.22400	 23.50	
 12.007	104.200	 10.47265	  4.47670	  6.30461	  9.24223	  2.06773	 -0.37490	 11.12215	708.26300	 23.50	
 11.989	 85.301	 10.43841	  5.72479	  5.00457	  9.32868	  1.98828	 -0.34845	 11.10094	708.31299	 23.50	
 12.013	 66.294	 10.43840	  7.01404	  3.81076	  8.99391	  2.24667	 -0.29376	 11.11599	708.23199	 23.50	
 12.012	 47.388	 10.42260	  8.14503	  2.83145	  8.21469	  2.85033	 -0.29716	 11.11040	708.39502	 23.40	
 11.990	 28.440	 10.42531	  8.98292	  2.15557	  7.14119	  3.74351	 -0.31824	 11.12478	708.13000	 23.40	
 11.991	  9.464	 10.42847	  9.41441	  1.80885	  5.87952	  4.88088	 -0.33794	 11.13333	708.21503	 23.40	
 11.991	 -9.464	 10.41026	  9.37375	  1.80060	  4.58738	  6.13683	 -0.33696	 11.11642	708.25500	 23.50	
 11.990	-28.440	 10.42282	  8.90985	  2.13583	  3.43184	  7.40146	 -0.34715	 11.13075	708.20898	 23.40	
 12.012	-47.388	 10.41243	  8.03343	  2.80220	  2.51888	  8.46440	 -0.37969	 11.12276	708.28497	 23.40	
 12.013	-66.294	 10.38513	  6.86196	  3.76545	  1.91018	  9.19726	 -0.41073	 11.10564	708.23297	 23.40	
 11.989	-85.301	 10.40872	  5.59104	  4.97594	  1.66730	  9.54224	 -0.41687	 11.13463	708.13599	 23.40	
 12.007	-104.200	 10.37483	  4.31798	  6.24709	  1.73699	  9.40632	 -0.37471	 11.10073	708.15900	 23.40	
 12.006	-123.113	 10.40713	  3.24445	  7.49117	  2.17051	  8.87527	 -0.32969	 11.12383	708.16803	 23.40	
 12.013	-142.081	 10.42022	  2.42907	  8.51104	  2.93905	  7.94020	 -0.32832	 11.12018	708.23798	 23.40	
 12.009	-161.059	 10.45143	  1.93511	  9.19167	  3.99352	  6.76913	 -0.33585	 11.13215	708.12000	 23.40	
 16.000	180.000	  9.82747	  0.29142	 10.18565	  4.65856	  4.91344	 -0.55373	 11.12239	708.21600	 23.40	
 15.990	-165.604	  9.80768	  0.38235	 10.00469	  3.42017	  6.18234	 -0.54526	 11.12249	708.16101	 23.40	
 16.002	-151.165	  9.79012	  0.72269	  9.48072	  2.31831	  7.43228	 -0.51868	 11.12825	708.13098	 23.40	
 16.002	-136.836	  9.77892	  1.29921	  8.65348	  1.41626	  8.55448	 -0.49071	 11.13915	708.22101	 23.40	
 15.995	-122.439	  9.76466	  2.11883	  7.56935	  0.76093	  9.43249	 -0.47604	 11.13331	708.31702	 23.40	
 15.993	-107.966	  9.72575	  3.14501	  6.31206	  0.33248	 10.00685	 -0.48976	 11.11111	708.28198	 23.40	
 16.005	-93.629	  9.71104	  4.32062	  5.01832	  0.14542	 10.25710	 -0.47076	 11.10174	708.31097	 23.40	
 15.992	-79.234	  9.76047	  5.63162	  3.78629	  0.21162	 10.22245	 -0.44196	 11.15213	708.25403	 23.40	
 16.009	-64.774	  9.72893	  6.89829	  2.63408	  0.50091	  9.76832	 -0.43502	 11.10449	708.26099	 23.40	
 15.997	-50.364	  9.76250	  8.09982	  1.70799	  1.05702	  9.04105	 -0.43998	 11.12727	708.26398	 23.40	
 15.997	-36.045	  9.75480	  9.07210	  0.99576	  1.82980	  8.03135	 -0.44181	 11.11222	708.32300	 23.40	
 16.000	-21.597	  9.75101	  9.77100	  0.52397	  2.82691	  6.83909	 -0.44965	 11.11240	708.30902	 23.40	
 16.003	 -7.169	  9.76315	 10.16050	  0.29248	  4.01081	  5.55869	 -0.43290	 11.12931	708.23798	 23.40	
 16.003	  7.169	  9.76907	 10.19620	  0.29687	  5.28800	  4.30598	 -0.43695	 11.13834	708.16998	 23.40	
 16.000	 21.597	  9.75312	  9.86228	  0.53851	  6.57682	  3.14313	 -0.44146	 11.12071	708.09698	 23.40	
 15.997	 36.045	  9.76392	  9.21462	  1.01601	  7.79560	  2.15664	 -0.44661	 11.12289	708.17401	 23.40	
 15.997	 50.364	  9.77553	  8.27676	  1.72637	  8.83675	  1.37443	 -0.44811	 11.12710	708.19299	 23.40	
 16.009	 64.774	  9.78299	  7.12172	  2.66471	  9.59615	  0.82993	 -0.44455	 11.12142	708.22601	 23.40	
 15.992	 79.234	  9.79391	  5.83591	  3.80691	 10.03548	  0.52445	 -0.49402	 11.11071	708.26300	 23.40	
 16.005	 93.629	  9.82382	  4.54160	  5.07715	 10.13877	  0.46599	 -0.52320	 11.11950	708.35901	 23.40	
 15.993	107.966	  9.83656	  3.33232	  6.37235	  9.87258	  0.64852	 -0.53199	 11.11683	708.27502	 23.40	
 15.995	122.439	  9.87338	  2.27981	  7.63645	  9.29386	  1.06923	 -0.52821	 11.14354	708.18402	 23.40	
 16.002	136.836	  9.86590	  1.42861	  8.70945	  8.39106	  1.71655	 -0.52585	 11.13566	708.20599	 23.40	
 16.002	151.165	  9.85595	  0.81422	  9.52285	  7.25361	  2.59956	 -0.52525	 11.12830	708.27502	 23.40	
 15.990	165.604	  9.83849	  0.43615	 10.01685	  5.96245	  3.69265	 -0.53042	 11.11509	708.27502	 23.40	
 20.003	168.362	  9.01769	 -1.01142	 10.59311	  5.24883	  3.01172	 -0.61366	 11.10711	708.12000	 23.40	
 20.008	156.764	  9.03542	 -0.74531	 10.21155	  6.53763	  1.92228	 -0.63190	 11.11533	708.20099	 23.40	
 20.000	145.147	  9.03641	 -0.29627	  9.53280	  7.74582	  0.99073	 -0.62139	 11.11034	708.26801	 23.40	
 19.995	133.545	  9.05236	  0.33474	  8.62591	  8.82005	  0.24525	 -0.58378	 11.11759	708.26398	 23.40	
 20.009	121.926	  9.04196	  1.14084	  7.52017	  9.69494	 -0.33422	 -0.53152	 11.12377	708.16699	 23.40	
 20.005	110.327	  9.02126	  2.13576	  6.28479	 10.28776	 -0.71333	 -0.48586	 11.11231	708.17798	 23.40	
 19.989	 98.733	  9.00689	  3.27148	  5.00769	 10.61998	 -0.91981	 -0.44789	 11.10739	708.21002	 23.40	
 19.999	 87.075	  8.99856	  4.51556	  3.74317	 10.69538	 -0.96271	 -0.46031	 11.12517	708.14301	 23.40	
 19.992	 75.457	  8.95820	  5.78459	  2.55981	 10.46013	 -0.82272	 -0.50442	 11.10073	708.09100	 23.40	
 20.009	 63.844	  8.94431	  7.03679	  1.49874	  9.98766	 -0.52999	 -0.51383	 11.11254	708.32300	 23.40	
 19.989	 52.269	  8.93315	  8.19484	  0.62091	  9.23236	 -0.03887	 -0.49828	 11.11736	708.25201	 23.40	
 19.999	 40.602	  8.91863	  9.19444	 -0.08698	  8.24628	  0.62485	 -0.45833	 11.11674	708.43701	 23.40	
 20.004	 29.051	  8.90845	  9.97002	 -0.61419	  7.09646	  1.46635	 -0.40705	 11.11859	708.23199	 23.40	
 20.005	 17.433	  8.89782	 10.47314	 -0.95485	  5.83719	  2.47206	 -0.37231	 11.10709	708.27502	 23.40	
 20.006	  5.780	  8.90457	 10.72328	 -1.13620	  4.55477	  3.60926	 -0.36457	 11.11529	708.16699	 23.40	
 20.006	 -5.780	  8.92284	 10.71017	 -1.13575	  3.32287	  4.85067	 -0.37420	 11.13030	708.23297	 23.40	
 20.005	-17.433	  8.91926	 10.40576	 -0.96790	  2.16342	  6.12110	 -0.40390	 11.11902	708.38501	 23.40	
 20.004	-29.051	  8.92467	  9.83659	 -0.63056	  1.15117	  7.34965	 -0.39580	 11.11849	708.44598	 23.40	
 19.999	-40.602	  8.93385	  9.01827	 -0.11015	  0.31739	  8.46526	 -0.39017	 11.12383	708.40698	 23.40	
 19.989	-52.269	  8.91803	  7.96141	  0.59184	 -0.35588	  9.40493	 -0.37976	 11.10580	708.39801	 23.40	
 20.009	-63.844	  8.90638	  6.77976	  1.47116	 -0.82648	 10.11336	 -0.34715	 11.09949	708.41498	 23.40	
 19.992	-75.457	  8.92386	  5.53295	  2.53185	 -1.12703	 10.60184	 -0.35789	 11.13389	708.37903	 23.40	
 19.999	-87.075	  8.91554	  4.25871	  3.70282	 -1.25517	 10.79355	 -0.36722	 11.13455	708.46503	 23.40	
 19.989	-98.733	  8.90401	  3.03662	  4.96210	 -1.22004	 10.72026	 -0.42132	 11.12794	708.42999	 23.40	
 20.005	-110.327	  8.90644	  1.93012	  6.23738	 -1.00687	 10.39444	 -0.47896	 11.13156	708.51898	 23.40	
 20.009	-121.926	  8.90496	  0.97141	  7.44304	 -0.61743	  9.77910	 -0.52880	 11.11145	708.36700	 23.40	
 19.995	-133.545	  8.92669	  0.18934	  8.54891	 -0.04320	  8.93674	 -0.55017	 11.10975	708.34998	 23.40	
 20.000	-145.147	  8.94322	 -0.40452	  9.46545	  0.72190	  7.88800	 -0.56002	 11.10572	708.39502	 23.30	
 20.008	-156.764	  8.97875	 -0.82411	 10.17450	  1.66612	  6.71419	 -0.55416	 11.12632	708.36499	 23.30	
 20.003	-168.362	  9.00112	 -1.05887	 10.59188	  2.75797	  5.46848	 -0.55151	 11.12853	708.46002	 23.40	
 20.000	180.000	  9.01381	 -1.11979	 10.72610	  3.97293	  4.21202	 -0.58922	 11.12177	708.42102	 23.30	
