FileType=PCF
NHL=14
Date=08/28/17	11:52:29
Facility=APL
Serial=16328-10
Customer=NASA
NP=6
Mach=0.100000
Calibration=1:1
CalPts=490
TstPts=95
PortNumbering=AP Standard
Units=Torr C m/s kg/m^3 deg mm 
Theta[deg]	Phi[deg]	P1[Torr]	P2[Torr]	P3[Torr]	P4[Torr]	P5[Torr]	P6[Torr]	Pt[Torr]	Ps[Abs,Torr]	Ts[C]	
  0.000	  0.000	  4.89244	  2.72018	  2.70671	  2.67414	  2.78170	  0.03270	  4.88910	707.76001	 24.10	
  1.691	128.401	  4.90260	  2.58649	  2.84564	  2.85134	  2.60858	  0.03099	  4.89969	707.81299	 24.10	
  1.692	 77.194	  4.90234	  2.77462	  2.65708	  2.89686	  2.56628	  0.03084	  4.89875	707.65601	 24.10	
  1.699	 26.182	  4.90577	  2.92442	  2.50961	  2.77917	  2.68504	  0.02973	  4.90134	707.70801	 24.10	
  1.699	-26.182	  4.90430	  2.91220	  2.50629	  2.58151	  2.86324	  0.02510	  4.90095	707.63501	 24.10	
  1.692	-77.194	  4.89886	  2.75883	  2.64366	  2.46150	  2.98143	  0.02436	  4.89414	707.66901	 24.10	
  1.691	-128.401	  4.91019	  2.57664	  2.84399	  2.51026	  2.93989	  0.02694	  4.90607	707.69501	 24.10	
  1.700	180.000	  4.90140	  2.49846	  2.92666	  2.67235	  2.77954	  0.02978	  4.89568	707.65503	 24.10	
  3.400	180.000	  4.90366	  2.25362	  3.14961	  2.64048	  2.75362	  0.01692	  4.90677	707.70599	 24.10	
  3.388	-152.325	  4.90701	  2.29325	  3.09376	  2.43710	  2.96371	  0.01555	  4.91177	707.68903	 24.10	
  3.397	-124.529	  4.88687	  2.41649	  2.92729	  2.26905	  3.12465	  0.01367	  4.89460	707.74597	 24.10	
  3.399	-96.763	  4.89577	  2.62089	  2.71959	  2.20104	  3.21476	  0.00794	  4.90308	707.66302	 24.00	
  3.394	-69.283	  4.89868	  2.84282	  2.50461	  2.22715	  3.18950	  0.00591	  4.90450	707.75702	 24.00	
  3.400	-41.398	  4.89474	  3.03148	  2.32972	  2.34146	  3.05247	  0.00639	  4.89904	707.71399	 24.00	
  3.401	-14.021	  4.89762	  3.14472	  2.24207	  2.52601	  2.85984	  0.00772	  4.90063	707.83002	 24.00	
  3.401	 14.021	  4.89709	  3.14908	  2.24837	  2.75435	  2.63571	  0.01359	  4.89920	707.81299	 24.00	
  3.400	 41.398	  4.89340	  3.04082	  2.34323	  2.94388	  2.45382	  0.01648	  4.89390	707.60498	 24.00	
  3.394	 69.283	  4.89030	  2.85045	  2.51182	  3.07232	  2.34424	  0.01662	  4.89188	707.74298	 24.00	
  3.399	 96.763	  4.89048	  2.63122	  2.72684	  3.10119	  2.32051	  0.01637	  4.89113	707.71503	 24.00	
  3.397	124.529	  4.89761	  2.44551	  2.93274	  3.02412	  2.38804	  0.01593	  4.89464	707.76202	 24.00	
  3.388	152.325	  4.90321	  2.30909	  3.08826	  2.85990	  2.53902	  0.01491	  4.90723	707.76801	 24.00	
  5.099	161.165	  4.88286	  2.01912	  3.33472	  2.83791	  2.48640	 -0.00199	  4.90457	707.75897	 24.00	
  5.109	142.013	  4.87946	  2.12430	  3.21200	  3.05057	  2.29045	 -0.00301	  4.90132	707.76202	 24.00	
  5.095	123.033	  4.85690	  2.27740	  3.01674	  3.19912	  2.14386	 -0.00495	  4.87792	707.83600	 24.00	
  5.105	104.191	  4.87736	  2.48879	  2.81078	  3.31466	  2.06925	 -0.00512	  4.89836	707.79401	 24.00	
  5.093	 85.207	  4.88152	  2.72090	  2.58165	  3.33606	  2.05659	 -0.00271	  4.90140	707.68402	 24.00	
  5.104	 66.290	  4.88110	  2.95112	  2.36099	  3.27615	  2.10503	  0.00113	  4.90308	707.75098	 24.00	
  5.094	 47.331	  4.86697	  3.14532	  2.17291	  3.12845	  2.21752	  0.00028	  4.88897	707.77698	 24.00	
  5.089	 28.397	  4.87614	  3.29924	  2.04454	  2.94514	  2.38639	 -0.00140	  4.90196	707.73401	 24.00	
  5.096	  9.576	  4.86111	  3.36938	  1.96689	  2.71167	  2.58975	 -0.00656	  4.88802	707.71997	 24.00	
  5.096	 -9.576	  4.87655	  3.37648	  1.97018	  2.48308	  2.83459	 -0.01044	  4.90369	707.74597	 24.00	
  5.089	-28.397	  4.87192	  3.28782	  2.03640	  2.27138	  3.05273	 -0.01391	  4.89948	707.80200	 24.00	
  5.094	-47.331	  4.88021	  3.13887	  2.16955	  2.10039	  3.25157	 -0.01772	  4.90971	707.77600	 24.00	
  5.104	-66.290	  4.86730	  2.92518	  2.34693	  1.97541	  3.38052	 -0.01882	  4.89866	707.74597	 24.00	
  5.093	-85.207	  4.86005	  2.68921	  2.56160	  1.92029	  3.43547	 -0.01798	  4.88763	707.69202	 24.00	
  5.105	-104.191	  4.87182	  2.46262	  2.80313	  1.93932	  3.42426	 -0.01197	  4.90018	707.76703	 24.00	
  5.095	-123.033	  4.87703	  2.26224	  3.02736	  2.02915	  3.32376	 -0.00716	  4.90632	707.88000	 24.00	
  5.109	-142.013	  4.86229	  2.09744	  3.20032	  2.17138	  3.14535	 -0.00308	  4.89092	707.78998	 24.00	
  5.099	-161.165	  4.87030	  2.00267	  3.32710	  2.37395	  2.93510	 -0.00274	  4.89716	707.88300	 24.00	
  5.100	180.000	  4.86601	  1.97268	  3.36396	  2.59616	  2.70176	 -0.00214	  4.89036	707.73401	 24.00	
  6.800	180.000	  4.84016	  1.69523	  3.59077	  2.55190	  2.66025	 -0.03051	  4.90225	707.83600	 24.00	
  6.796	-166.229	  4.83342	  1.71260	  3.55684	  2.32500	  2.88630	 -0.02735	  4.89832	707.89502	 24.00	
  6.808	-152.311	  4.82145	  1.77636	  3.46020	  2.11125	  3.10164	 -0.02659	  4.88935	707.82202	 24.00	
  6.795	-138.383	  4.82520	  1.89580	  3.32018	  1.93038	  3.30812	 -0.03149	  4.89579	707.70300	 24.00	
  6.792	-124.591	  4.81706	  2.05069	  3.13133	  1.78604	  3.46729	 -0.03496	  4.89075	707.67297	 24.00	
  6.787	-110.754	  4.81619	  2.24232	  2.91724	  1.69138	  3.58016	 -0.03834	  4.88826	707.77600	 24.00	
  6.800	-96.985	  4.81038	  2.45664	  2.68715	  1.63943	  3.63819	 -0.04666	  4.88531	707.75403	 24.00	
  6.800	-83.015	  4.82637	  2.69994	  2.46001	  1.64470	  3.65116	 -0.05295	  4.90089	707.77698	 24.00	
  6.787	-69.246	  4.82506	  2.92619	  2.24380	  1.69602	  3.58789	 -0.05006	  4.89635	707.83197	 24.00	
  6.792	-55.409	  4.81526	  3.13567	  2.04567	  1.78747	  3.46941	 -0.04809	  4.88724	707.72803	 24.00	
  6.795	-41.617	  4.84016	  3.33728	  1.89678	  1.93839	  3.32407	 -0.05028	  4.91165	707.73499	 24.00	
  6.808	-27.689	  4.82761	  3.47849	  1.77105	  2.11375	  3.11397	 -0.04269	  4.89835	707.78998	 24.00	
  6.796	-13.771	  4.83607	  3.57420	  1.70194	  2.32577	  2.89547	 -0.03780	  4.90407	707.78497	 24.00	
  6.800	  0.000	  4.83501	  3.60661	  1.68018	  2.54968	  2.66741	 -0.03700	  4.90315	707.81799	 24.00	
  6.796	 13.771	  4.81999	  3.57058	  1.70094	  2.77478	  2.43422	 -0.03359	  4.88508	707.77600	 24.00	
  6.808	 27.689	  4.83337	  3.49571	  1.77827	  3.00526	  2.23351	 -0.02752	  4.89802	707.82898	 24.00	
  6.795	 41.617	  4.82694	  3.34981	  1.90060	  3.20055	  2.05820	 -0.02536	  4.88913	707.87201	 23.90	
  6.792	 55.409	  4.81925	  3.16291	  2.05637	  3.35826	  1.91712	 -0.02434	  4.88026	707.94202	 23.90	
  6.787	 69.246	  4.84663	  2.96896	  2.26184	  3.49421	  1.83111	 -0.02385	  4.90664	707.84900	 23.90	
  6.800	 83.015	  4.83067	  2.72983	  2.46980	  3.54493	  1.77498	 -0.02710	  4.89133	707.72601	 23.90	
  6.800	 96.985	  4.83630	  2.50206	  2.70429	  3.54781	  1.77692	 -0.03204	  4.89658	707.84601	 23.90	
  6.787	110.754	  4.83551	  2.28484	  2.92919	  3.48549	  1.82551	 -0.03057	  4.89183	708.04102	 23.90	
  6.792	124.591	  4.84599	  2.09494	  3.14803	  3.37622	  1.92270	 -0.03126	  4.90309	708.07397	 23.90	
  6.795	138.383	  4.83127	  1.92805	  3.32191	  3.20374	  2.05543	 -0.03193	  4.89103	707.95099	 23.90	
  6.808	152.311	  4.83364	  1.80333	  3.46776	  3.00605	  2.22741	 -0.02803	  4.89402	707.91901	 23.90	
  6.796	166.229	  4.83866	  1.72747	  3.55736	  2.78523	  2.43530	 -0.02785	  4.90006	707.93903	 23.90	
  8.491	168.704	  4.76537	  1.43389	  3.75083	  2.72276	  2.35764	 -0.06393	  4.88396	707.79102	 23.90	
  8.502	157.493	  4.77901	  1.49993	  3.69042	  2.96273	  2.14851	 -0.06087	  4.89309	707.88000	 23.90	
  8.494	146.194	  4.77118	  1.60273	  3.56247	  3.17535	  1.95372	 -0.06596	  4.88371	707.75897	 23.90	
  8.495	135.039	  4.78131	  1.74305	  3.41056	  3.37613	  1.79326	 -0.07047	  4.89474	707.81000	 23.90	
  8.487	123.723	  4.77115	  1.90893	  3.20831	  3.53301	  1.65569	 -0.06725	  4.88443	707.90302	 23.90	
  8.492	112.575	  4.77436	  2.10493	  2.99467	  3.65598	  1.56222	 -0.06847	  4.89049	707.81000	 23.90	
  8.510	101.220	  4.77352	  2.32293	  2.76062	  3.73201	  1.50185	 -0.07198	  4.88555	707.84698	 23.90	
  8.500	 90.000	  4.77929	  2.55974	  2.52737	  3.75813	  1.48751	 -0.06860	  4.89401	707.90100	 23.90	
  8.510	 78.780	  4.77674	  2.79665	  2.29487	  3.73606	  1.50378	 -0.06153	  4.89424	708.06897	 23.90	
  8.492	 67.425	  4.77086	  3.02680	  2.07229	  3.65344	  1.56498	 -0.05600	  4.88893	707.83801	 23.90	
  8.487	 56.277	  4.77864	  3.24771	  1.88292	  3.54131	  1.66333	 -0.05443	  4.90132	707.87000	 23.90	
  8.495	 44.961	  4.76695	  3.43512	  1.70795	  3.36976	  1.79363	 -0.05727	  4.89008	707.89398	 23.90	
  8.494	 33.806	  4.76822	  3.59413	  1.57473	  3.17637	  1.96109	 -0.05872	  4.89148	707.95599	 23.90	
  8.502	 22.507	  4.77009	  3.71391	  1.47424	  2.95904	  2.15489	 -0.06369	  4.89547	707.90302	 23.90	
  8.491	 11.296	  4.77331	  3.78672	  1.41506	  2.72947	  2.37296	 -0.06992	  4.89922	707.95898	 23.90	
  8.500	  0.000	  4.76090	  3.79877	  1.38942	  2.48177	  2.59950	 -0.07228	  4.88906	707.90302	 23.90	
  8.491	-11.296	  4.77130	  3.77668	  1.41201	  2.25344	  2.84120	 -0.06988	  4.89891	707.92499	 23.90	
  8.502	-22.507	  4.76751	  3.69654	  1.46725	  2.03365	  3.06893	 -0.07476	  4.89433	707.90802	 23.90	
  8.494	-33.806	  4.75367	  3.56109	  1.56241	  1.83059	  3.27956	 -0.08385	  4.88326	707.99597	 23.90	
  8.495	-44.961	  4.76356	  3.40274	  1.69836	  1.66511	  3.47792	 -0.08603	  4.89571	707.85303	 23.90	
  8.487	-56.277	  4.74772	  3.19435	  1.86310	  1.53010	  3.62169	 -0.08769	  4.87732	707.82397	 23.90	
  8.492	-67.425	  4.74653	  2.97717	  2.05594	  1.43177	  3.73990	 -0.08964	  4.87841	707.78497	 23.90	
  8.510	-78.780	  4.74741	  2.74294	  2.27393	  1.36706	  3.81732	 -0.09431	  4.88152	707.78400	 23.90	
  8.500	-90.000	  4.74956	  2.50569	  2.50711	  1.34879	  3.84094	 -0.09043	  4.88371	707.87701	 23.90	
  8.510	-101.220	  4.74962	  2.27404	  2.74593	  1.36780	  3.81880	 -0.07961	  4.88448	707.85498	 23.90	
  8.492	-112.575	  4.76381	  2.06229	  2.98728	  1.43373	  3.74915	 -0.07252	  4.89502	707.88000	 23.90	
  8.487	-123.723	  4.76267	  1.86920	  3.20376	  1.53162	  3.62856	 -0.06831	  4.89535	707.86902	 23.90	
  8.495	-135.039	  4.75651	  1.69954	  3.39395	  1.66132	  3.46605	 -0.06927	  4.88471	707.90601	 23.90	
  8.494	-146.194	  4.77869	  1.57718	  3.56874	  1.83970	  3.28667	 -0.06313	  4.90796	707.89099	 23.90	
  8.502	-157.493	  4.77648	  1.48063	  3.68962	  2.03937	  3.06392	 -0.05914	  4.90302	707.78699	 23.90	
  8.491	-168.704	  4.78062	  1.42782	  3.76419	  2.25736	  2.83447	 -0.06373	  4.90206	707.91901	 23.90	
  8.500	180.000	  4.78704	  1.41278	  3.79389	  2.49307	  2.60092	 -0.06915	  4.90748	707.81799	 23.90	
 10.200	180.000	  4.70335	  1.12277	  3.97475	  2.41554	  2.52169	 -0.10996	  4.89680	707.64398	 23.90	
 10.191	-170.497	  4.70025	  1.13403	  3.95145	  2.17955	  2.76005	 -0.10697	  4.89694	707.79401	 23.90	
 10.210	-161.034	  4.69578	  1.17837	  3.88568	  1.95332	  2.99308	 -0.09903	  4.89353	707.75299	 23.90	
 10.194	-151.526	  4.68651	  1.25844	  3.77356	  1.74145	  3.21892	 -0.09706	  4.89036	707.75403	 24.00	
 10.190	-142.105	  4.69757	  1.37125	  3.64150	  1.56124	  3.43865	 -0.10100	  4.90297	707.84900	 24.00	
 10.215	-132.646	  4.68318	  1.50478	  3.46060	  1.39798	  3.61682	 -0.10392	  4.89083	707.83899	 23.90	
 10.203	-123.092	  4.67600	  1.67384	  3.25323	  1.26599	  3.76923	 -0.10522	  4.88539	707.82501	 24.00	
 10.192	-113.678	  4.68952	  1.87340	  3.04060	  1.17073	  3.90517	 -0.10755	  4.90356	707.86902	 24.00	
 10.208	-104.249	  4.68749	  2.08565	  2.80603	  1.10151	  3.99168	 -0.11801	  4.90459	707.92499	 24.00	
 10.210	-94.801	  4.67878	  2.31047	  2.56150	  1.06647	  4.02793	 -0.13143	  4.89385	707.85199	 24.00	
 10.210	-85.199	  4.67439	  2.55191	  2.31396	  1.06434	  4.02549	 -0.14043	  4.88701	707.86401	 24.00	
 10.208	-75.751	  4.68425	  2.79817	  2.08890	  1.09928	  3.99343	 -0.13872	  4.89898	708.04401	 24.00	
 10.192	-66.322	  4.68247	  3.03099	  1.87526	  1.16904	  3.90519	 -0.13233	  4.89497	707.93597	 24.00	
 10.203	-56.908	  4.68968	  3.25867	  1.68091	  1.26995	  3.78736	 -0.12864	  4.90054	707.93201	 24.00	
 10.215	-47.354	  4.68071	  3.45876	  1.50436	  1.39807	  3.62394	 -0.12511	  4.88778	708.02100	 24.00	
 10.190	-37.895	  4.69501	  3.64323	  1.36834	  1.56079	  3.44765	 -0.12204	  4.90070	707.98199	 24.00	
 10.194	-28.474	  4.68998	  3.78662	  1.25389	  1.74196	  3.23632	 -0.11820	  4.89844	707.84698	 24.00	
 10.210	-18.966	  4.68121	  3.89013	  1.16781	  1.94753	  2.99853	 -0.11048	  4.88758	707.86298	 24.00	
 10.191	 -9.503	  4.69299	  3.96623	  1.12389	  2.17551	  2.76990	 -0.10959	  4.89698	707.84399	 24.00	
 10.200	  0.000	  4.68270	  3.98434	  1.10312	  2.40562	  2.52729	 -0.10981	  4.88791	707.91498	 24.00	
 10.191	  9.503	  4.69791	  3.98016	  1.12572	  2.65815	  2.29927	 -0.11060	  4.90423	707.83197	 24.00	
 10.210	 18.966	  4.68437	  3.90997	  1.17175	  2.88787	  2.07105	 -0.10422	  4.88645	707.86102	 24.00	
 10.194	 28.474	  4.69553	  3.81588	  1.26088	  3.12499	  1.87164	 -0.09783	  4.89898	707.93201	 24.00	
 10.190	 37.895	  4.69566	  3.67844	  1.37443	  3.33860	  1.68827	 -0.09435	  4.89911	707.97699	 24.00	
 10.215	 47.354	  4.70678	  3.51595	  1.51790	  3.53824	  1.53096	 -0.09355	  4.90452	707.86902	 24.00	
 10.203	 56.908	  4.69475	  3.30393	  1.68909	  3.68556	  1.40141	 -0.09028	  4.89092	707.90900	 24.00	
 10.192	 66.322	  4.70656	  3.09052	  1.89132	  3.81568	  1.30955	 -0.08884	  4.89926	707.86902	 24.00	
 10.208	 75.751	  4.70721	  2.85758	  2.10325	  3.90390	  1.24014	 -0.09352	  4.89745	707.84698	 24.00	
 10.210	 85.199	  4.70134	  2.61466	  2.32955	  3.94164	  1.20313	 -0.10219	  4.89056	707.85498	 24.00	
 10.210	 94.801	  4.70943	  2.37251	  2.57729	  3.94830	  1.20410	 -0.11199	  4.89794	707.88397	 24.00	
 10.208	104.249	  4.69685	  2.13628	  2.81001	  3.89377	  1.23385	 -0.11233	  4.88210	707.89398	 24.00	
 10.192	113.678	  4.70869	  1.92736	  3.04985	  3.81357	  1.30475	 -0.10791	  4.89295	708.04303	 24.00	
 10.203	123.092	  4.70646	  1.72634	  3.26981	  3.69227	  1.39630	 -0.10758	  4.89325	707.87000	 24.00	
 10.215	132.646	  4.71537	  1.55080	  3.47902	  3.54236	  1.52187	 -0.11009	  4.90463	708.01599	 24.00	
 10.190	142.105	  4.71626	  1.41058	  3.65208	  3.34924	  1.68337	 -0.10786	  4.90318	707.91199	 24.00	
 10.194	151.526	  4.71870	  1.29145	  3.79693	  3.13687	  1.86705	 -0.10132	  4.90650	707.95599	 24.00	
 10.210	161.034	  4.70863	  1.19880	  3.89407	  2.90077	  2.06622	 -0.10030	  4.89944	707.76001	 24.00	
 10.191	170.497	  4.70668	  1.14660	  3.95408	  2.66107	  2.28680	 -0.10483	  4.89636	707.80798	 24.00	
 11.899	171.783	  4.61649	  0.85822	  4.13093	  2.57974	  2.19860	 -0.14712	  4.89950	707.90002	 24.00	
 11.890	163.610	  4.61565	  0.90338	  4.07297	  2.81881	  1.97454	 -0.14032	  4.89472	707.88000	 24.00	
 11.889	155.445	  4.61482	  0.97708	  3.97967	  3.05298	  1.76502	 -0.13906	  4.89301	707.90100	 24.00	
 11.909	147.299	  4.62808	  1.07996	  3.87000	  3.28839	  1.57554	 -0.14292	  4.90399	707.96997	 24.00	
 11.902	139.148	  4.61241	  1.20350	  3.69885	  3.48414	  1.39940	 -0.14477	  4.88621	707.82397	 24.00	
 11.894	130.867	  4.62586	  1.36494	  3.52254	  3.67510	  1.26003	 -0.14708	  4.89987	707.80499	 24.00	
 11.897	122.732	  4.62298	  1.53621	  3.31582	  3.83201	  1.13540	 -0.14744	  4.89523	707.71503	 24.00	
 11.903	114.597	  4.61432	  1.72760	  3.08805	  3.95323	  1.03712	 -0.15193	  4.88770	707.80798	 24.00	
 11.893	106.346	  4.61589	  1.94505	  2.85026	  4.04582	  0.96808	 -0.15598	  4.88862	707.89801	 24.00	
 11.892	 98.155	  4.62372	  2.17681	  2.61490	  4.11175	  0.92809	 -0.15396	  4.90338	707.76001	 24.00	
 11.900	 90.000	  4.61113	  2.40955	  2.36748	  4.12232	  0.91238	 -0.14930	  4.89444	707.87500	 24.00	
 11.892	 81.845	  4.59964	  2.64513	  2.12521	  4.09139	  0.92539	 -0.13800	  4.88197	707.85303	 24.00	
 11.893	 73.654	  4.61164	  2.89585	  1.90482	  4.04774	  0.97124	 -0.12677	  4.89706	707.88800	 24.00	
 11.903	 65.403	  4.61241	  3.13393	  1.69021	  3.95775	  1.04182	 -0.12263	  4.90009	707.91199	 24.00	
 11.897	 57.268	  4.60864	  3.35319	  1.49683	  3.82783	  1.13861	 -0.12309	  4.89994	707.94000	 24.00	
 11.894	 49.133	  4.59043	  3.54401	  1.31923	  3.65563	  1.26009	 -0.12628	  4.87938	707.93597	 24.10	
 11.902	 40.852	  4.60085	  3.73577	  1.17019	  3.48124	  1.40723	 -0.13105	  4.89526	707.91101	 24.00	
 11.909	 32.701	  4.60236	  3.89258	  1.04505	  3.27690	  1.58200	 -0.13053	  4.89697	707.89099	 24.00	
 11.889	 24.555	  4.60122	  4.01145	  0.95027	  3.04847	  1.77624	 -0.13760	  4.89792	707.95898	 24.00	
 11.890	 16.390	  4.59652	  4.09605	  0.87899	  2.80893	  1.98433	 -0.14322	  4.89394	707.85602	 24.10	
 11.899	  8.217	  4.60218	  4.15292	  0.83612	  2.57263	  2.21064	 -0.14703	  4.90187	707.87701	 24.10	
 11.900	  0.000	  4.59791	  4.16310	  0.82049	  2.32473	  2.44728	 -0.14741	  4.89456	707.81299	 24.10	
 11.899	 -8.217	  4.59422	  4.13721	  0.83316	  2.08463	  2.68416	 -0.14141	  4.88985	707.85999	 24.10	
 11.890	-16.390	  4.59765	  4.07838	  0.87446	  1.86010	  2.92288	 -0.13998	  4.89535	707.91199	 24.10	
 11.889	-24.555	  4.59692	  3.98073	  0.94328	  1.64515	  3.15910	 -0.14633	  4.89571	707.82202	 24.10	
 11.909	-32.701	  4.58885	  3.84520	  1.03648	  1.44836	  3.37275	 -0.15125	  4.88785	707.80103	 24.10	
 11.902	-40.852	  4.59853	  3.69290	  1.16364	  1.28326	  3.58136	 -0.15666	  4.89884	707.79901	 24.10	
 11.894	-49.133	  4.59743	  3.50159	  1.31422	  1.13033	  3.76535	 -0.15913	  4.89965	707.86700	 24.10	
 11.897	-57.268	  4.58944	  3.28743	  1.48131	  1.00230	  3.91363	 -0.16136	  4.89308	707.81299	 24.00	
 11.903	-65.403	  4.58725	  3.06332	  1.67684	  0.90616	  4.03702	 -0.16797	  4.88971	707.93597	 24.00	
 11.893	-73.654	  4.59267	  2.82811	  1.89374	  0.83876	  4.13089	 -0.17396	  4.89943	707.84698	 24.00	
 11.892	-81.845	  4.59169	  2.58785	  2.11972	  0.79640	  4.18316	 -0.17993	  4.89846	707.82898	 24.10	
 11.900	-90.000	  4.57687	  2.33800	  2.34933	  0.77903	  4.18910	 -0.17531	  4.88468	707.85303	 24.10	
 11.892	-98.155	  4.58622	  2.10720	  2.59622	  0.79530	  4.17793	 -0.16765	  4.89487	707.85303	 24.10	
 11.893	-106.346	  4.59279	  1.88515	  2.84109	  0.83701	  4.12884	 -0.15530	  4.90257	707.87500	 24.10	
 11.903	-114.597	  4.58683	  1.66759	  3.07590	  0.90440	  4.03386	 -0.14298	  4.89425	707.79401	 24.10	
 11.897	-122.732	  4.58572	  1.47658	  3.29407	  1.00224	  3.90561	 -0.14000	  4.88973	707.81500	 24.10	
 11.894	-130.867	  4.59308	  1.31274	  3.50419	  1.13060	  3.75469	 -0.13804	  4.89669	707.87000	 24.10	
 11.902	-139.148	  4.58797	  1.16100	  3.68518	  1.28153	  3.56277	 -0.13670	  4.88669	707.95697	 24.10	
 11.909	-147.299	  4.60501	  1.04379	  3.85416	  1.45567	  3.37208	 -0.13766	  4.90127	707.84100	 24.10	
 11.889	-155.445	  4.58939	  0.95037	  3.96226	  1.64675	  3.13714	 -0.13972	  4.88267	707.83600	 24.10	
 11.890	-163.610	  4.60583	  0.88778	  4.06634	  1.86659	  2.91075	 -0.14612	  4.89378	707.78699	 24.10	
 11.899	-171.783	  4.60542	  0.84758	  4.12192	  2.09291	  2.67151	 -0.15204	  4.89133	707.75098	 24.10	
 11.900	180.000	  4.61452	  0.84010	  4.14702	  2.33271	  2.43714	 -0.15202	  4.89963	707.77698	 24.10	
 13.600	180.000	  4.50410	  0.55765	  4.29836	  2.23531	  2.33557	 -0.19314	  4.89266	707.77698	 24.10	
 13.608	-172.853	  4.50496	  0.56343	  4.28644	  2.00091	  2.57424	 -0.19460	  4.89869	707.80200	 24.10	
 13.611	-165.583	  4.49789	  0.59479	  4.23193	  1.76953	  2.81288	 -0.19095	  4.89302	707.89801	 24.10	
 13.601	-158.353	  4.49708	  0.65196	  4.15080	  1.54916	  3.05496	 -0.18285	  4.89923	707.89398	 24.10	
 13.609	-151.210	  4.50017	  0.73059	  4.04355	  1.35274	  3.28577	 -0.17744	  4.90325	707.74200	 24.10	
 13.611	-143.999	  4.48305	  0.83039	  3.88946	  1.16486	  3.48911	 -0.17518	  4.89071	707.81500	 24.10	
 13.601	-136.825	  4.48236	  0.95722	  3.72266	  1.00359	  3.68996	 -0.17167	  4.89095	707.62500	 24.10	
 13.596	-129.640	  4.46710	  1.10173	  3.52117	  0.85673	  3.85706	 -0.16966	  4.88029	707.80701	 24.10	
 13.611	-122.431	  4.47269	  1.27040	  3.31771	  0.73770	  4.01881	 -0.17181	  4.88845	707.83600	 24.10	
 13.604	-115.211	  4.47890	  1.46152	  3.10006	  0.64641	  4.14808	 -0.17469	  4.89545	707.86401	 24.10	
 13.595	-108.042	  4.47989	  1.67030	  2.86393	  0.57685	  4.24678	 -0.18424	  4.89934	707.91101	 24.10	
 13.607	-100.793	  4.47061	  1.88842	  2.61644	  0.52435	  4.30663	 -0.19452	  4.88976	707.81500	 24.10	
 13.601	-93.617	  4.46624	  2.11732	  2.37332	  0.50118	  4.33438	 -0.20111	  4.88644	707.87201	 24.10	
 13.601	-86.383	  4.46216	  2.35559	  2.12970	  0.50070	  4.32986	 -0.20119	  4.87903	707.86902	 24.10	
 13.607	-79.207	  4.46640	  2.59809	  1.90003	  0.52472	  4.30304	 -0.19847	  4.88376	707.91498	 24.10	
 13.595	-71.958	  4.48101	  2.84825	  1.68409	  0.57703	  4.25043	 -0.19427	  4.89660	707.85999	 24.10	
 13.604	-64.789	  4.47444	  3.08060	  1.47251	  0.64641	  4.14972	 -0.19056	  4.88805	707.93597	 24.10	
 13.611	-57.569	  4.47693	  3.30819	  1.28334	  0.74034	  4.02731	 -0.18805	  4.89137	707.91498	 24.10	
 13.596	-50.360	  4.47958	  3.52165	  1.11383	  0.85945	  3.87715	 -0.18644	  4.88760	707.78998	 24.10	
 13.601	-43.175	  4.47636	  3.71136	  0.96104	  0.99923	  3.69666	 -0.18185	  4.88489	707.92499	 24.10	
 13.611	-36.001	  4.48536	  3.89331	  0.83167	  1.16420	  3.50528	 -0.17983	  4.89469	707.78497	 24.10	
 13.609	-28.790	  4.48048	  4.03435	  0.72395	  1.34359	  3.28830	 -0.18031	  4.89193	707.75403	 24.10	
 13.601	-21.647	  4.48870	  4.15652	  0.64480	  1.54264	  3.06967	 -0.17434	  4.89815	707.89203	 24.10	
 13.611	-14.417	  4.48475	  4.23934	  0.58296	  1.75892	  2.82597	 -0.17050	  4.89098	707.79102	 24.10	
 13.608	 -7.147	  4.48282	  4.29400	  0.55096	  1.98962	  2.58497	 -0.17165	  4.89233	707.86102	 24.10	
 13.600	  0.000	  4.48216	  4.31213	  0.54102	  2.22422	  2.34815	 -0.17478	  4.89144	707.89398	 24.10	
 13.608	  7.147	  4.47810	  4.29954	  0.55017	  2.46400	  2.11135	 -0.17792	  4.88806	707.90900	 24.10	
 13.611	 14.417	  4.48401	  4.26002	  0.58704	  2.71166	  1.88615	 -0.17634	  4.89543	707.81299	 24.10	
 13.601	 21.647	  4.47862	  4.17818	  0.64750	  2.94984	  1.66955	 -0.17158	  4.88730	707.90802	 24.10	
 13.609	 28.790	  4.47627	  4.06986	  0.72908	  3.18022	  1.46883	 -0.16670	  4.88367	707.78003	 24.10	
 13.611	 36.001	  4.48373	  3.93837	  0.83646	  3.40500	  1.29052	 -0.16432	  4.89032	707.83197	 24.10	
 13.601	 43.175	  4.49026	  3.77679	  0.97039	  3.60721	  1.13562	 -0.16114	  4.89440	707.85303	 24.10	
 13.596	 50.360	  4.49106	  3.58980	  1.12106	  3.79052	  0.99184	 -0.15924	  4.89285	707.91998	 24.10	
 13.611	 57.569	  4.49138	  3.38060	  1.29119	  3.94796	  0.87002	 -0.15967	  4.89192	707.96399	 24.10	
 13.604	 64.789	  4.48986	  3.15451	  1.48308	  4.07420	  0.77412	 -0.15804	  4.88788	707.89099	 24.10	
 13.595	 71.958	  4.50296	  2.92876	  1.69711	  4.17864	  0.70794	 -0.16329	  4.89865	707.88000	 24.10	
 13.607	 79.207	  4.50745	  2.68749	  1.91971	  4.24672	  0.65827	 -0.17458	  4.89710	707.94299	 24.10	
 13.601	 86.383	  4.49637	  2.43764	  2.14752	  4.26667	  0.63377	 -0.18436	  4.88173	707.97302	 24.10	
 13.601	 93.617	  4.50646	  2.19945	  2.39398	  4.27420	  0.63505	 -0.19330	  4.89311	707.91901	 24.10	
 13.607	100.793	  4.50502	  1.96443	  2.63425	  4.24178	  0.65601	 -0.19636	  4.88877	707.84900	 24.10	
 13.595	108.042	  4.51881	  1.74480	  2.88529	  4.18564	  0.70583	 -0.19640	  4.90140	707.90100	 24.10	
 13.604	115.211	  4.50085	  1.52739	  3.10802	  4.07320	  0.77046	 -0.19299	  4.88161	707.90100	 24.10	
 13.611	122.431	  4.50376	  1.33558	  3.33452	  3.94772	  0.86456	 -0.18857	  4.88154	707.95898	 24.10	
 13.596	129.640	  4.51050	  1.16421	  3.54735	  3.79452	  0.98630	 -0.18725	  4.88652	708.00500	 24.10	
 13.601	136.825	  4.51521	  1.00970	  3.74386	  3.61813	  1.12748	 -0.18529	  4.89326	708.00500	 24.10	
 13.611	143.999	  4.51747	  0.87729	  3.91298	  3.42244	  1.28340	 -0.18130	  4.90034	707.88000	 24.00	
 13.609	151.210	  4.51412	  0.76457	  4.05086	  3.20175	  1.46232	 -0.18095	  4.89583	707.92499	 24.10	
 13.601	158.353	  4.51927	  0.67979	  4.16425	  2.97116	  1.66526	 -0.17945	  4.90403	707.87201	 24.10	
 13.611	165.583	  4.50972	  0.61329	  4.23995	  2.72578	  1.87450	 -0.18178	  4.89462	707.81299	 24.10	
 13.608	172.853	  4.49655	  0.57224	  4.27423	  2.47445	  2.09745	 -0.18788	  4.88229	707.97900	 24.10	
 15.298	173.587	  4.37742	  0.29500	  4.41535	  2.36868	  1.98913	 -0.22131	  4.88580	708.09198	 24.10	
 15.291	167.167	  4.39786	  0.33070	  4.39138	  2.62016	  1.77323	 -0.22095	  4.90386	708.01202	 24.10	
 15.307	160.676	  4.38086	  0.38505	  4.30331	  2.85522	  1.54903	 -0.21724	  4.88405	707.89502	 24.10	
 15.300	154.261	  4.38346	  0.46053	  4.20560	  3.09299	  1.34791	 -0.21515	  4.88505	707.75098	 24.10	
 15.288	147.854	  4.39472	  0.55722	  4.08879	  3.32334	  1.16850	 -0.21765	  4.89741	707.72302	 24.10	
 15.293	141.428	  4.39805	  0.67484	  3.93988	  3.53913	  0.99966	 -0.21824	  4.89867	707.85498	 24.10	
 15.299	134.985	  4.38786	  0.80721	  3.75505	  3.72966	  0.84353	 -0.21867	  4.88811	707.88397	 24.10	
 15.305	128.583	  4.39042	  0.96197	  3.56294	  3.90986	  0.71290	 -0.22196	  4.88889	707.92499	 24.10	
 15.309	122.142	  4.39877	  1.13667	  3.35634	  4.07036	  0.60321	 -0.22288	  4.89905	707.77399	 24.10	
 15.304	115.711	  4.38276	  1.32302	  3.12118	  4.18089	  0.51210	 -0.22441	  4.88079	707.79797	 24.10	
 15.297	109.291	  4.38507	  1.52854	  2.88827	  4.28440	  0.44217	 -0.22560	  4.88804	707.94800	 24.10	
 15.293	102.897	  4.39237	  1.75090	  2.65315	  4.36498	  0.39437	 -0.22560	  4.89737	707.89203	 24.10	
 15.293	 96.458	  4.38334	  1.97819	  2.40588	  4.40154	  0.36423	 -0.22283	  4.89050	707.78003	 24.10	
 15.300	 90.000	  4.38735	  2.21947	  2.16685	  4.42459	  0.35387	 -0.21724	  4.89763	707.93103	 24.10	
 15.293	 83.542	  4.37801	  2.45904	  1.92651	  4.40140	  0.36563	 -0.21018	  4.89235	707.82898	 24.10	
 15.293	 77.103	  4.38357	  2.70684	  1.70084	  4.36430	  0.39612	 -0.20071	  4.89777	707.90002	 24.10	
 15.297	 70.709	  4.37007	  2.93640	  1.48205	  4.27937	  0.44797	 -0.19252	  4.88503	707.88000	 24.10	
 15.304	 64.289	  4.35810	  3.16291	  1.27404	  4.16974	  0.51699	 -0.18749	  4.87778	707.97400	 24.10	
 15.309	 57.858	  4.36559	  3.39457	  1.08719	  4.05289	  0.60575	 -0.18781	  4.89163	707.87701	 24.10	
 15.305	 51.417	  4.34907	  3.59249	  0.91344	  3.88697	  0.71605	 -0.18875	  4.87731	707.90900	 24.10	
 15.299	 45.015	  4.35987	  3.79450	  0.76614	  3.71928	  0.85268	 -0.19058	  4.89095	707.78497	 24.10	
 15.293	 38.572	  4.36487	  3.97177	  0.63360	  3.52401	  1.00786	 -0.18899	  4.89568	707.74500	 24.10	
 15.288	 32.146	  4.36086	  4.11637	  0.52401	  3.30944	  1.17678	 -0.18932	  4.89029	707.87201	 24.10	
 15.300	 25.739	  4.35568	  4.23636	  0.42719	  3.08162	  1.35805	 -0.19000	  4.88998	707.95599	 24.10	
 15.307	 19.324	  4.34602	  4.32428	  0.35530	  2.83712	  1.55947	 -0.19255	  4.87960	707.98700	 24.10	
 15.291	 12.833	  4.35592	  4.39875	  0.30579	  2.59893	  1.77878	 -0.19149	  4.88974	707.96698	 24.10	
 15.298	  6.413	  4.34734	  4.42942	  0.27270	  2.35262	  1.99902	 -0.19223	  4.88189	707.90802	 24.10	
 15.300	  0.000	  4.36017	  4.45039	  0.26484	  2.11707	  2.24014	 -0.18994	  4.89373	707.89203	 24.10	
 15.298	 -6.413	  4.35509	  4.42783	  0.27299	  1.88081	  2.47424	 -0.18897	  4.88810	707.92798	 24.10	
 15.291	-12.833	  4.35724	  4.37758	  0.30441	  1.65493	  2.71339	 -0.18957	  4.88899	707.93103	 24.10	
 15.307	-19.324	  4.36002	  4.30522	  0.35359	  1.43420	  2.95661	 -0.19198	  4.89764	707.91199	 24.10	
 15.300	-25.739	  4.35052	  4.18996	  0.42476	  1.23235	  3.18095	 -0.19112	  4.88272	707.85602	 24.10	
 15.288	-32.146	  4.36608	  4.07139	  0.51813	  1.05172	  3.41103	 -0.19515	  4.89713	707.80701	 24.10	
 15.293	-38.572	  4.35898	  3.90878	  0.62870	  0.87648	  3.61632	 -0.19451	  4.89285	707.83600	 24.10	
 15.299	-45.015	  4.36050	  3.73178	  0.75888	  0.72416	  3.81186	 -0.19481	  4.89514	707.86298	 24.10	
 15.305	-51.417	  4.35306	  3.52854	  0.90951	  0.59345	  3.97560	 -0.19661	  4.88666	707.90002	 24.10	
 15.309	-57.858	  4.35305	  3.31505	  1.07870	  0.48155	  4.12585	 -0.19715	  4.88977	707.88000	 24.10	
 15.304	-64.289	  4.34642	  3.08162	  1.26431	  0.39149	  4.24310	 -0.19633	  4.88294	707.83002	 24.10	
 15.297	-70.709	  4.35511	  2.85309	  1.46996	  0.31749	  4.35256	 -0.20091	  4.89494	707.74298	 24.10	
 15.293	-77.103	  4.34218	  2.60511	  1.67897	  0.26388	  4.41308	 -0.20107	  4.88464	707.80701	 24.10	
 15.293	-83.542	  4.34451	  2.36688	  1.90786	  0.23329	  4.46030	 -0.20459	  4.88694	707.83600	 24.10	
 15.300	-90.000	  4.34265	  2.12304	  2.14465	  0.22076	  4.47413	 -0.20935	  4.88909	707.76501	 24.10	
 15.293	-96.458	  4.35078	  1.89258	  2.38992	  0.23263	  4.46722	 -0.21013	  4.89650	707.86401	 24.10	
 15.293	-102.897	  4.34673	  1.66575	  2.63086	  0.26483	  4.41797	 -0.20877	  4.89253	707.85303	 24.10	
 15.297	-109.291	  4.34963	  1.45206	  2.87175	  0.31485	  4.35098	 -0.20624	  4.89612	707.86401	 24.10	
 15.304	-115.711	  4.35143	  1.25277	  3.10461	  0.38769	  4.24869	 -0.19952	  4.89729	707.84399	 24.10	
 15.309	-122.142	  4.35160	  1.06733	  3.33030	  0.48049	  4.12214	 -0.19726	  4.89342	707.83002	 24.10	
 15.305	-128.583	  4.35134	  0.90059	  3.53902	  0.59266	  3.96824	 -0.19657	  4.88803	707.93597	 24.10	
 15.299	-134.985	  4.36228	  0.75420	  3.74169	  0.72315	  3.80487	 -0.20068	  4.89858	707.91199	 24.10	
 15.293	-141.428	  4.35867	  0.62584	  3.91078	  0.87903	  3.60291	 -0.20480	  4.88862	707.91699	 24.10	
 15.288	-147.854	  4.38118	  0.52121	  4.08244	  1.05747	  3.40705	 -0.20992	  4.91048	707.84100	 24.10	
 15.300	-154.261	  4.36429	  0.42965	  4.19225	  1.23905	  3.17061	 -0.21445	  4.88894	707.86700	 24.10	
 15.307	-160.676	  4.36573	  0.35844	  4.29403	  1.43889	  2.93986	 -0.22177	  4.88831	707.87799	 24.10	
 15.291	-167.167	  4.38240	  0.31506	  4.37947	  1.66896	  2.70507	 -0.22901	  4.89873	707.84100	 24.10	
 15.298	-173.587	  4.37833	  0.28735	  4.41739	  1.89191	  2.46171	 -0.23092	  4.89454	707.96698	 24.10	
 15.300	180.000	  4.36438	  0.28054	  4.41613	  2.12042	  2.21677	 -0.22657	  4.87140	707.84698	 24.10	
 17.000	180.000	  4.24696	  0.01439	  4.55604	  2.01569	  2.10973	 -0.25063	  4.89390	707.67999	 24.10	
 16.990	-174.179	  4.23538	  0.01724	  4.53256	  1.77811	  2.33834	 -0.25310	  4.88750	707.73499	 24.10	
 17.009	-168.383	  4.24021	  0.03759	  4.50376	  1.55226	  2.58053	 -0.25354	  4.89602	707.92603	 24.10	
 17.000	-162.596	  4.22164	  0.07993	  4.41956	  1.32950	  2.81051	 -0.25003	  4.87778	707.85498	 24.10	
 16.990	-156.759	  4.22969	  0.14040	  4.33920	  1.13118	  3.04990	 -0.24221	  4.89110	707.89398	 24.10	
 16.995	-150.919	  4.21524	  0.21826	  4.20871	  0.93809	  3.26932	 -0.23882	  4.87704	707.89203	 24.10	
 16.988	-145.161	  4.23136	  0.31190	  4.08697	  0.76322	  3.50037	 -0.23705	  4.89766	707.87701	 24.10	
 17.014	-139.343	  4.20890	  0.42000	  3.91021	  0.59831	  3.69107	 -0.23035	  4.87743	707.92499	 24.10	
 17.007	-133.546	  4.21345	  0.55385	  3.73460	  0.46247	  3.88225	 -0.22508	  4.88626	707.80701	 24.10	
 17.001	-127.699	  4.21508	  0.70126	  3.53750	  0.33551	  4.05638	 -0.22099	  4.89051	707.91998	 24.10	
 17.006	-121.937	  4.19953	  0.85871	  3.31549	  0.22592	  4.19348	 -0.21555	  4.87888	707.89801	 24.10	
 17.002	-116.134	  4.20685	  1.04082	  3.09902	  0.13706	  4.33046	 -0.21888	  4.89285	707.73401	 24.10	
 17.001	-110.310	  4.21425	  1.23819	  2.87271	  0.06288	  4.44242	 -0.21798	  4.90428	707.79901	 24.10	
 16.988	-104.517	  4.20526	  1.44473	  2.63034	  0.01553	  4.50722	 -0.21429	  4.89097	707.86298	 24.10	
 17.008	-98.662	  4.20409	  1.66294	  2.38634	 -0.02449	  4.56034	 -0.20636	  4.89170	707.85303	 24.10	
 16.996	-92.909	  4.20781	  1.89085	  2.15214	 -0.03666	  4.58738	 -0.19934	  4.89431	707.91101	 24.10	
 16.996	-87.091	  4.21638	  2.12959	  1.91681	 -0.04108	  4.59673	 -0.19321	  4.90044	707.85498	 24.10	
 17.012	-81.253	  4.20263	  2.36143	  1.68030	 -0.02580	  4.55974	 -0.18836	  4.88687	708.05701	 24.10	
 16.988	-75.483	  4.20669	  2.60170	  1.46550	  0.01294	  4.51083	 -0.18363	  4.88819	708.03003	 24.00	
 17.001	-69.690	  4.21400	  2.84584	  1.25568	  0.06400	  4.44440	 -0.18301	  4.89473	707.98102	 24.10	
 17.002	-63.866	  4.20529	  3.07425	  1.05826	  0.13572	  4.33132	 -0.18721	  4.88118	707.97900	 24.00	
 17.006	-58.063	  4.21337	  3.30447	  0.87806	  0.22603	  4.21169	 -0.19122	  4.88641	708.03497	 24.10	
 17.001	-52.301	  4.21760	  3.52191	  0.71274	  0.33394	  4.06642	 -0.19079	  4.89095	707.96198	 24.10	
 17.007	-46.454	  4.21900	  3.72690	  0.56196	  0.45600	  3.89831	 -0.19105	  4.89309	707.80103	 24.10	
 17.014	-40.657	  4.21666	  3.90973	  0.42950	  0.59754	  3.71477	 -0.19078	  4.89081	707.91998	 24.10	
 16.988	-34.839	  4.22448	  4.07970	  0.31560	  0.75839	  3.51510	 -0.19075	  4.89676	707.87500	 24.10	
 16.995	-29.081	  4.21681	  4.21696	  0.21794	  0.93121	  3.29270	 -0.19494	  4.88728	707.86298	 24.10	
 16.990	-23.241	  4.22153	  4.34129	  0.13906	  1.12096	  3.06946	 -0.19643	  4.89250	707.82501	 24.10	
 17.000	-17.404	  4.22515	  4.44335	  0.07649	  1.32571	  2.83988	 -0.19751	  4.89972	707.82397	 24.10	
 17.009	-11.617	  4.21506	  4.50386	  0.02780	  1.53554	  2.59319	 -0.18848	  4.88891	707.80798	 24.10	
 16.990	 -5.821	  4.21987	  4.54988	  0.00612	  1.76505	  2.36016	 -0.19011	  4.89283	707.96503	 24.10	
 17.000	  0.000	  4.20636	  4.55469	 -0.00402	  1.99168	  2.11846	 -0.18788	  4.88058	708.02600	 24.10	
 16.990	  5.821	  4.20886	  4.55090	  0.00721	  2.23459	  1.88733	 -0.18500	  4.88281	707.97101	 24.10	
 17.009	 11.617	  4.20818	  4.52056	  0.02804	  2.47271	  1.66422	 -0.19291	  4.88594	707.98102	 24.10	
 17.000	 17.404	  4.20702	  4.45834	  0.07454	  2.71350	  1.44954	 -0.19202	  4.88251	708.04999	 24.10	
 16.990	 23.241	  4.21683	  4.38212	  0.13929	  2.96255	  1.24871	 -0.19123	  4.89400	707.93103	 24.10	
 16.995	 29.081	  4.21703	  4.26978	  0.21941	  3.19236	  1.05968	 -0.19360	  4.89239	707.96198	 24.10	
 16.988	 34.839	  4.21867	  4.13539	  0.31875	  3.41105	  0.88769	 -0.19818	  4.89092	707.99298	 24.10	
 17.014	 40.657	  4.21944	  3.98197	  0.42897	  3.62492	  0.72453	 -0.20645	  4.89306	707.95599	 24.10	
 17.007	 46.454	  4.22764	  3.81013	  0.56101	  3.82259	  0.58081	 -0.21140	  4.90164	707.88800	 24.10	
 17.001	 52.301	  4.22867	  3.61147	  0.71571	  3.99518	  0.45661	 -0.21068	  4.89523	707.99799	 24.00	
 17.006	 58.063	  4.23900	  3.40794	  0.88334	  4.15578	  0.35038	 -0.20994	  4.90688	708.00403	 24.00	
 17.002	 63.866	  4.23360	  3.17851	  1.06319	  4.27708	  0.25971	 -0.21052	  4.89769	707.95001	 24.00	
 17.001	 69.690	  4.22400	  2.93846	  1.25905	  4.37347	  0.18612	 -0.21464	  4.88310	707.97101	 24.00	
 16.988	 75.483	  4.23530	  2.70355	  1.47135	  4.46140	  0.13189	 -0.21719	  4.89139	707.98999	 24.10	
 17.012	 81.253	  4.23549	  2.46292	  1.68994	  4.51604	  0.09234	 -0.22627	  4.89281	708.04102	 24.10	
 16.996	 87.091	  4.24453	  2.22527	  1.92654	  4.54404	  0.07782	 -0.22788	  4.89789	707.93201	 24.00	
 16.996	 92.909	  4.24826	  1.98597	  2.16626	  4.54412	  0.07881	 -0.23200	  4.89593	707.84601	 24.10	
 17.008	 98.662	  4.24618	  1.75335	  2.40304	  4.51562	  0.09561	 -0.23454	  4.89199	707.96698	 24.10	
 16.988	104.517	  4.24390	  1.52973	  2.64200	  4.45625	  0.13251	 -0.23802	  4.88328	708.03302	 24.10	
 17.001	110.310	  4.25278	  1.31681	  2.88759	  4.38735	  0.18211	 -0.23989	  4.89255	707.85498	 24.10	
 17.002	116.134	  4.24644	  1.11612	  3.11611	  4.27332	  0.25576	 -0.24193	  4.87922	707.97900	 24.00	
 17.006	121.937	  4.26132	  0.93513	  3.35180	  4.15886	  0.34532	 -0.24330	  4.89612	707.93103	 24.10	
 17.001	127.699	  4.24735	  0.75951	  3.55204	  3.99569	  0.44451	 -0.24209	  4.88120	708.03497	 24.00	
 17.007	133.546	  4.26017	  0.60983	  3.76365	  3.83517	  0.57176	 -0.24599	  4.89307	707.95099	 24.10	
 17.014	139.343	  4.25637	  0.47383	  3.94162	  3.64010	  0.71448	 -0.24740	  4.88829	707.96399	 24.10	
 16.988	145.161	  4.25909	  0.35873	  4.10258	  3.43147	  0.87717	 -0.24742	  4.89100	707.93597	 24.10	
 16.995	150.919	  4.26859	  0.25572	  4.25195	  3.22067	  1.04968	 -0.24975	  4.90388	707.99799	 24.10	
 16.990	156.759	  4.25758	  0.17457	  4.35617	  2.98285	  1.23557	 -0.24813	  4.89555	707.91901	 24.00	
 17.000	162.596	  4.25198	  0.10734	  4.44313	  2.74145	  1.43863	 -0.24942	  4.89156	707.96399	 24.00	
 17.009	168.383	  4.26433	  0.05806	  4.52065	  2.50669	  1.65805	 -0.25075	  4.90447	707.84100	 24.00	
 16.990	174.179	  4.25723	  0.02964	  4.55046	  2.26377	  1.87846	 -0.25093	  4.90012	708.01898	 24.00	
 18.709	174.675	  4.09079	 -0.23458	  4.63818	  2.13025	  1.74782	 -0.25950	  4.88201	707.95099	 24.10	
 18.703	169.441	  4.10914	 -0.21010	  4.62515	  2.37350	  1.53819	 -0.26602	  4.90055	707.90302	 24.10	
 18.691	164.085	  4.09720	 -0.16238	  4.54984	  2.60922	  1.31927	 -0.27158	  4.88264	707.95599	 24.10	
 18.706	158.818	  4.10379	 -0.10789	  4.47871	  2.85225	  1.11794	 -0.27427	  4.88860	707.94202	 24.10	
 18.695	153.537	  4.11385	 -0.03541	  4.38394	  3.08888	  0.93074	 -0.27229	  4.89921	708.08502	 24.10	
 18.704	148.255	  4.10845	  0.05078	  4.25173	  3.30915	  0.75230	 -0.26857	  4.89404	707.91498	 24.10	
 18.698	142.952	  4.11571	  0.15861	  4.10893	  3.53236	  0.59002	 -0.26421	  4.89872	707.94299	 24.00	
 18.699	137.625	  4.12212	  0.28010	  3.94493	  3.73907	  0.44328	 -0.26779	  4.90297	707.96198	 24.10	
 18.705	132.343	  4.12128	  0.41687	  3.75826	  3.92343	  0.31213	 -0.26397	  4.90053	707.86902	 24.10	
 18.713	127.067	  4.10614	  0.56410	  3.54530	  4.07931	  0.19409	 -0.25554	  4.88679	707.93201	 24.00	
 18.700	121.794	  4.11155	  0.72888	  3.33687	  4.23462	  0.09147	 -0.25032	  4.89386	707.89801	 24.00	
 18.698	116.504	  4.09897	  0.91004	  3.10344	  4.35170	  0.00792	 -0.24586	  4.88266	707.97699	 24.00	
 18.707	111.165	  4.10610	  1.10306	  2.87623	  4.46854	 -0.06477	 -0.23887	  4.89478	707.88800	 24.00	
 18.690	105.863	  4.10088	  1.30867	  2.63745	  4.54517	 -0.11556	 -0.23086	  4.88998	707.86298	 24.10	
 18.696	100.583	  4.09691	  1.52560	  2.39687	  4.59953	 -0.15350	 -0.22600	  4.89072	707.93402	 24.00	
 18.700	 95.309	  4.09892	  1.75233	  2.16181	  4.63887	 -0.17514	 -0.22131	  4.89428	707.88599	 24.10	
 18.700	 90.000	  4.08628	  1.97933	  1.92141	  4.63707	 -0.18067	 -0.22558	  4.88259	707.93201	 24.00	
 18.700	 84.691	  4.08995	  2.22198	  1.69101	  4.63382	 -0.17336	 -0.22784	  4.88965	708.09198	 24.10	
 18.696	 79.417	  4.08684	  2.45867	  1.46642	  4.60061	 -0.15353	 -0.23434	  4.89356	707.98102	 24.10	
 18.690	 74.137	  4.08139	  2.69450	  1.25513	  4.53940	 -0.11244	 -0.22959	  4.89101	708.01898	 24.00	
 18.707	 68.835	  4.08230	  2.93321	  1.04647	  4.46136	 -0.06099	 -0.23007	  4.89531	708.03802	 24.10	
 18.698	 63.496	  4.07492	  3.16388	  0.85350	  4.34965	  0.01064	 -0.22648	  4.89214	707.94800	 24.10	
 18.700	 58.206	  4.07182	  3.38486	  0.67787	  4.21852	  0.09884	 -0.22403	  4.88822	708.07202	 24.00	
 18.713	 52.933	  4.07281	  3.60130	  0.51240	  4.07291	  0.20220	 -0.22492	  4.89909	707.95697	 24.00	
 18.705	 47.657	  4.06677	  3.79452	  0.36601	  3.89701	  0.32157	 -0.22323	  4.89441	707.97699	 24.00	
 18.699	 42.375	  4.06257	  3.97087	  0.23783	  3.70862	  0.45605	 -0.21512	  4.89265	707.90601	 24.00	
 18.698	 37.048	  4.06330	  4.13837	  0.11848	  3.50547	  0.60427	 -0.20483	  4.89414	708.03497	 24.00	
 18.704	 31.745	  4.05677	  4.27701	  0.01560	  3.28299	  0.76718	 -0.19481	  4.88827	707.94299	 24.00	
 18.695	 26.463	  4.07392	  4.41850	 -0.06797	  3.07056	  0.95065	 -0.19112	  4.91063	707.92297	 24.00	
 18.706	 21.182	  4.05868	  4.50354	 -0.14031	  2.82814	  1.13416	 -0.18125	  4.89448	708.01801	 24.00	
 18.691	 15.915	  4.05260	  4.57018	 -0.19228	  2.58426	  1.33598	 -0.18180	  4.88373	707.91998	 24.00	
 18.703	 10.559	  4.05966	  4.63367	 -0.23489	  2.34653	  1.55082	 -0.18198	  4.89585	708.01801	 24.00	
 18.709	  5.325	  4.05623	  4.65759	 -0.25716	  2.10932	  1.76654	 -0.17879	  4.88988	708.02899	 24.00	
 18.700	  0.000	  4.05231	  4.65812	 -0.26317	  1.86756	  1.99636	 -0.17769	  4.88319	707.99500	 24.00	
 18.709	 -5.325	  4.05782	  4.64772	 -0.25738	  1.63906	  2.22969	 -0.17940	  4.89010	707.96698	 24.00	
 18.703	-10.559	  4.05805	  4.60861	 -0.23721	  1.42020	  2.46316	 -0.17951	  4.88880	708.01001	 24.00	
 18.691	-15.915	  4.05393	  4.53779	 -0.19494	  1.20136	  2.70155	 -0.18705	  4.88168	707.92499	 24.00	
 18.706	-21.182	  4.06347	  4.46458	 -0.14402	  1.00364	  2.93898	 -0.19260	  4.89489	708.01300	 24.00	
 18.695	-26.463	  4.06290	  4.35166	 -0.07358	  0.81354	  3.16366	 -0.18932	  4.88974	707.97101	 24.00	
 18.704	-31.745	  4.06734	  4.22605	  0.01005	  0.63711	  3.38834	 -0.19252	  4.89740	708.08801	 24.10	
 18.698	-37.048	  4.05870	  4.05954	  0.11432	  0.47413	  3.59002	 -0.19108	  4.88382	708.00201	 24.10	
 18.699	-42.375	  4.05052	  3.88022	  0.23032	  0.32646	  3.77736	 -0.18850	  4.87148	708.10602	 24.10	
 18.705	-47.657	  4.05443	  3.69615	  0.36153	  0.19364	  3.96426	 -0.18727	  4.87734	708.01801	 24.10	
 18.713	-52.933	  4.07265	  3.51250	  0.50587	  0.07117	  4.15035	 -0.18475	  4.90565	708.02600	 24.10	
 18.700	-58.206	  4.06519	  3.28736	  0.67305	 -0.02655	  4.28652	 -0.18512	  4.89619	708.16699	 24.10	
 18.698	-63.496	  4.05907	  3.05910	  0.84856	 -0.10811	  4.40179	 -0.18207	  4.88764	708.00897	 24.10	
 18.707	-68.835	  4.06727	  2.83294	  1.04250	 -0.17962	  4.51490	 -0.17778	  4.90171	708.12299	 24.10	
 18.690	-74.137	  4.05584	  2.58796	  1.24266	 -0.23076	  4.58190	 -0.17113	  4.88941	708.14301	 24.10	
 18.696	-79.417	  4.05659	  2.34972	  1.45405	 -0.27203	  4.64074	 -0.17389	  4.89180	708.00500	 24.10	
 18.700	-84.691	  4.05003	  2.10970	  1.67823	 -0.29686	  4.67144	 -0.18395	  4.89000	707.90802	 24.10	
 18.700	-90.000	  4.05636	  1.87467	  1.91163	 -0.30582	  4.69148	 -0.17935	  4.90057	708.03003	 24.00	
 18.700	-95.309	  4.04390	  1.64237	  2.13971	 -0.29894	  4.66563	 -0.18939	  4.88727	708.03302	 24.00	
 18.696	-100.583	  4.05236	  1.42543	  2.38139	 -0.27524	  4.64176	 -0.20118	  4.89552	708.03003	 24.00	
 18.690	-105.863	  4.05120	  1.21306	  2.61861	 -0.23537	  4.58223	 -0.21426	  4.89462	708.04102	 24.00	
 18.707	-111.165	  4.03538	  1.00745	  2.84276	 -0.18331	  4.48553	 -0.22214	  4.87668	708.07501	 24.00	
 18.698	-116.504	  4.05717	  0.82411	  3.08975	 -0.11170	  4.40351	 -0.22739	  4.89753	708.07202	 24.00	
 18.700	-121.794	  4.04765	  0.64744	  3.30424	 -0.02775	  4.26956	 -0.23323	  4.88922	708.01001	 24.00	
 18.713	-127.067	  4.05250	  0.48528	  3.51933	  0.07138	  4.12655	 -0.23708	  4.88888	708.01001	 24.10	
 18.705	-132.343	  4.05249	  0.34504	  3.71486	  0.19247	  3.95427	 -0.24126	  4.88174	708.00201	 24.00	
 18.699	-137.625	  4.06231	  0.21821	  3.90661	  0.32847	  3.77737	 -0.25075	  4.88931	708.09802	 24.10	
 18.698	-142.952	  4.06485	  0.10437	  4.07337	  0.47775	  3.57915	 -0.25035	  4.88780	708.07703	 24.00	
 18.704	-148.255	  4.06808	  0.00434	  4.22425	  0.63974	  3.36975	 -0.25002	  4.88881	708.10797	 24.00	
 18.695	-153.537	  4.07025	 -0.07396	  4.35069	  0.82186	  3.14530	 -0.25083	  4.88494	708.01300	 24.00	
 18.706	-158.818	  4.07207	 -0.13647	  4.45480	  1.01541	  2.91750	 -0.25358	  4.88258	708.07501	 24.00	
 18.691	-164.085	  4.07009	 -0.18790	  4.53069	  1.21508	  2.68235	 -0.25750	  4.87692	708.10303	 24.00	
 18.703	-169.441	  4.07634	 -0.22428	  4.59441	  1.43413	  2.44220	 -0.26024	  4.88265	708.16199	 24.00	
 18.709	-174.675	  4.10247	 -0.24503	  4.65772	  1.66558	  2.22487	 -0.26445	  4.90798	708.10797	 24.00	
 18.700	180.000	  4.09208	 -0.24596	  4.65260	  1.89027	  1.98421	 -0.26003	  4.89068	708.12299	 24.00	
 20.400	180.000	  3.92453	 -0.52611	  4.73888	  1.74844	  1.83996	 -0.25804	  4.88937	708.22302	 24.00	
 20.401	-175.153	  3.92875	 -0.52611	  4.73739	  1.52217	  2.07216	 -0.25772	  4.89988	708.13702	 24.00	
 20.407	-170.264	  3.92235	 -0.51778	  4.70506	  1.29552	  2.30190	 -0.25281	  4.90143	708.11200	 24.00	
 20.410	-165.423	  3.90495	 -0.48323	  4.63182	  1.07701	  2.53039	 -0.24971	  4.87935	708.04999	 24.00	
 20.392	-160.496	  3.91951	 -0.44071	  4.57496	  0.87754	  2.77502	 -0.24500	  4.90218	708.02100	 24.00	
 20.401	-155.705	  3.91780	 -0.38229	  4.48235	  0.68337	  3.00692	 -0.24615	  4.90749	708.10303	 24.00	
 20.405	-150.835	  3.89990	 -0.31195	  4.34833	  0.49643	  3.22165	 -0.24730	  4.88873	708.22302	 24.00	
 20.397	-145.903	  3.89624	 -0.22316	  4.20713	  0.32852	  3.44044	 -0.25086	  4.88934	708.05798	 24.10	
 20.392	-141.062	  3.89514	 -0.12610	  4.05257	  0.17660	  3.64407	 -0.25439	  4.89117	708.07703	 24.10	
 20.396	-136.227	  3.88744	 -0.01145	  3.87447	  0.03495	  3.83451	 -0.25040	  4.88765	708.11401	 24.10	
 20.408	-131.372	  3.88029	  0.11106	  3.68429	 -0.09562	  4.01381	 -0.24275	  4.88697	708.12000	 24.10	
 20.410	-126.511	  3.87779	  0.25438	  3.48272	 -0.20776	  4.17588	 -0.23920	  4.88897	707.98199	 24.10	
 20.400	-121.604	  3.87749	  0.41257	  3.27072	 -0.30228	  4.32057	 -0.23491	  4.88742	708.06000	 24.10	
 20.403	-116.741	  3.87034	  0.58199	  3.04113	 -0.38502	  4.44070	 -0.22326	  4.88097	708.09698	 24.10	
 20.413	-111.900	  3.87140	  0.76068	  2.81504	 -0.45976	  4.54988	 -0.21454	  4.88633	708.08099	 24.10	
 20.398	-107.004	  3.87145	  0.95505	  2.58162	 -0.51569	  4.63571	 -0.20710	  4.89000	708.12201	 24.10	
 20.394	-102.132	  3.87889	  1.16530	  2.34666	 -0.55777	  4.70744	 -0.19171	  4.90330	708.23199	 24.10	
 20.403	-97.332	  3.86808	  1.37477	  2.10540	 -0.58664	  4.73550	 -0.17625	  4.88616	708.16400	 24.10	
 20.392	-92.440	  3.87398	  1.60146	  1.87393	 -0.59889	  4.76140	 -0.17245	  4.89052	708.17902	 24.10	
 20.392	-87.560	  3.88071	  1.83764	  1.64124	 -0.59929	  4.76867	 -0.16245	  4.89934	708.08099	 24.10	
 20.403	-82.668	  3.86233	  2.06239	  1.40922	 -0.58384	  4.72795	 -0.15878	  4.87545	708.31897	 24.10	
 20.394	-77.868	  3.88185	  2.30593	  1.20416	 -0.55664	  4.70954	 -0.16117	  4.89596	708.12201	 24.10	
 20.398	-72.996	  3.87195	  2.53883	  0.99302	 -0.51224	  4.63464	 -0.16078	  4.88160	708.09698	 24.10	
 20.413	-68.100	  3.88872	  2.78718	  0.79578	 -0.46052	  4.56939	 -0.15425	  4.89800	708.10498	 24.10	
 20.403	-63.259	  3.88136	  3.01108	  0.61261	 -0.38634	  4.45451	 -0.15954	  4.88470	708.18500	 24.10	
 20.400	-58.396	  3.88114	  3.23600	  0.44098	 -0.30085	  4.32597	 -0.16489	  4.87821	708.21002	 24.00	
 20.410	-53.489	  3.89066	  3.46347	  0.27673	 -0.21077	  4.19548	 -0.17077	  4.89556	708.14301	 24.00	
 20.408	-48.628	  3.88148	  3.65912	  0.13133	 -0.10166	  4.02475	 -0.17293	  4.88120	708.09100	 24.10	
 20.396	-43.773	  3.89355	  3.86225	  0.00512	  0.02813	  3.85614	 -0.17755	  4.89458	708.08002	 24.10	
 20.392	-38.938	  3.88793	  4.02989	 -0.10862	  0.17318	  3.65522	 -0.18050	  4.88266	708.11603	 24.10	
 20.397	-34.097	  3.89726	  4.20233	 -0.21437	  0.32379	  3.46135	 -0.18341	  4.89315	708.14697	 24.10	
 20.405	-29.165	  3.89138	  4.34286	 -0.30713	  0.48745	  3.24066	 -0.17839	  4.88954	708.15399	 24.10	
 20.401	-24.295	  3.88817	  4.46043	 -0.38076	  0.66840	  3.01447	 -0.18398	  4.88711	708.03497	 24.10	
 20.392	-19.504	  3.89592	  4.57122	 -0.44196	  0.85806	  2.79347	 -0.17564	  4.89953	708.13898	 24.10	
 20.410	-14.577	  3.89045	  4.64720	 -0.49258	  1.05892	  2.55580	 -0.17875	  4.89524	708.07501	 24.10	
 20.407	 -9.736	  3.89177	  4.70559	 -0.52377	  1.27515	  2.31859	 -0.17597	  4.89634	708.17102	 24.10	
 20.401	 -4.847	  3.88777	  4.73634	 -0.54532	  1.49573	  2.08423	 -0.17056	  4.89349	708.19800	 24.10	
 20.400	  0.000	  3.88328	  4.74630	 -0.54762	  1.72238	  1.85280	 -0.17252	  4.88823	708.13702	 24.10	
 20.401	  4.847	  3.88328	  4.74174	 -0.54200	  1.95866	  1.62522	 -0.17374	  4.89035	708.20203	 24.10	
 20.407	  9.736	  3.87941	  4.71453	 -0.52235	  2.19345	  1.40456	 -0.17058	  4.88747	708.18701	 24.10	
 20.410	 14.577	  3.88347	  4.67207	 -0.48394	  2.43198	  1.19857	 -0.16647	  4.89016	708.06403	 24.10	
 20.392	 19.504	  3.87630	  4.59385	 -0.43538	  2.67147	  0.99134	 -0.17073	  4.88161	708.19000	 24.10	
 20.401	 24.295	  3.88181	  4.51121	 -0.37349	  2.90541	  0.80669	 -0.18047	  4.88786	708.08099	 24.10	
 20.405	 29.165	  3.87775	  4.39693	 -0.29732	  3.13190	  0.62674	 -0.18176	  4.88237	708.05200	 24.10	
 20.397	 34.097	  3.88364	  4.26609	 -0.20553	  3.36133	  0.46117	 -0.19246	  4.88798	708.15399	 24.10	
 20.392	 38.938	  3.88198	  4.11422	 -0.10339	  3.56859	  0.30651	 -0.20068	  4.88410	708.19897	 24.10	
 20.396	 43.773	  3.89158	  3.95324	  0.01672	  3.77173	  0.17096	 -0.21105	  4.89155	708.22601	 24.10	
 20.408	 48.628	  3.87223	  3.74898	  0.14324	  3.94007	  0.04016	 -0.21847	  4.86980	708.26001	 24.10	
 20.410	 53.489	  3.88531	  3.56080	  0.28734	  4.11953	 -0.07473	 -0.22023	  4.88148	708.23297	 24.10	
 20.400	 58.396	  3.88544	  3.34348	  0.45008	  4.26656	 -0.17083	 -0.22668	  4.87843	708.26001	 24.10	
 20.403	 63.259	  3.89174	  3.12519	  0.62726	  4.39748	 -0.25263	 -0.22982	  4.88269	708.26398	 24.10	
 20.413	 68.100	  3.90339	  2.90590	  0.81035	  4.51729	 -0.32173	 -0.23575	  4.89168	708.20599	 24.10	
 20.398	 72.996	  3.90081	  2.66716	  1.00856	  4.59366	 -0.37376	 -0.23313	  4.88349	708.11200	 24.10	
 20.394	 77.868	  3.91465	  2.43510	  1.22316	  4.67285	 -0.41650	 -0.22745	  4.89794	708.17401	 24.10	
 20.403	 82.668	  3.91907	  2.20185	  1.43431	  4.71861	 -0.44862	 -0.22101	  4.90068	708.15900	 24.10	
 20.392	 87.560	  3.91415	  1.96322	  1.66188	  4.72577	 -0.45813	 -0.21437	  4.88619	708.28601	 24.00	
 20.392	 92.440	  3.92779	  1.73242	  1.89725	  4.73422	 -0.45466	 -0.20622	  4.89659	708.09998	 24.00	
 20.403	 97.332	  3.92857	  1.49951	  2.13474	  4.71520	 -0.44722	 -0.20630	  4.89362	708.22400	 24.00	
 20.394	102.132	  3.92360	  1.28266	  2.36367	  4.66541	 -0.42037	 -0.21257	  4.88381	708.28003	 24.00	
 20.398	107.004	  3.92430	  1.07328	  2.60009	  4.59755	 -0.37410	 -0.22555	  4.87915	708.20697	 24.00	
 20.413	111.900	  3.92493	  0.87089	  2.83745	  4.51289	 -0.32135	 -0.23330	  4.87940	708.04602	 24.00	
 20.403	116.741	  3.93385	  0.68605	  3.07066	  4.41561	 -0.25439	 -0.23842	  4.88787	708.25702	 24.00	
 20.400	121.604	  3.94079	  0.50795	  3.30073	  4.29623	 -0.17466	 -0.24407	  4.89366	708.12799	 24.00	
 20.410	126.511	  3.94747	  0.34385	  3.52139	  4.15545	 -0.08179	 -0.25372	  4.90227	708.24103	 24.00	
 20.408	131.372	  3.93319	  0.19738	  3.71076	  3.97266	  0.03263	 -0.26070	  4.87999	708.22601	 24.00	
 20.396	136.227	  3.94256	  0.06527	  3.90773	  3.79510	  0.16032	 -0.26472	  4.88915	708.10602	 24.00	
 20.392	141.062	  3.93518	 -0.05616	  4.07321	  3.59541	  0.29293	 -0.27095	  4.88303	708.07397	 24.00	
 20.397	145.903	  3.93380	 -0.16560	  4.22900	  3.38752	  0.44355	 -0.27578	  4.88628	708.13702	 24.00	
 20.405	150.835	  3.93408	 -0.26238	  4.37247	  3.16262	  0.61215	 -0.27582	  4.88480	708.06000	 24.00	
 20.401	155.705	  3.92159	 -0.33858	  4.47184	  2.92319	  0.78889	 -0.28114	  4.87083	708.05701	 24.00	
 20.392	160.496	  3.92965	 -0.40612	  4.57542	  2.70304	  0.97364	 -0.28333	  4.88354	708.04901	 24.00	
 20.410	165.423	  3.93406	 -0.45497	  4.65606	  2.46465	  1.17997	 -0.27874	  4.89274	708.12000	 24.00	
 20.407	170.264	  3.92344	 -0.49816	  4.69880	  2.21990	  1.38708	 -0.26880	  4.88497	708.27802	 24.00	
 20.401	175.153	  3.93032	 -0.51608	  4.73390	  1.98785	  1.61142	 -0.26215	  4.89427	708.21600	 24.00	
  0.141	 45.000	  4.88920	  2.73262	  2.69091	  2.68568	  2.76754	  0.03169	  4.88373	708.27100	 24.00	
  4.001	128.691	  4.87793	  2.34505	  2.99860	  3.05226	  2.32470	  0.00868	  4.88465	708.35797	 24.00	
  4.002	 76.995	  4.87871	  2.79754	  2.53195	  3.16333	  2.23497	  0.01046	  4.88427	708.19800	 24.00	
  4.002	 25.892	  4.86449	  3.16753	  2.17948	  2.85211	  2.48901	  0.00678	  4.87593	708.15900	 24.00	
  4.002	-25.892	  4.87065	  3.16420	  2.17652	  2.38144	  2.96590	 -0.00139	  4.88089	708.13599	 24.00	
  4.002	-76.995	  4.87825	  2.78050	  2.52393	  2.10957	  3.27752	 -0.00112	  4.89028	708.28802	 24.00	
  4.001	-128.691	  4.87371	  2.32311	  2.99531	  2.20636	  3.16173	  0.00625	  4.88171	708.23297	 24.00	
  4.000	180.000	  4.87006	  2.14255	  3.21173	  2.61205	  2.72232	  0.01017	  4.88195	708.23199	 24.00	
  8.000	180.000	  4.77639	  1.48735	  3.71552	  2.49444	  2.60719	 -0.05929	  4.87819	708.17603	 24.00	
  7.991	-152.370	  4.77577	  1.58816	  3.57717	  1.98950	  3.13802	 -0.05156	  4.88580	708.14203	 23.90	
  7.997	-124.550	  4.77053	  1.90768	  3.18963	  1.60906	  3.56886	 -0.06167	  4.88579	708.12598	 24.00	
  8.006	-96.837	  4.75751	  2.38798	  2.65824	  1.43601	  3.76941	 -0.07290	  4.87404	708.13702	 24.00	
  7.988	-69.228	  4.77960	  2.94202	  2.14004	  1.50212	  3.71703	 -0.08050	  4.89387	708.11200	 23.90	
  7.997	-41.563	  4.76382	  3.40597	  1.71877	  1.76994	  3.38136	 -0.07511	  4.87679	708.22400	 23.90	
  8.008	-13.821	  4.76779	  3.69079	  1.49724	  2.22861	  2.88334	 -0.06224	  4.87799	708.23199	 24.00	
  8.008	 13.821	  4.77389	  3.70571	  1.50104	  2.77277	  2.34946	 -0.05960	  4.88493	708.23199	 24.00	
  7.997	 41.563	  4.78715	  3.44713	  1.73550	  3.28298	  1.90622	 -0.05114	  4.88969	708.19000	 23.90	
  7.988	 69.228	  4.77599	  2.97235	  2.14458	  3.60629	  1.62762	 -0.04756	  4.87743	708.16699	 24.00	
  8.006	 96.837	  4.79138	  2.43995	  2.67904	  3.69031	  1.57434	 -0.05990	  4.89210	708.18701	 23.90	
  7.997	124.550	  4.79784	  1.95700	  3.20401	  3.48218	  1.74298	 -0.05810	  4.89662	708.19299	 23.90	
  7.991	152.370	  4.78569	  1.61801	  3.58179	  3.03914	  2.10777	 -0.05103	  4.88643	708.32001	 23.90	
 12.009	161.059	  4.60358	  0.90659	  4.05498	  2.88801	  1.89919	 -0.14257	  4.89138	708.19202	 23.90	
 12.013	142.081	  4.60943	  1.14151	  3.77035	  3.41977	  1.44871	 -0.14750	  4.89555	708.25500	 23.90	
 12.006	123.113	  4.61447	  1.51145	  3.33161	  3.83371	  1.12525	 -0.15342	  4.90105	708.26099	 23.90	
 12.007	104.200	  4.59206	  1.98471	  2.78006	  4.06532	  0.93123	 -0.16375	  4.87867	708.27197	 23.90	
 11.989	 85.301	  4.60040	  2.54304	  2.22587	  4.12301	  0.90218	 -0.14963	  4.89195	708.23297	 23.90	
 12.013	 66.294	  4.59698	  3.10398	  1.70036	  3.97265	  1.01523	 -0.12694	  4.89265	708.14301	 23.90	
 12.012	 47.388	  4.58875	  3.59256	  1.27459	  3.63055	  1.27646	 -0.13307	  4.88963	708.18402	 23.90	
 11.990	 28.440	  4.57628	  3.94963	  0.97513	  3.14934	  1.66396	 -0.14114	  4.88182	708.28003	 23.90	
 11.991	  9.464	  4.59026	  4.14992	  0.82699	  2.60681	  2.16525	 -0.15570	  4.89937	708.15601	 23.90	
 11.991	 -9.464	  4.58577	  4.13382	  0.82401	  2.04329	  2.71561	 -0.15148	  4.89394	708.20697	 23.90	
 11.990	-28.440	  4.58884	  3.92858	  0.97390	  1.54220	  3.26721	 -0.15423	  4.89868	708.19897	 23.90	
 12.012	-47.388	  4.58160	  3.54164	  1.26588	  1.14646	  3.72613	 -0.15780	  4.88918	708.08099	 23.90	
 12.013	-66.294	  4.56831	  3.03044	  1.68354	  0.87815	  4.04819	 -0.17409	  4.88235	708.19000	 23.90	
 11.989	-85.301	  4.55632	  2.46607	  2.19848	  0.76711	  4.17908	 -0.18038	  4.87110	708.11603	 23.90	
 12.007	-104.200	  4.56024	  1.92140	  2.76157	  0.80159	  4.13599	 -0.16295	  4.87950	708.11401	 23.90	
 12.006	-123.113	  4.57181	  1.45069	  3.30354	  0.98991	  3.90058	 -0.14439	  4.88623	708.18201	 23.90	
 12.013	-142.081	  4.59315	  1.10220	  3.76002	  1.33027	  3.50434	 -0.14199	  4.89936	708.20099	 23.90	
 12.009	-161.059	  4.58465	  0.88373	  4.03881	  1.77977	  2.97964	 -0.14617	  4.88518	708.18701	 23.90	
 16.000	180.000	  4.31342	  0.16841	  4.47337	  2.07739	  2.17192	 -0.24142	  4.88182	708.14502	 23.90	
 15.990	-165.604	  4.30374	  0.20314	  4.39683	  1.53876	  2.72295	 -0.24191	  4.88041	708.04602	 23.90	
 16.002	-151.165	  4.30700	  0.36044	  4.17467	  1.06398	  3.27444	 -0.22702	  4.88998	708.12799	 23.90	
 16.002	-136.836	  4.29504	  0.61058	  3.80930	  0.67002	  3.75797	 -0.21493	  4.88614	707.97302	 23.90	
 15.995	-122.439	  4.29628	  0.97019	  3.34436	  0.38087	  4.15002	 -0.20753	  4.89428	708.07397	 23.90	
 15.993	-107.966	  4.27184	  1.41445	  2.79111	  0.19158	  4.39092	 -0.21583	  4.87388	708.11401	 23.90	
 16.005	-93.629	  4.28401	  1.93563	  2.23705	  0.11002	  4.52039	 -0.20932	  4.88977	708.01599	 23.90	
 15.992	-79.234	  4.28194	  2.49041	  1.69088	  0.13784	  4.47887	 -0.19953	  4.88413	708.16199	 23.90	
 16.009	-64.774	  4.28410	  3.04886	  1.19848	  0.27055	  4.29520	 -0.19858	  4.88039	708.19000	 23.90	
 15.997	-50.364	  4.29644	  3.56893	  0.79396	  0.51131	  3.97737	 -0.20165	  4.88784	708.22101	 23.90	
 15.997	-36.045	  4.28878	  3.99013	  0.48052	  0.84842	  3.53725	 -0.19660	  4.87857	708.12299	 23.90	
 16.000	-21.597	  4.30032	  4.31006	  0.26881	  1.28006	  3.03044	 -0.19416	  4.89447	708.08801	 23.80	
 16.003	 -7.169	  4.28977	  4.46520	  0.16149	  1.78882	  2.46341	 -0.18825	  4.88285	708.00500	 23.90	
 16.003	  7.169	  4.28650	  4.47442	  0.16174	  2.34205	  1.91403	 -0.19997	  4.88165	708.11102	 23.90	
 16.000	 21.597	  4.29600	  4.34494	  0.26908	  2.91241	  1.41223	 -0.19218	  4.89160	708.15002	 23.80	
 15.997	 36.045	  4.30079	  4.06074	  0.48263	  3.44436	  0.98179	 -0.20293	  4.89278	708.12000	 23.80	
 15.997	 50.364	  4.30123	  3.65203	  0.79360	  3.89501	  0.63957	 -0.20229	  4.89070	708.12000	 23.80	
 16.009	 64.774	  4.30508	  3.14636	  1.20331	  4.22769	  0.39955	 -0.19873	  4.88573	708.16101	 23.80	
 15.992	 79.234	  4.30317	  2.58292	  1.69800	  4.41414	  0.26300	 -0.21362	  4.87605	708.15399	 23.80	
 16.005	 93.629	  4.31698	  2.02337	  2.25133	  4.45994	  0.23784	 -0.23077	  4.88422	708.03601	 23.80	
 15.993	107.966	  4.33449	  1.50442	  2.82312	  4.35554	  0.32140	 -0.23744	  4.89102	708.17902	 23.80	
 15.995	122.439	  4.32701	  1.04008	  3.35714	  4.08217	  0.50338	 -0.23449	  4.87952	708.06598	 23.80	
 16.002	136.836	  4.33317	  0.66822	  3.83172	  3.69721	  0.78905	 -0.23290	  4.89028	708.19501	 23.80	
 16.002	151.165	  4.34071	  0.39995	  4.19779	  3.21147	  1.17630	 -0.23295	  4.90116	708.12799	 23.80	
 15.990	165.604	  4.32721	  0.23141	  4.41114	  2.64452	  1.65000	 -0.23256	  4.88778	708.31299	 23.80	
 20.003	168.362	  3.96794	 -0.40917	  4.66236	  2.34012	  1.35322	 -0.27478	  4.88477	708.11603	 23.80	
 20.008	156.764	  3.97606	 -0.28889	  4.49635	  2.89913	  0.88332	 -0.28396	  4.89029	708.24597	 23.80	
 20.000	145.147	  3.97980	 -0.08380	  4.20103	  3.42780	  0.47765	 -0.27543	  4.88774	708.19202	 23.80	
 19.995	133.545	  3.97629	  0.19385	  3.79751	  3.88651	  0.14973	 -0.26299	  4.88189	708.24701	 23.80	
 20.009	121.926	  3.97761	  0.55001	  3.31999	  4.27181	 -0.10641	 -0.24757	  4.89151	708.16101	 23.80	
 20.005	110.327	  3.98356	  0.98968	  2.79156	  4.54446	 -0.27381	 -0.23292	  4.89875	708.27502	 23.80	
 19.989	 98.733	  3.97403	  1.47968	  2.23239	  4.68618	 -0.36971	 -0.20956	  4.89545	708.13000	 23.80	
 19.999	 87.075	  3.96049	  2.01871	  1.67813	  4.70669	 -0.38694	 -0.21809	  4.89039	708.27698	 23.80	
 19.992	 75.457	  3.94630	  2.56852	  1.16545	  4.60737	 -0.32469	 -0.23264	  4.88278	708.12201	 23.80	
 20.009	 63.844	  3.94668	  3.11977	  0.70161	  4.40740	 -0.19403	 -0.23244	  4.89376	708.27502	 23.80	
 19.989	 52.269	  3.95065	  3.63104	  0.31494	  4.09072	  0.02153	 -0.22835	  4.90778	708.33899	 23.80	
 19.999	 40.602	  3.92124	  4.04618	 -0.00112	  3.63651	  0.31383	 -0.21088	  4.87959	708.34003	 23.80	
 20.004	 29.051	  3.92941	  4.39366	 -0.23315	  3.14464	  0.68759	 -0.19376	  4.89478	708.24902	 23.80	
 20.005	 17.433	  3.91938	  4.60760	 -0.39222	  2.59342	  1.11809	 -0.18191	  4.88060	708.25201	 23.80	
 20.006	  5.780	  3.92807	  4.72192	 -0.47026	  2.03623	  1.62328	 -0.17492	  4.89077	708.10498	 23.80	
 20.006	 -5.780	  3.92378	  4.70361	 -0.46922	  1.49314	  2.15387	 -0.17427	  4.88239	708.13098	 23.70	
 20.005	-17.433	  3.93065	  4.58117	 -0.39470	  0.98956	  2.71101	 -0.18746	  4.89012	708.19202	 23.80	
 20.004	-29.051	  3.92682	  4.32636	 -0.24271	  0.54737	  3.23824	 -0.18228	  4.88196	708.18402	 23.80	
 19.999	-40.602	  3.93014	  3.96914	 -0.00983	  0.18362	  3.72248	 -0.18504	  4.88145	708.24902	 23.70	
 19.989	-52.269	  3.94177	  3.52514	  0.30557	 -0.11398	  4.15395	 -0.17441	  4.89921	708.35400	 23.80	
 20.009	-63.844	  3.94350	  3.01437	  0.69372	 -0.32777	  4.47187	 -0.16568	  4.90535	708.37000	 23.70	
 19.992	-75.457	  3.91969	  2.44975	  1.14532	 -0.46173	  4.65270	 -0.15560	  4.88203	708.22900	 23.70	
 19.999	-87.075	  3.91409	  1.89484	  1.65524	 -0.51872	  4.73382	 -0.16818	  4.88146	708.23700	 23.70	
 19.989	-98.733	  3.90949	  1.35969	  2.20212	 -0.50390	  4.70274	 -0.19150	  4.87965	708.32800	 23.70	
 20.005	-110.327	  3.91207	  0.87526	  2.75831	 -0.40965	  4.56024	 -0.21626	  4.88273	708.23798	 23.70	
 20.009	-121.926	  3.91338	  0.45785	  3.28500	 -0.23313	  4.29669	 -0.23638	  4.87728	708.25500	 23.70	
 19.995	-133.545	  3.91872	  0.11875	  3.76114	  0.02272	  3.92530	 -0.24931	  4.87492	708.27698	 23.70	
 20.000	-145.147	  3.94029	 -0.14378	  4.17711	  0.36348	  3.48053	 -0.25596	  4.89275	708.21301	 23.70	
 20.008	-156.764	  3.94465	 -0.32686	  4.47310	  0.77591	  2.96084	 -0.24756	  4.88519	708.14203	 23.70	
 20.003	-168.362	  3.95090	 -0.43308	  4.65015	  1.25194	  2.41512	 -0.25637	  4.88570	708.19202	 23.70	
 20.000	180.000	  3.96123	 -0.45734	  4.71545	  1.78290	  1.87209	 -0.25770	  4.88721	708.06000	 23.70	
