FileType=PCF
NHL=14
Date=05/31/19	10:23:03
Facility=APL
Serial=16071-14
Customer=NASA
NP=6
Mach=0.150000
Calibration=1:1
CalPts=490
TstPts=95
PortNumbering=AP Standard
Units=Torr C m/s kg/m^3 deg mm 
Theta[deg]	Phi[deg]	P1[Torr]	P2[Torr]	P3[Torr]	P4[Torr]	P5[Torr]	P6[Torr]	Pt[Torr]	Ps[Abs,Torr]	Ts[C]	
  0.000	  0.000	 11.33623	  4.60505	  5.01298	  4.79225	  4.69513	  0.24479	 11.32743	702.65002	 28.40	
  1.691	128.401	 11.32275	  4.17498	  5.42160	  5.19965	  4.26809	  0.22424	 11.32110	702.52002	 28.40	
  1.692	 77.194	 11.32574	  4.64422	  4.93886	  5.38947	  4.10127	  0.23872	 11.31999	702.53003	 28.50	
  1.699	 26.182	 11.33078	  5.09871	  4.50417	  5.10866	  4.35758	  0.25188	 11.32217	702.57001	 28.50	
  1.699	-26.182	 11.32787	  5.17063	  4.44239	  4.59280	  4.87726	  0.25113	 11.31840	702.52002	 28.60	
  1.692	-77.194	 11.32881	  4.78625	  4.80919	  4.22645	  5.25982	  0.24579	 11.31883	702.45001	 28.60	
  1.691	-128.401	 11.33231	  4.28828	  5.31402	  4.28923	  5.18930	  0.23224	 11.32778	702.46997	 28.60	
  1.700	180.000	 11.32331	  4.00966	  5.59911	  4.70402	  4.74634	  0.22069	 11.32039	702.50000	 28.70	
  3.400	180.000	 11.28548	  3.42052	  6.15580	  4.55954	  4.77678	  0.17664	 11.32375	702.58002	 28.70	
  3.388	-152.325	 11.29187	  3.59736	  5.95572	  4.09282	  5.29103	  0.19064	 11.32315	702.53003	 28.70	
  3.397	-124.529	 11.29190	  4.02428	  5.48291	  3.72998	  5.69437	  0.19480	 11.31089	702.48999	 28.80	
  3.399	-96.763	 11.31241	  4.55175	  4.94249	  3.61619	  5.86091	  0.20530	 11.32160	702.63000	 28.80	
  3.394	-69.283	 11.33106	  5.12078	  4.40776	  3.73713	  5.73970	  0.21909	 11.32915	702.58002	 28.90	
  3.400	-41.398	 11.33101	  5.56218	  4.02389	  4.10002	  5.33658	  0.22463	 11.32615	702.52002	 28.90	
  3.401	-14.021	 11.32467	  5.79256	  3.82602	  4.59072	  4.80499	  0.23509	 11.31917	702.46002	 28.90	
  3.401	 14.021	 11.32006	  5.71419	  3.87865	  5.16389	  4.23352	  0.23553	 11.31666	702.42999	 29.00	
  3.400	 41.398	 11.31571	  5.35440	  4.18563	  5.65464	  3.78295	  0.22418	 11.31937	702.51001	 29.00	
  3.394	 69.283	 11.31143	  4.82617	  4.66656	  5.95706	  3.53203	  0.21472	 11.32069	702.44000	 29.00	
  3.399	 96.763	 11.30485	  4.27746	  5.19826	  5.95280	  3.51785	  0.19744	 11.32916	702.46997	 29.10	
  3.397	124.529	 11.29224	  3.77679	  5.73234	  5.64745	  3.74346	  0.16968	 11.32690	702.51001	 29.10	
  3.388	152.325	 11.28908	  3.47237	  6.08455	  5.14073	  4.19836	  0.17902	 11.32785	702.47998	 29.10	
  5.099	161.165	 11.19982	  2.78956	  6.70024	  4.99617	  4.15382	  0.10596	 11.32444	702.47998	 29.20	
  5.109	142.013	 11.20588	  2.96330	  6.47265	  5.57689	  3.63341	  0.10086	 11.32593	702.46002	 29.20	
  5.095	123.033	 11.21592	  3.33611	  6.04218	  6.07369	  3.21706	  0.10620	 11.32489	702.53003	 29.20	
  5.105	104.191	 11.23184	  3.81583	  5.50558	  6.41465	  2.96171	  0.11833	 11.32874	702.53003	 29.30	
  5.093	 85.207	 11.24616	  4.37917	  4.92625	  6.55482	  2.85552	  0.13579	 11.32521	702.53003	 29.30	
  5.104	 66.290	 11.25472	  4.98486	  4.34157	  6.48538	  2.92113	  0.15717	 11.32229	702.58002	 29.30	
  5.094	 47.331	 11.26846	  5.55275	  3.83986	  6.20870	  3.15843	  0.17468	 11.32385	702.54999	 29.30	
  5.089	 28.397	 11.28078	  6.00129	  3.46881	  5.74354	  3.56565	  0.18709	 11.32069	702.63000	 29.40	
  5.096	  9.576	 11.28896	  6.28916	  3.25060	  5.19833	  4.07602	  0.18624	 11.32043	702.53003	 29.40	
  5.096	 -9.576	 11.29854	  6.38684	  3.19411	  4.60336	  4.66076	  0.18972	 11.32343	702.46002	 29.40	
  5.089	-28.397	 11.29792	  6.24950	  3.29986	  4.05281	  5.23387	  0.17562	 11.32889	702.59998	 29.40	
  5.094	-47.331	 11.29038	  5.89225	  3.59338	  3.57197	  5.78188	  0.16366	 11.32128	702.50000	 29.50	
  5.104	-66.290	 11.28336	  5.41367	  3.99929	  3.20445	  6.21664	  0.16762	 11.32804	702.40002	 29.50	
  5.093	-85.207	 11.27222	  4.83619	  4.53048	  3.03621	  6.41512	  0.15161	 11.32151	702.50000	 29.50	
  5.105	-104.191	 11.25408	  4.24442	  5.09893	  2.99551	  6.43344	  0.14369	 11.32370	702.47998	 29.50	
  5.095	-123.033	 11.24762	  3.69944	  5.67174	  3.13554	  6.24895	  0.14239	 11.33204	702.46997	 29.60	
  5.109	-142.013	 11.22034	  3.23550	  6.18756	  3.43179	  5.85053	  0.13537	 11.31739	702.48999	 29.60	
  5.099	-161.165	 11.20857	  2.91831	  6.55843	  3.87398	  5.32638	  0.13129	 11.32288	702.59003	 29.60	
  5.100	180.000	 11.20102	  2.77151	  6.73611	  4.41251	  4.73952	  0.11761	 11.32213	702.46002	 29.60	
  6.800	180.000	 11.07547	  2.11672	  7.28152	  4.22289	  4.70559	  0.03677	 11.31954	702.50000	 29.70	
  6.796	-166.229	 11.08313	  2.22867	  7.13502	  3.67707	  5.29653	  0.05178	 11.32663	702.57001	 29.70	
  6.808	-152.311	 11.09291	  2.46100	  6.84051	  3.20797	  5.84556	  0.05741	 11.31817	702.50000	 29.70	
  6.795	-138.383	 11.10590	  2.81089	  6.42132	  2.82614	  6.32427	  0.05093	 11.31494	702.51001	 29.70	
  6.792	-124.591	 11.12709	  3.25463	  5.91454	  2.53204	  6.70070	  0.05716	 11.32290	702.46997	 29.70	
  6.787	-110.754	 11.15210	  3.78414	  5.35629	  2.38202	  6.93511	  0.06556	 11.32821	702.56000	 29.70	
  6.800	-96.985	 11.16195	  4.35091	  4.77457	  2.32365	  7.01931	  0.05999	 11.32185	702.57001	 29.80	
  6.800	-83.015	 11.17805	  4.93280	  4.21402	  2.38265	  6.95775	  0.06376	 11.31915	702.53003	 29.80	
  6.787	-69.246	 11.19104	  5.50438	  3.69179	  2.55406	  6.73665	  0.07267	 11.32314	702.62000	 29.80	
  6.792	-55.409	 11.21080	  6.03905	  3.24985	  2.84694	  6.38316	  0.07454	 11.33462	702.52002	 29.80	
  6.795	-41.617	 11.21361	  6.45510	  2.91027	  3.24923	  5.90508	  0.08035	 11.32431	702.57001	 29.90	
  6.808	-27.689	 11.21608	  6.76489	  2.66220	  3.73606	  5.35062	  0.09157	 11.32249	702.50000	 29.90	
  6.796	-13.771	 11.21538	  6.93072	  2.53457	  4.29337	  4.75268	  0.10067	 11.32197	702.60999	 29.90	
  6.800	  0.000	 11.21485	  6.92733	  2.53345	  4.87202	  4.17064	  0.10217	 11.32118	702.56000	 29.90	
  6.796	 13.771	 11.20916	  6.77074	  2.64086	  5.46822	  3.60883	  0.11122	 11.32477	702.66998	 29.90	
  6.808	 27.689	 11.19685	  6.46905	  2.87819	  6.00522	  3.12270	  0.11820	 11.31884	702.59003	 29.90	
  6.795	 41.617	 11.18867	  6.03556	  3.22296	  6.48641	  2.72423	  0.10147	 11.32648	702.62000	 30.00	
  6.792	 55.409	 11.17291	  5.50860	  3.66209	  6.83682	  2.43058	  0.09082	 11.32206	702.48999	 30.00	
  6.787	 69.246	 11.15311	  4.94109	  4.17140	  7.06092	  2.23474	  0.07831	 11.31745	702.56000	 30.00	
  6.800	 83.015	 11.13896	  4.33464	  4.74837	  7.13457	  2.17930	  0.05586	 11.32119	702.54999	 30.00	
  6.800	 96.985	 11.12091	  3.75739	  5.32755	  7.05104	  2.22896	  0.03471	 11.32390	702.57001	 30.00	
  6.787	110.754	 11.10849	  3.25090	  5.88610	  6.81112	  2.41105	  0.02841	 11.32634	702.54999	 30.00	
  6.792	124.591	 11.09381	  2.79619	  6.40911	  6.43285	  2.70349	  0.01567	 11.32076	702.57001	 30.10	
  6.795	138.383	 11.08243	  2.44944	  6.82807	  5.95014	  3.09133	  0.01393	 11.32189	702.62000	 30.10	
  6.808	152.311	 11.07183	  2.22036	  7.13035	  5.40022	  3.55831	  0.02020	 11.32180	702.63000	 30.10	
  6.796	166.229	 11.07045	  2.11213	  7.27688	  4.80814	  4.11942	  0.02609	 11.32046	702.57001	 30.10	
  8.491	168.704	 10.89992	  1.40814	  7.82940	  4.59758	  4.02708	 -0.07396	 11.32419	702.48999	 30.10	
  8.502	157.493	 10.89591	  1.48831	  7.71117	  5.19977	  3.44974	 -0.07096	 11.32100	702.50000	 30.10	
  8.494	146.194	 10.90879	  1.67349	  7.46408	  5.79812	  2.92961	 -0.07441	 11.32158	702.54999	 30.10	
  8.495	135.039	 10.92045	  1.93661	  7.11965	  6.34162	  2.48584	 -0.08678	 11.32453	702.58002	 30.10	
  8.487	123.723	 10.92920	  2.29473	  6.66480	  6.82590	  2.10071	 -0.08870	 11.31808	702.65997	 30.10	
  8.492	112.575	 10.94746	  2.73645	  6.14248	  7.21872	  1.81286	 -0.07510	 11.32547	702.59998	 30.20	
  8.510	101.220	 10.95455	  3.25120	  5.56398	  7.49608	  1.60022	 -0.07183	 11.31870	702.59998	 30.20	
  8.500	 90.000	 10.97805	  3.81419	  4.97038	  7.65762	  1.50018	 -0.05792	 11.32852	702.67999	 30.20	
  8.510	 78.780	 10.99408	  4.42228	  4.37133	  7.68447	  1.48282	 -0.03674	 11.32412	702.53003	 30.20	
  8.492	 67.425	 11.01421	  5.05109	  3.79430	  7.56513	  1.57535	 -0.00994	 11.32683	702.62000	 30.20	
  8.487	 56.277	 11.03673	  5.63348	  3.28149	  7.34127	  1.76114	 -0.00500	 11.32869	702.57001	 30.20	
  8.495	 44.961	 11.04649	  6.18123	  2.82055	  6.98928	  2.03992	  0.00851	 11.32218	702.53003	 30.30	
  8.494	 33.806	 11.06273	  6.66194	  2.43880	  6.53952	  2.40664	  0.02564	 11.31994	702.59003	 30.30	
  8.502	 22.507	 11.07478	  7.05306	  2.14227	  6.00859	  2.86269	  0.03396	 11.32089	702.56000	 30.30	
  8.491	 11.296	 11.09010	  7.31967	  1.94946	  5.43295	  3.38480	  0.01790	 11.32556	702.52002	 30.30	
  8.500	  0.000	 11.09129	  7.47134	  1.83680	  4.82283	  3.94287	  0.00595	 11.31621	702.57001	 30.30	
  8.491	-11.296	 11.09607	  7.48923	  1.82865	  4.22057	  4.55339	  0.00420	 11.32242	702.46002	 30.30	
  8.502	-22.507	 11.09390	  7.37305	  1.91116	  3.63269	  5.16885	  0.00407	 11.31840	702.54999	 30.30	
  8.494	-33.806	 11.09423	  7.13049	  2.10335	  3.10389	  5.75385	 -0.01785	 11.32230	702.46997	 30.30	
  8.495	-44.961	 11.08856	  6.76201	  2.38424	  2.64375	  6.30119	 -0.03041	 11.32034	702.53998	 30.40	
  8.487	-56.277	 11.07386	  6.29791	  2.75013	  2.25639	  6.76325	 -0.03878	 11.31378	702.56000	 30.40	
  8.492	-67.425	 11.06354	  5.76532	  3.19065	  1.95587	  7.14788	 -0.03614	 11.32145	702.50000	 30.40	
  8.510	-78.780	 11.04604	  5.18305	  3.70442	  1.74490	  7.42142	 -0.03997	 11.32392	702.53998	 30.40	
  8.500	-90.000	 11.03308	  4.57264	  4.27255	  1.64039	  7.55976	 -0.05025	 11.32516	702.50000	 30.40	
  8.510	-101.220	 11.01415	  3.96660	  4.86205	  1.63126	  7.57029	 -0.04703	 11.32763	702.52002	 30.40	
  8.492	-112.575	 10.99352	  3.38743	  5.45967	  1.70470	  7.44576	 -0.03568	 11.32608	702.53003	 30.40	
  8.487	-123.723	 10.97484	  2.86806	  6.03912	  1.88290	  7.18773	 -0.03796	 11.32085	702.62000	 30.40	
  8.495	-135.039	 10.95671	  2.41257	  6.56871	  2.15550	  6.81953	 -0.04995	 11.32318	702.53003	 30.50	
  8.494	-146.194	 10.95082	  2.03812	  7.03173	  2.50701	  6.37000	 -0.03946	 11.32836	702.58002	 30.50	
  8.502	-157.493	 10.92775	  1.73201	  7.41473	  2.93892	  5.82409	 -0.03481	 11.32482	702.63000	 30.50	
  8.491	-168.704	 10.91470	  1.53458	  7.68036	  3.43314	  5.24727	 -0.04732	 11.32771	702.57001	 30.50	
  8.500	180.000	 10.89999	  1.42013	  7.82029	  4.00122	  4.62514	 -0.06663	 11.32215	702.51001	 30.50	
 10.200	180.000	 10.69075	  0.74072	  8.32126	  3.74729	  4.52913	 -0.17214	 11.32273	702.46002	 30.50	
 10.191	-170.497	 10.70342	  0.84112	  8.18538	  3.17933	  5.15497	 -0.15488	 11.32766	702.56000	 30.50	
 10.210	-161.034	 10.70702	  1.01369	  7.93946	  2.64950	  5.76053	 -0.14322	 11.32468	702.53003	 30.50	
 10.194	-151.526	 10.73120	  1.28144	  7.59582	  2.20377	  6.32603	 -0.14355	 11.32627	702.45001	 30.50	
 10.190	-142.105	 10.74566	  1.60905	  7.17294	  1.81487	  6.83386	 -0.15140	 11.32521	702.54999	 30.50	
 10.215	-132.646	 10.76383	  2.00637	  6.67936	  1.47642	  7.29446	 -0.15680	 11.32852	702.53003	 30.60	
 10.203	-123.092	 10.77963	  2.46356	  6.12684	  1.23070	  7.64372	 -0.15517	 11.32138	702.60999	 30.50	
 10.192	-113.678	 10.80016	  2.99173	  5.53770	  1.06290	  7.90551	 -0.14912	 11.32418	702.64001	 30.60	
 10.208	-104.249	 10.82260	  3.56442	  4.93372	  0.95976	  8.05988	 -0.16319	 11.32801	702.59003	 30.60	
 10.210	-94.801	 10.84081	  4.16693	  4.33493	  0.94223	  8.09603	 -0.17161	 11.32139	702.66998	 30.60	
 10.210	-85.199	 10.86879	  4.79490	  3.74640	  1.00421	  8.02527	 -0.16879	 11.32858	702.59998	 30.60	
 10.208	-75.751	 10.88293	  5.40011	  3.19550	  1.13650	  7.84184	 -0.15460	 11.32908	702.60999	 30.60	
 10.192	-66.322	 10.89808	  5.98461	  2.70581	  1.36031	  7.54312	 -0.14746	 11.32114	702.64001	 30.60	
 10.203	-56.908	 10.90463	  6.53022	  2.25610	  1.65493	  7.15038	 -0.15770	 11.31522	702.69000	 30.60	
 10.215	-47.354	 10.92318	  7.01879	  1.87111	  2.01875	  6.69392	 -0.15844	 11.33069	702.65002	 30.60	
 10.190	-37.895	 10.93079	  7.42121	  1.57457	  2.46970	  6.14658	 -0.13850	 11.32419	702.64001	 30.60	
 10.194	-28.474	 10.93664	  7.72420	  1.35924	  2.97243	  5.56212	 -0.11230	 11.31930	701.84998	 30.60	
 10.210	-18.966	 10.93520	  7.93041	  1.20196	  3.53317	  4.94554	 -0.09928	 11.31690	702.21997	 30.70	
 10.191	 -9.503	 10.93918	  8.01167	  1.14191	  4.12910	  4.33841	 -0.09059	 11.32125	701.83002	 30.70	
 10.200	  0.000	 10.93423	  7.99111	  1.15668	  4.73924	  3.72646	 -0.09549	 11.32399	701.96997	 30.70	
 10.191	  9.503	 10.92679	  7.84402	  1.25702	  5.36147	  3.13652	 -0.08714	 11.32675	702.66998	 30.70	
 10.210	 18.966	 10.91195	  7.59821	  1.42548	  5.95533	  2.59960	 -0.07460	 11.31987	701.82001	 30.70	
 10.194	 28.474	 10.90069	  7.24431	  1.68882	  6.51794	  2.13013	 -0.06284	 11.32204	701.84998	 30.70	
 10.190	 37.895	 10.88815	  6.80267	  2.02339	  7.02381	  1.71961	 -0.07814	 11.32696	702.09998	 30.70	
 10.215	 47.354	 10.86551	  6.30707	  2.39967	  7.45693	  1.37131	 -0.09733	 11.32436	701.91998	 30.70	
 10.203	 56.908	 10.84902	  5.71662	  2.88861	  7.79620	  1.11486	 -0.10722	 11.32268	701.84998	 30.70	
 10.192	 66.322	 10.82940	  5.12279	  3.39959	  8.03303	  0.93553	 -0.10982	 11.32156	701.87000	 30.70	
 10.208	 75.751	 10.81007	  4.50819	  3.96535	  8.17270	  0.82898	 -0.13047	 11.32344	701.92999	 30.80	
 10.210	 85.199	 10.79411	  3.89970	  4.55979	  8.18912	  0.80316	 -0.15566	 11.31955	702.38000	 30.80	
 10.210	 94.801	 10.76858	  3.29015	  5.17228	  8.10197	  0.85796	 -0.16877	 11.31973	701.94000	 30.80	
 10.208	104.249	 10.75369	  2.74138	  5.77266	  7.89641	  0.99391	 -0.17910	 11.31780	702.28003	 30.80	
 10.192	113.678	 10.74090	  2.23633	  6.35057	  7.59118	  1.20976	 -0.18737	 11.31793	701.89001	 30.80	
 10.203	123.092	 10.72398	  1.79470	  6.88356	  7.19464	  1.49632	 -0.19986	 11.32165	701.92999	 30.80	
 10.215	132.646	 10.71494	  1.42165	  7.36311	  6.71495	  1.86171	 -0.19116	 11.32127	701.88000	 30.80	
 10.190	142.105	 10.70104	  1.14985	  7.74002	  6.16759	  2.29326	 -0.18161	 11.31577	701.91998	 30.80	
 10.194	151.526	 10.68911	  0.92537	  8.04847	  5.58519	  2.78030	 -0.17004	 11.31626	701.96997	 30.80	
 10.210	161.034	 10.68690	  0.77255	  8.26034	  4.97153	  3.32764	 -0.17554	 11.32199	701.84003	 30.80	
 10.191	170.497	 10.68869	  0.72132	  8.34254	  4.35381	  3.91859	 -0.18404	 11.32014	701.90002	 30.80	
 11.899	171.783	 10.44218	  0.06354	  8.81033	  4.08530	  3.78316	 -0.28903	 11.32425	701.96997	 30.80	
 11.890	163.610	 10.43506	  0.10415	  8.74321	  4.69876	  3.19394	 -0.28021	 11.32204	701.98999	 30.80	
 11.889	155.445	 10.43923	  0.21567	  8.57710	  5.31894	  2.63902	 -0.27370	 11.32249	701.92999	 30.80	
 11.909	147.299	 10.43810	  0.37583	  8.32394	  5.91808	  2.12461	 -0.27227	 11.31681	701.96997	 30.80	
 11.902	139.148	 10.45709	  0.61001	  7.98641	  6.49819	  1.66034	 -0.28581	 11.32010	701.94000	 30.90	
 11.894	130.867	 10.47208	  0.93306	  7.55195	  7.03855	  1.25556	 -0.29733	 11.31850	701.95001	 30.90	
 11.897	122.732	 10.48383	  1.29750	  7.06751	  7.51303	  0.90620	 -0.31047	 11.32148	701.88000	 30.90	
 11.903	114.597	 10.49575	  1.71636	  6.53869	  7.92657	  0.61637	 -0.30504	 11.32043	702.00000	 30.90	
 11.893	106.346	 10.51453	  2.22005	  5.95125	  8.25619	  0.40512	 -0.28880	 11.32136	701.94000	 30.90	
 11.892	 98.155	 10.52713	  2.75784	  5.34732	  8.49160	  0.24728	 -0.28163	 11.31801	701.85999	 30.90	
 11.900	 90.000	 10.54174	  3.32240	  4.74126	  8.63122	  0.15905	 -0.27216	 11.31573	701.84003	 30.90	
 11.892	 81.845	 10.56654	  3.92959	  4.13672	  8.66692	  0.14701	 -0.25900	 11.32036	701.83002	 30.90	
 11.893	 73.654	 10.57584	  4.54210	  3.54263	  8.61577	  0.18024	 -0.23841	 11.31281	701.84998	 30.90	
 11.903	 65.403	 10.59909	  5.17959	  2.98177	  8.46666	  0.29273	 -0.22552	 11.32070	701.89001	 30.90	
 11.897	 57.268	 10.62691	  5.79563	  2.46672	  8.22075	  0.47231	 -0.21519	 11.32460	701.97998	 30.90	
 11.894	 49.133	 10.64722	  6.36909	  1.99679	  7.89200	  0.71902	 -0.20418	 11.32692	702.00000	 30.90	
 11.902	 40.852	 10.65617	  6.91423	  1.57564	  7.46247	  1.02741	 -0.19235	 11.32450	702.04999	 30.90	
 11.909	 32.701	 10.67025	  7.37999	  1.22967	  6.98454	  1.39459	 -0.17758	 11.31492	701.96997	 30.90	
 11.889	 24.555	 10.69725	  7.77777	  0.96012	  6.44650	  1.85468	 -0.16804	 11.32528	701.95001	 30.90	
 11.890	 16.390	 10.70539	  8.10427	  0.73475	  5.85570	  2.33840	 -0.18377	 11.32114	702.04999	 31.00	
 11.899	  8.217	 10.71621	  8.33529	  0.57908	  5.25787	  2.87788	 -0.19539	 11.31992	701.98999	 31.00	
 11.900	  0.000	 10.72493	  8.47403	  0.48605	  4.62994	  3.46768	 -0.19581	 11.32041	702.10999	 31.00	
 11.899	 -8.217	 10.72929	  8.50976	  0.46613	  4.00589	  4.07932	 -0.19447	 11.31738	701.96002	 31.00	
 11.890	-16.390	 10.73269	  8.44051	  0.51737	  3.41129	  4.69880	 -0.19638	 11.31982	701.98999	 31.00	
 11.889	-24.555	 10.73578	  8.27066	  0.64017	  2.84977	  5.32111	 -0.20995	 11.32074	702.00000	 31.00	
 11.909	-32.701	 10.72672	  8.01669	  0.80758	  2.31654	  5.92012	 -0.23946	 11.31743	701.95001	 31.00	
 11.902	-40.852	 10.72583	  7.67183	  1.05744	  1.84684	  6.49219	 -0.26733	 11.32320	702.03998	 31.00	
 11.894	-49.133	 10.71197	  7.23634	  1.36934	  1.41755	  7.03241	 -0.28414	 11.32211	702.10999	 31.00	
 11.897	-57.268	 10.69885	  6.73189	  1.74870	  1.05718	  7.50230	 -0.29418	 11.32133	701.98999	 31.00	
 11.903	-65.403	 10.68978	  6.19443	  2.17716	  0.77027	  7.89438	 -0.28419	 11.32886	701.97998	 31.00	
 11.893	-73.654	 10.66656	  5.59731	  2.67042	  0.55023	  8.19990	 -0.28386	 11.31507	702.03003	 31.00	
 11.892	-81.845	 10.65660	  4.98877	  3.20863	  0.40247	  8.42471	 -0.29234	 11.32716	702.02002	 31.00	
 11.900	-90.000	 10.62829	  4.35894	  3.77842	  0.31090	  8.55140	 -0.30117	 11.32156	702.06000	 31.10	
 11.892	-98.155	 10.61054	  3.75024	  4.36162	  0.27903	  8.57613	 -0.29645	 11.31998	702.00000	 31.10	
 11.893	-106.346	 10.58632	  3.14593	  4.97445	  0.31610	  8.50575	 -0.27859	 11.32106	702.03998	 31.10	
 11.903	-114.597	 10.56025	  2.57328	  5.58803	  0.41676	  8.33919	 -0.26352	 11.32038	701.96997	 31.10	
 11.897	-122.732	 10.53771	  2.06506	  6.16405	  0.57837	  8.07427	 -0.26668	 11.31907	702.03003	 31.10	
 11.894	-130.867	 10.53121	  1.59883	  6.73864	  0.82232	  7.72191	 -0.26828	 11.32691	702.07001	 31.10	
 11.902	-139.148	 10.50706	  1.18063	  7.26821	  1.12738	  7.27689	 -0.26252	 11.32043	702.09998	 31.10	
 11.909	-147.299	 10.48963	  0.83687	  7.72455	  1.47966	  6.78620	 -0.25283	 11.32329	702.09003	 31.10	
 11.889	-155.445	 10.47384	  0.54438	  8.11912	  1.89793	  6.23932	 -0.24368	 11.32283	702.15997	 31.10	
 11.890	-163.610	 10.46143	  0.33126	  8.42266	  2.39214	  5.63457	 -0.24716	 11.32130	702.08002	 31.10	
 11.899	-171.783	 10.44240	  0.18193	  8.63860	  2.90869	  5.02397	 -0.26675	 11.31306	702.10999	 31.10	
 11.900	180.000	 10.43362	  0.08870	  8.77516	  3.47885	  4.40065	 -0.27589	 11.31571	702.12000	 31.10	
 13.600	180.000	 10.14893	 -0.57239	  9.20826	  3.17707	  4.24969	 -0.37686	 11.32484	702.14001	 31.10	
 13.608	-172.853	 10.14989	 -0.49511	  9.08536	  2.61270	  4.86769	 -0.36386	 11.32231	702.20001	 31.10	
 13.611	-165.583	 10.16738	 -0.34867	  8.87021	  2.08692	  5.49471	 -0.34501	 11.31926	702.16998	 31.10	
 13.601	-158.353	 10.17902	 -0.15505	  8.58158	  1.60037	  6.09424	 -0.34215	 11.31788	702.15997	 31.10	
 13.609	-151.210	 10.20081	  0.09529	  8.22392	  1.17119	  6.66852	 -0.35011	 11.32326	702.22998	 31.10	
 13.611	-143.999	 10.21166	  0.39317	  7.79860	  0.78063	  7.20476	 -0.35535	 11.32164	702.26001	 31.20	
 13.601	-136.825	 10.22639	  0.75085	  7.30644	  0.44525	  7.68619	 -0.36357	 11.32408	702.09998	 31.10	
 13.596	-129.640	 10.24522	  1.17590	  6.76078	  0.15988	  8.10768	 -0.37241	 11.31894	702.15997	 31.20	
 13.611	-122.431	 10.26405	  1.64148	  6.19198	 -0.05103	  8.45827	 -0.37782	 11.32242	702.27002	 31.20	
 13.604	-115.211	 10.28833	  2.15135	  5.59714	 -0.21530	  8.73572	 -0.37677	 11.32527	702.16998	 31.20	
 13.595	-108.042	 10.30911	  2.69625	  4.99779	 -0.32259	  8.91324	 -0.39162	 11.32288	702.09998	 31.20	
 13.607	-100.793	 10.32723	  3.28772	  4.37978	 -0.37485	  9.01044	 -0.41725	 11.31443	702.13000	 31.20	
 13.601	-93.617	 10.35885	  3.90460	  3.78379	 -0.36668	  9.02855	 -0.42667	 11.32418	702.13000	 31.20	
 13.601	-86.383	 10.37596	  4.52133	  3.20321	 -0.31882	  8.95182	 -0.42796	 11.31762	702.12000	 31.20	
 13.607	-79.207	 10.39783	  5.15057	  2.64211	 -0.21083	  8.79049	 -0.41655	 11.32550	701.98999	 31.20	
 13.595	-71.958	 10.41909	  5.77059	  2.13005	 -0.03602	  8.53478	 -0.40278	 11.32158	702.07001	 31.20	
 13.604	-64.789	 10.42993	  6.35137	  1.66069	  0.18400	  8.20774	 -0.41117	 11.31685	702.12000	 31.20	
 13.611	-57.569	 10.43805	  6.90883	  1.22151	  0.46108	  7.80783	 -0.42509	 11.31361	702.08002	 31.20	
 13.596	-50.360	 10.45386	  7.42025	  0.85341	  0.79842	  7.34148	 -0.41731	 11.31472	702.07001	 31.20	
 13.601	-43.175	 10.47066	  7.86867	  0.53655	  1.19979	  6.81832	 -0.41801	 11.32059	702.17999	 31.20	
 13.611	-36.001	 10.48441	  8.25038	  0.27947	  1.65941	  6.25641	 -0.37221	 11.32217	702.09003	 31.20	
 13.609	-28.790	 10.49088	  8.56096	  0.06703	  2.14875	  5.66307	 -0.33080	 11.32698	702.10999	 31.20	
 13.601	-21.647	 10.48446	  8.77631	 -0.07371	  2.68753	  5.03748	 -0.30934	 11.31557	702.09003	 31.20	
 13.611	-14.417	 10.49253	  8.91515	 -0.15894	  3.26683	  4.42073	 -0.29367	 11.32409	702.13000	 31.20	
 13.608	 -7.147	 10.47905	  8.96079	 -0.19789	  3.88083	  3.78113	 -0.29541	 11.31885	701.96997	 31.20	
 13.600	  0.000	 10.48069	  8.92801	 -0.17096	  4.48774	  3.18712	 -0.29854	 11.32233	702.08002	 31.20	
 13.608	  7.147	 10.47259	  8.79399	 -0.09152	  5.11331	  2.60548	 -0.30600	 11.32273	702.15002	 31.20	
 13.611	 14.417	 10.45366	  8.58022	  0.04125	  5.72509	  2.05417	 -0.29392	 11.32195	702.09998	 31.30	
 13.601	 21.647	 10.43669	  8.27553	  0.23140	  6.31834	  1.55024	 -0.27955	 11.31757	702.13000	 31.30	
 13.609	 28.790	 10.42351	  7.90305	  0.48690	  6.89065	  1.09725	 -0.27767	 11.31885	702.09003	 31.30	
 13.611	 36.001	 10.41244	  7.45877	  0.79118	  7.40898	  0.70258	 -0.29019	 11.32184	701.96002	 31.30	
 13.601	 43.175	 10.39066	  6.95557	  1.15158	  7.87457	  0.35832	 -0.30849	 11.31564	702.20001	 31.30	
 13.596	 50.360	 10.37476	  6.41148	  1.56345	  8.27300	  0.07475	 -0.32386	 11.31954	702.22998	 31.30	
 13.611	 57.569	 10.36150	  5.82622	  2.02751	  8.61418	 -0.16179	 -0.32985	 11.33120	702.25000	 31.30	
 13.604	 64.789	 10.33474	  5.20975	  2.54135	  8.85940	 -0.33454	 -0.33602	 11.32066	702.23999	 31.30	
 13.595	 71.958	 10.31713	  4.58675	  3.08803	  9.02263	 -0.44144	 -0.34192	 11.32021	702.17999	 31.30	
 13.607	 79.207	 10.29636	  3.95388	  3.67077	  9.11347	 -0.50895	 -0.35499	 11.32369	702.15002	 31.30	
 13.601	 86.383	 10.29064	  3.34617	  4.28215	  9.10217	 -0.49404	 -0.36874	 11.32224	702.15002	 31.30	
 13.601	 93.617	 10.26527	  2.75604	  4.88799	  9.00427	 -0.44595	 -0.38798	 11.31749	702.23999	 31.30	
 13.607	100.793	 10.24503	  2.19485	  5.49614	  8.83700	 -0.34899	 -0.38928	 11.31808	702.21997	 31.30	
 13.595	108.042	 10.23034	  1.66970	  6.11199	  8.56363	 -0.17755	 -0.39643	 11.32231	702.21002	 31.30	
 13.604	115.211	 10.21084	  1.19798	  6.67941	  8.22046	  0.03368	 -0.41363	 11.31909	702.10999	 31.30	
 13.611	122.431	 10.19372	  0.78006	  7.21987	  7.80727	  0.30853	 -0.41539	 11.32115	702.14001	 31.30	
 13.596	129.640	 10.18738	  0.41296	  7.72468	  7.32920	  0.64033	 -0.40959	 11.32077	702.21002	 31.30	
 13.601	136.825	 10.16978	  0.10260	  8.16068	  6.79943	  1.02276	 -0.39355	 11.31855	702.13000	 31.30	
 13.611	143.999	 10.15190	 -0.14798	  8.52950	  6.23050	  1.44961	 -0.37903	 11.31240	702.14001	 31.30	
 13.609	151.210	 10.14832	 -0.34304	  8.83587	  5.63649	  1.93235	 -0.37401	 11.32053	702.15002	 31.30	
 13.601	158.353	 10.14310	 -0.47649	  9.05285	  5.02143	  2.45727	 -0.37966	 11.32027	702.09003	 31.30	
 13.611	165.583	 10.13508	 -0.57070	  9.19673	  4.39246	  3.03247	 -0.38896	 11.31929	702.14001	 31.30	
 13.608	172.853	 10.14384	 -0.60241	  9.25163	  3.78182	  3.62665	 -0.38702	 11.32524	702.17999	 31.40	
 15.298	173.587	  9.81736	 -1.22739	  9.63783	  3.46793	  3.44317	 -0.46975	 11.32447	702.20001	 31.40	
 15.291	167.167	  9.80554	 -1.20555	  9.59279	  4.06765	  2.85339	 -0.47114	 11.31600	702.20001	 31.40	
 15.307	160.676	  9.80763	 -1.14701	  9.48608	  4.68998	  2.27554	 -0.46543	 11.32039	702.15002	 31.40	
 15.300	154.261	  9.81681	 -1.02896	  9.29305	  5.31153	  1.74989	 -0.46455	 11.31894	702.22998	 31.40	
 15.288	147.854	  9.83343	 -0.86554	  9.03414	  5.92077	  1.26129	 -0.46383	 11.32450	702.14001	 31.40	
 15.293	141.428	  9.84333	 -0.65713	  8.70192	  6.50876	  0.81089	 -0.47912	 11.32289	702.15997	 31.40	
 15.299	134.985	  9.85403	 -0.40280	  8.30456	  7.06880	  0.39982	 -0.49381	 11.32154	702.12000	 31.40	
 15.305	128.583	  9.86445	 -0.10285	  7.85816	  7.59724	  0.03098	 -0.50387	 11.32592	702.15997	 31.40	
 15.309	122.142	  9.88099	  0.25538	  7.35071	  8.07515	 -0.27962	 -0.50431	 11.32276	702.21997	 31.40	
 15.304	115.711	  9.89608	  0.68223	  6.79818	  8.48603	 -0.53675	 -0.49941	 11.32041	702.20001	 31.40	
 15.297	109.291	  9.91091	  1.13265	  6.21917	  8.84090	 -0.75338	 -0.48966	 11.31990	702.23999	 31.40	
 15.293	102.897	  9.93349	  1.62644	  5.63290	  9.12714	 -0.92148	 -0.48569	 11.32578	702.15002	 31.40	
 15.293	 96.458	  9.94620	  2.16728	  5.01913	  9.33280	 -1.04159	 -0.48185	 11.32309	702.14001	 31.40	
 15.300	 90.000	  9.95853	  2.72993	  4.40150	  9.47515	 -1.12495	 -0.47482	 11.32403	702.16998	 31.40	
 15.293	 83.542	  9.97683	  3.34323	  3.79266	  9.50663	 -1.13423	 -0.46704	 11.31093	702.13000	 31.40	
 15.293	 77.103	  9.99887	  3.95669	  3.20084	  9.50036	 -1.12205	 -0.45501	 11.32584	702.13000	 31.40	
 15.297	 70.709	 10.02076	  4.57953	  2.64122	  9.39145	 -1.04489	 -0.44562	 11.32006	702.22998	 31.40	
 15.304	 64.289	 10.03588	  5.20428	  2.10076	  9.21564	 -0.93297	 -0.44173	 11.32215	702.25000	 31.40	
 15.309	 57.858	 10.05666	  5.81516	  1.59948	  8.97074	 -0.78050	 -0.44016	 11.32294	702.21002	 31.40	
 15.305	 51.417	 10.07465	  6.40671	  1.13964	  8.64123	 -0.55858	 -0.43532	 11.32037	702.25000	 31.40	
 15.299	 45.015	 10.09846	  6.96403	  0.73511	  8.25444	 -0.29342	 -0.42428	 11.32317	702.20001	 31.50	
 15.293	 38.572	 10.11300	  7.48380	  0.36398	  7.79696	  0.02574	 -0.40894	 11.32128	702.28998	 31.50	
 15.288	 32.146	 10.12121	  7.95801	  0.03965	  7.28541	  0.38307	 -0.39168	 11.31897	702.28003	 31.50	
 15.300	 25.739	 10.13906	  8.37153	 -0.22555	  6.74854	  0.79355	 -0.38459	 11.32134	702.25000	 31.50	
 15.307	 19.324	 10.15668	  8.71791	 -0.44573	  6.16501	  1.25775	 -0.38543	 11.31633	702.15997	 31.50	
 15.291	 12.833	 10.17319	  8.99548	 -0.61642	  5.55755	  1.76485	 -0.39374	 11.31887	702.16998	 31.50	
 15.298	  6.413	 10.19205	  9.20981	 -0.73543	  4.95074	  2.31208	 -0.40308	 11.32716	702.34998	 31.50	
 15.300	  0.000	 10.19633	  9.34151	 -0.81367	  4.31756	  2.88531	 -0.40087	 11.32648	702.23999	 31.50	
 15.298	 -6.413	 10.20579	  9.38095	 -0.82996	  3.71597	  3.48083	 -0.38764	 11.32509	702.20001	 31.50	
 15.291	-12.833	 10.20973	  9.34644	 -0.80769	  3.11076	  4.10315	 -0.38841	 11.32333	702.26001	 31.50	
 15.307	-19.324	 10.20300	  9.22785	 -0.74627	  2.52095	  4.72817	 -0.40451	 11.31285	702.26001	 31.50	
 15.300	-25.739	 10.20432	  9.04240	 -0.63021	  1.98296	  5.34974	 -0.42823	 11.32181	702.17999	 31.50	
 15.288	-32.146	 10.19513	  8.77223	 -0.45899	  1.47698	  5.95346	 -0.45872	 11.31582	702.20001	 31.50	
 15.293	-38.572	 10.19513	  8.44100	 -0.24501	  1.00849	  6.54648	 -0.50485	 11.32192	702.19000	 31.50	
 15.299	-45.015	 10.18258	  8.02656	  0.02477	  0.58350	  7.10962	 -0.54101	 11.31811	702.21997	 31.50	
 15.305	-51.417	 10.17346	  7.56914	  0.34474	  0.20239	  7.62681	 -0.54848	 11.32364	702.26001	 31.50	
 15.309	-57.858	 10.15806	  7.05157	  0.70898	 -0.11918	  8.08246	 -0.54901	 11.31694	702.27002	 31.50	
 15.304	-64.289	 10.14273	  6.48682	  1.12289	 -0.39303	  8.49169	 -0.52727	 11.31798	702.25000	 31.50	
 15.297	-70.709	 10.12482	  5.89503	  1.58354	 -0.62121	  8.83106	 -0.52755	 11.31880	702.25000	 31.50	
 15.293	-77.103	 10.10213	  5.28960	  2.07324	 -0.79192	  9.09352	 -0.54086	 11.31859	702.28003	 31.50	
 15.293	-83.542	 10.08095	  4.66675	  2.60903	 -0.91173	  9.27828	 -0.55432	 11.31429	702.34998	 31.50	
 15.300	-90.000	 10.05568	  4.02334	  3.18051	 -0.99073	  9.40484	 -0.55181	 11.31664	702.26001	 31.50	
 15.293	-96.458	 10.03200	  3.41909	  3.75788	 -1.01561	  9.43176	 -0.54483	 11.30642	702.28003	 31.50	
 15.293	-102.897	 10.01811	  2.82024	  4.37018	 -1.00063	  9.39872	 -0.51730	 11.31610	702.19000	 31.50	
 15.297	-109.291	  9.98862	  2.24197	  4.97948	 -0.93473	  9.27548	 -0.49379	 11.30899	702.31000	 31.50	
 15.304	-115.711	  9.97187	  1.70990	  5.58202	 -0.83431	  9.09117	 -0.47692	 11.32466	702.21002	 31.50	
 15.309	-122.142	  9.94249	  1.20585	  6.17128	 -0.67731	  8.81345	 -0.46929	 11.31581	702.16998	 31.50	
 15.305	-128.583	  9.92342	  0.73846	  6.75595	 -0.47933	  8.46789	 -0.46907	 11.32036	702.16998	 31.50	
 15.299	-134.985	  9.91696	  0.34028	  7.30023	 -0.21325	  8.05569	 -0.46478	 11.31917	702.17999	 31.60	
 15.293	-141.428	  9.90051	 -0.02695	  7.80963	  0.08889	  7.59031	 -0.44662	 11.32472	702.27002	 31.60	
 15.288	-147.854	  9.87518	 -0.34902	  8.26576	  0.44064	  7.06955	 -0.43741	 11.31432	702.23999	 31.60	
 15.300	-154.261	  9.85614	 -0.61427	  8.66492	  0.84281	  6.50673	 -0.43638	 11.31053	702.22998	 31.60	
 15.307	-160.676	  9.83634	 -0.84434	  9.00750	  1.28035	  5.92563	 -0.41986	 11.31535	702.28003	 31.60	
 15.291	-167.167	  9.82039	 -1.01057	  9.27551	  1.77536	  5.30299	 -0.42803	 11.30896	702.25000	 31.60	
 15.298	-173.587	  9.81690	 -1.12788	  9.47606	  2.30900	  4.68160	 -0.44786	 11.31321	702.15997	 31.60	
 15.300	180.000	  9.81348	 -1.20195	  9.59408	  2.87750	  4.05785	 -0.46410	 11.31554	702.26001	 31.60	
 17.000	180.000	  9.44802	 -1.80603	  9.93323	  2.53913	  3.87166	 -0.52464	 11.31471	702.28003	 31.60	
 16.990	-174.179	  9.45226	 -1.74237	  9.82117	  1.98196	  4.48666	 -0.51424	 11.31009	702.20001	 31.60	
 17.009	-168.383	  9.45551	 -1.63778	  9.63867	  1.45953	  5.10553	 -0.49176	 11.31028	702.34003	 31.60	
 17.000	-162.596	  9.46860	 -1.48898	  9.38602	  0.95928	  5.72566	 -0.48012	 11.31200	702.26001	 31.60	
 16.990	-156.759	  9.48870	 -1.29553	  9.07541	  0.52479	  6.31431	 -0.47871	 11.31055	702.26001	 31.60	
 16.995	-150.919	  9.50660	 -1.06172	  8.69873	  0.11750	  6.89807	 -0.48798	 11.32039	702.32001	 31.60	
 16.988	-145.161	  9.51610	 -0.78545	  8.26367	 -0.25432	  7.43287	 -0.49824	 11.31336	702.37000	 31.60	
 17.014	-139.343	  9.53167	 -0.46111	  7.78939	 -0.58672	  7.93558	 -0.50953	 11.31474	702.21002	 31.60	
 17.007	-133.546	  9.54359	 -0.09783	  7.26208	 -0.86809	  8.38546	 -0.53108	 11.30973	702.22998	 31.60	
 17.001	-127.699	  9.56634	  0.30571	  6.71027	 -1.10395	  8.78994	 -0.54474	 11.31526	702.20001	 31.60	
 17.006	-121.937	  9.58810	  0.75520	  6.13837	 -1.29085	  9.13031	 -0.55063	 11.31752	702.23999	 31.60	
 17.002	-116.134	  9.61129	  1.24725	  5.54190	 -1.43971	  9.40717	 -0.56313	 11.31560	702.22998	 31.60	
 17.001	-110.310	  9.63655	  1.78074	  4.93299	 -1.54528	  9.60612	 -0.57583	 11.31203	702.31000	 31.60	
 16.988	-104.517	  9.66751	  2.34305	  4.33605	 -1.59835	  9.73814	 -0.59884	 11.31404	702.37000	 31.60	
 17.008	-98.662	  9.67660	  2.93090	  3.71569	 -1.64099	  9.80447	 -0.62701	 11.30733	702.29999	 31.60	
 16.996	-92.909	  9.70419	  3.53120	  3.13861	 -1.63107	  9.79969	 -0.64757	 11.31108	702.28998	 31.60	
 16.996	-87.091	  9.73250	  4.14977	  2.57096	 -1.57434	  9.72311	 -0.65460	 11.31421	702.34003	 31.60	
 17.012	-81.253	  9.74016	  4.77493	  2.01694	 -1.49615	  9.57858	 -0.65479	 11.30867	702.32001	 31.70	
 16.988	-75.483	  9.76537	  5.39093	  1.51326	 -1.35790	  9.35772	 -0.64275	 11.30484	702.28003	 31.70	
 17.001	-69.690	  9.78634	  5.99905	  1.03381	 -1.18320	  9.08308	 -0.63436	 11.31213	702.35999	 31.70	
 17.002	-63.866	  9.79763	  6.58893	  0.58565	 -0.96285	  8.72369	 -0.64164	 11.29961	702.25000	 31.70	
 17.006	-58.063	  9.81736	  7.14860	  0.18986	 -0.70294	  8.32349	 -0.65054	 11.30649	702.27002	 31.70	
 17.001	-52.301	  9.84071	  7.66868	 -0.16321	 -0.39344	  7.87131	 -0.65374	 11.31613	702.27002	 31.70	
 17.007	-46.454	  9.84897	  8.14350	 -0.47789	 -0.03437	  7.36109	 -0.65281	 11.31097	702.34998	 31.70	
 17.014	-40.657	  9.85549	  8.57873	 -0.76243	  0.35610	  6.80671	 -0.62557	 11.31526	702.31000	 31.70	
 16.988	-34.839	  9.86981	  8.93161	 -0.96819	  0.80670	  6.23188	 -0.58609	 11.31013	702.29999	 31.70	
 16.995	-29.081	  9.87356	  9.23447	 -1.15355	  1.28230	  5.63214	 -0.54724	 11.31972	702.15002	 31.70	
 16.990	-23.241	  9.88082	  9.46660	 -1.29022	  1.80129	  5.01566	 -0.50873	 11.31858	702.16998	 31.70	
 17.000	-17.404	  9.87930	  9.63291	 -1.38278	  2.34509	  4.39066	 -0.49141	 11.31038	702.22998	 31.70	
 17.009	-11.617	  9.87069	  9.72953	 -1.44664	  2.91741	  3.76515	 -0.47650	 11.31100	702.17999	 31.70	
 16.990	 -5.821	  9.86523	  9.74630	 -1.45977	  3.50855	  3.16015	 -0.47888	 11.31172	702.39001	 31.70	
 17.000	  0.000	  9.86183	  9.70567	 -1.44010	  4.12554	  2.55958	 -0.48157	 11.31902	702.35999	 31.70	
 16.990	  5.821	  9.85162	  9.56821	 -1.35608	  4.75483	  1.98868	 -0.48390	 11.31132	702.28998	 31.70	
 17.009	 11.617	  9.83448	  9.38556	 -1.26938	  5.36561	  1.44438	 -0.47876	 11.31158	702.38000	 31.70	
 17.000	 17.404	  9.82220	  9.12153	 -1.11187	  5.96689	  0.94868	 -0.47552	 11.31218	702.26001	 31.70	
 16.990	 23.241	  9.80592	  8.79183	 -0.91900	  6.55555	  0.48157	 -0.47521	 11.31239	702.31000	 31.70	
 16.995	 29.081	  9.79482	  8.41248	 -0.68295	  7.11784	  0.06497	 -0.48737	 11.31477	702.37000	 31.70	
 16.988	 34.839	  9.78404	  7.97113	 -0.39809	  7.65102	 -0.30691	 -0.50881	 11.32133	702.33002	 31.70	
 17.014	 40.657	  9.75899	  7.47799	 -0.07982	  8.13935	 -0.65034	 -0.52631	 11.31212	702.39001	 31.70	
 17.007	 46.454	  9.74126	  6.93668	  0.28701	  8.57884	 -0.93696	 -0.53844	 11.31395	702.29999	 31.70	
 17.001	 52.301	  9.72535	  6.36135	  0.71262	  8.95381	 -1.17274	 -0.54694	 11.30766	702.21997	 31.70	
 17.006	 58.063	  9.70825	  5.78112	  1.15117	  9.27604	 -1.37354	 -0.54197	 11.31450	702.32001	 31.70	
 17.002	 63.866	  9.68215	  5.17824	  1.63108	  9.52343	 -1.53577	 -0.54300	 11.31105	702.45001	 31.70	
 17.001	 69.690	  9.66128	  4.54002	  2.16364	  9.71475	 -1.64877	 -0.54145	 11.30838	702.41998	 31.70	
 16.988	 75.483	  9.64433	  3.92761	  2.71388	  9.83575	 -1.72268	 -0.54463	 11.30917	702.37000	 31.80	
 17.012	 81.253	  9.63038	  3.31984	  3.27739	  9.88773	 -1.76045	 -0.55910	 11.31596	702.37000	 31.70	
 16.996	 87.091	  9.60923	  2.70673	  3.88558	  9.86078	 -1.75584	 -0.56292	 11.30892	702.38000	 31.80	
 16.996	 92.909	  9.59650	  2.13277	  4.49542	  9.76449	 -1.70259	 -0.56546	 11.30668	702.35999	 31.80	
 17.008	 98.662	  9.57241	  1.58088	  5.09378	  9.60856	 -1.62578	 -0.56460	 11.31170	702.28003	 31.80	
 16.988	104.517	  9.55821	  1.06573	  5.71186	  9.37470	 -1.49333	 -0.55975	 11.31263	702.50000	 31.80	
 17.001	110.310	  9.53865	  0.57715	  6.31012	  9.07733	 -1.32135	 -0.56129	 11.31042	702.27002	 31.80	
 17.002	116.134	  9.52723	  0.14903	  6.88167	  8.71184	 -1.11178	 -0.56343	 11.31212	702.33002	 31.80	
 17.006	121.937	  9.51450	 -0.25260	  7.43553	  8.29972	 -0.86303	 -0.57472	 11.31825	702.35999	 31.80	
 17.001	127.699	  9.50207	 -0.59158	  7.93709	  7.82343	 -0.55923	 -0.57456	 11.31348	702.40002	 31.80	
 17.007	133.546	  9.48331	 -0.90961	  8.40406	  7.30239	 -0.22146	 -0.56974	 11.30745	702.42999	 31.80	
 17.014	139.343	  9.47470	 -1.16863	  8.81853	  6.75657	  0.15546	 -0.55725	 11.31654	702.42999	 31.80	
 16.988	145.161	  9.47101	 -1.37326	  9.17932	  6.17101	  0.59916	 -0.54067	 11.31707	702.34998	 31.80	
 16.995	150.919	  9.44749	 -1.54759	  9.46545	  5.57510	  1.03894	 -0.53351	 11.30877	702.47998	 31.80	
 16.990	156.759	  9.44698	 -1.67482	  9.69711	  4.96688	  1.55184	 -0.52995	 11.31438	702.42999	 31.80	
 17.000	162.596	  9.44024	 -1.77552	  9.86438	  4.33770	  2.08750	 -0.53358	 11.31538	702.50000	 31.80	
 17.009	168.383	  9.43817	 -1.82367	  9.95425	  3.72393	  2.66135	 -0.53062	 11.30974	702.40002	 31.80	
 16.990	174.179	  9.45028	 -1.82888	  9.98175	  3.13807	  3.26041	 -0.52783	 11.31994	702.42999	 31.80	
 18.709	174.675	  9.03779	 -2.43203	 10.29922	  2.77739	  3.03468	 -0.56288	 11.31604	702.51001	 31.80	
 18.703	169.441	  9.03978	 -2.41924	 10.28390	  3.35766	  2.46650	 -0.56387	 11.31655	702.42999	 31.80	
 18.691	164.085	  9.04716	 -2.36474	 10.19488	  3.97715	  1.88557	 -0.56542	 11.31575	702.59003	 31.80	
 18.706	158.818	  9.04279	 -2.29800	 10.05119	  4.58487	  1.34488	 -0.57280	 11.30729	702.46997	 31.80	
 18.695	153.537	  9.04939	 -2.19459	  9.85467	  5.18922	  0.84971	 -0.57654	 11.31073	702.50000	 31.80	
 18.704	148.255	  9.06213	 -2.05168	  9.60332	  5.79563	  0.37603	 -0.58515	 11.32003	702.42999	 31.80	
 18.698	142.952	  9.06815	 -1.87474	  9.27767	  6.39328	 -0.06429	 -0.59243	 11.31600	702.34998	 31.80	
 18.699	137.625	  9.08428	 -1.64928	  8.89903	  6.96691	 -0.45909	 -0.60494	 11.31522	702.34998	 31.80	
 18.705	132.343	  9.09713	 -1.38641	  8.46771	  7.50910	 -0.81566	 -0.60762	 11.31387	702.48999	 31.80	
 18.713	127.067	  9.11274	 -1.08268	  7.99504	  8.01467	 -1.13068	 -0.61050	 11.31580	702.50000	 31.80	
 18.700	121.794	  9.12976	 -0.74527	  7.49070	  8.48857	 -1.41643	 -0.61276	 11.32056	702.40002	 31.80	
 18.698	116.504	  9.14212	 -0.36129	  6.93326	  8.89897	 -1.65801	 -0.61123	 11.31124	702.41998	 31.80	
 18.707	111.165	  9.15430	  0.05320	  6.36373	  9.27075	 -1.86518	 -0.61205	 11.31087	702.50000	 31.90	
 18.690	105.863	  9.17741	  0.51929	  5.77619	  9.58336	 -2.03046	 -0.61491	 11.31590	702.28003	 31.90	
 18.696	100.583	  9.19321	  1.00091	  5.17502	  9.83819	 -2.15917	 -0.61456	 11.31776	702.50000	 31.90	
 18.700	 95.309	  9.21114	  1.54158	  4.56353	 10.02021	 -2.25413	 -0.62048	 11.31448	702.41998	 31.90	
 18.700	 90.000	  9.21991	  2.08791	  3.95621	 10.14280	 -2.32004	 -0.62233	 11.30897	702.39001	 31.90	
 18.700	 84.691	  9.23319	  2.67192	  3.35157	 10.20293	 -2.34903	 -0.63132	 11.31173	702.50000	 31.90	
 18.696	 79.417	  9.25468	  3.27067	  2.77892	 10.19930	 -2.33475	 -0.63007	 11.31141	702.45001	 31.90	
 18.690	 74.137	  9.27793	  3.88308	  2.22678	 10.13347	 -2.28852	 -0.62438	 11.31848	702.46002	 31.90	
 18.707	 68.835	  9.28545	  4.49615	  1.67942	 10.00644	 -2.22361	 -0.63157	 11.31284	702.40997	 31.90	
 18.698	 63.496	  9.30423	  5.11649	  1.17247	  9.81252	 -2.11370	 -0.63811	 11.31372	702.41998	 31.90	
 18.700	 58.206	  9.32901	  5.72286	  0.70321	  9.55754	 -1.95373	 -0.63217	 11.31409	702.53998	 31.90	
 18.713	 52.933	  9.35383	  6.31922	  0.26332	  9.25421	 -1.77380	 -0.63326	 11.32283	702.48999	 31.90	
 18.705	 47.657	  9.36269	  6.88507	 -0.14215	  8.87903	 -1.55244	 -0.62748	 11.31201	702.46997	 31.90	
 18.699	 42.375	  9.38414	  7.42441	 -0.50505	  8.45325	 -1.29085	 -0.61849	 11.31161	702.51001	 31.90	
 18.698	 37.048	  9.39793	  7.93790	 -0.83751	  7.97446	 -0.98699	 -0.59800	 11.31410	702.52002	 31.90	
 18.704	 31.745	  9.42191	  8.40555	 -1.11922	  7.46291	 -0.63197	 -0.57898	 11.31812	702.40002	 31.90	
 18.695	 26.463	  9.43570	  8.82345	 -1.36739	  6.91083	 -0.24591	 -0.56117	 11.31440	702.40997	 31.90	
 18.706	 21.182	  9.45206	  9.19117	 -1.58369	  6.34641	  0.17052	 -0.54561	 11.31986	702.45001	 31.90	
 18.691	 15.915	  9.46666	  9.48936	 -1.74561	  5.74779	  0.64000	 -0.53630	 11.31458	702.44000	 31.90	
 18.703	 10.559	  9.48040	  9.74236	 -1.88396	  5.13677	  1.14230	 -0.53821	 11.31618	702.53003	 31.90	
 18.709	  5.325	  9.49086	  9.91263	 -1.97146	  4.53100	  1.67070	 -0.53571	 11.30848	702.40997	 31.90	
 18.700	  0.000	  9.49842	 10.03969	 -2.04378	  3.90811	  2.22817	 -0.53901	 11.31283	702.47998	 31.90	
 18.709	 -5.325	  9.50785	 10.08947	 -2.06697	  3.29925	  2.82177	 -0.54410	 11.31059	702.48999	 31.90	
 18.703	-10.559	  9.51598	 10.07886	 -2.05261	  2.72607	  3.41161	 -0.55639	 11.30726	702.40997	 31.90	
 18.691	-15.915	  9.52026	  9.99838	 -2.00935	  2.15012	  4.02864	 -0.56491	 11.30880	702.45001	 31.90	
 18.706	-21.182	  9.51633	  9.86385	 -1.93836	  1.60139	  4.64749	 -0.58027	 11.31505	702.46997	 31.90	
 18.695	-26.463	  9.51716	  9.65549	 -1.81531	  1.09291	  5.25674	 -0.61574	 11.30896	702.48999	 31.90	
 18.704	-31.745	  9.51608	  9.38812	 -1.66083	  0.60636	  5.87352	 -0.64694	 11.30785	702.40002	 31.90	
 18.698	-37.048	  9.50871	  9.04902	 -1.46063	  0.15632	  6.47670	 -0.67603	 11.30782	702.45001	 31.90	
 18.699	-42.375	  9.49716	  8.67323	 -1.25551	 -0.26050	  7.03591	 -0.70527	 11.30822	702.46002	 31.90	
 18.705	-47.657	  9.48291	  8.23072	 -0.98417	 -0.63938	  7.57597	 -0.72632	 11.31129	702.48999	 31.90	
 18.713	-52.933	  9.47380	  7.75583	 -0.67209	 -0.96863	  8.07487	 -0.72841	 11.30868	702.53998	 31.90	
 18.700	-58.206	  9.46115	  7.22453	 -0.31635	 -1.25747	  8.53698	 -0.72479	 11.30738	702.48999	 32.00	
 18.698	-63.496	  9.44761	  6.67051	  0.07071	 -1.50487	  8.93603	 -0.71964	 11.30933	702.50000	 31.90	
 18.707	-68.835	  9.42304	  6.07924	  0.48582	 -1.73975	  9.30189	 -0.71416	 11.31176	702.46002	 32.00	
 18.690	-74.137	  9.40355	  5.47496	  0.95543	 -1.90491	  9.58638	 -0.72103	 11.30769	702.45001	 32.00	
 18.696	-79.417	  9.39268	  4.86417	  1.44732	 -2.03844	  9.82376	 -0.72262	 11.31297	702.50000	 31.90	
 18.700	-84.691	  9.35807	  4.24255	  1.95971	 -2.14953	  9.99147	 -0.71735	 11.30723	702.45001	 32.00	
 18.700	-90.000	  9.34432	  3.61703	  2.52465	 -2.20389	 10.10281	 -0.70956	 11.31107	702.45001	 32.00	
 18.700	-95.309	  9.31765	  3.01429	  3.08873	 -2.24255	 10.14711	 -0.70047	 11.31017	702.41998	 32.00	
 18.696	-100.583	  9.29596	  2.42317	  3.67578	 -2.23352	 10.12706	 -0.68256	 11.31500	702.44000	 32.00	
 18.690	-105.863	  9.27092	  1.85384	  4.27666	 -2.19078	 10.04385	 -0.64471	 11.30575	702.42999	 32.00	
 18.707	-111.165	  9.25167	  1.31562	  4.87797	 -2.11706	  9.89180	 -0.63415	 11.30777	702.48999	 32.00	
 18.698	-116.504	  9.22450	  0.79896	  5.48156	 -2.01978	  9.68233	 -0.61540	 11.31156	702.50000	 32.00	
 18.700	-121.794	  9.20537	  0.31573	  6.08020	 -1.87594	  9.40384	 -0.59786	 11.31229	702.50000	 32.00	
 18.713	-127.067	  9.17970	 -0.12518	  6.65711	 -1.69609	  9.07316	 -0.57829	 11.31136	702.42999	 32.00	
 18.705	-132.343	  9.15668	 -0.52412	  7.20227	 -1.48351	  8.67892	 -0.56479	 11.30297	702.51001	 32.00	
 18.699	-137.625	  9.14463	 -0.88978	  7.73739	 -1.21915	  8.23263	 -0.55273	 11.30710	702.46002	 32.00	
 18.698	-142.952	  9.13024	 -1.20835	  8.23275	 -0.92755	  7.76395	 -0.53634	 11.31668	702.46002	 32.00	
 18.704	-148.255	  9.11128	 -1.49747	  8.67970	 -0.59326	  7.23621	 -0.52242	 11.31171	702.40002	 32.00	
 18.695	-153.537	  9.09786	 -1.74124	  9.08412	 -0.20856	  6.66808	 -0.51933	 11.30739	702.44000	 32.00	
 18.706	-158.818	  9.08608	 -1.94905	  9.43309	  0.20032	  6.08659	 -0.50726	 11.31230	702.42999	 32.00	
 18.691	-164.085	  9.06956	 -2.10969	  9.71887	  0.63157	  5.49886	 -0.51052	 11.30976	702.40997	 32.00	
 18.703	-169.441	  9.05359	 -2.24695	  9.96333	  1.12875	  4.86793	 -0.51829	 11.30438	702.41998	 32.00	
 18.709	-174.675	  9.04907	 -2.33564	 10.13179	  1.64359	  4.26319	 -0.53863	 11.30509	702.40002	 32.00	
 18.700	180.000	  9.03876	 -2.40694	 10.24525	  2.19536	  3.64643	 -0.55114	 11.30787	702.39001	 32.00	
 20.400	180.000	  8.60781	 -2.98174	 10.51553	  1.83414	  3.40263	 -0.53604	 11.30592	702.51001	 32.00	
 20.401	-175.153	  8.61022	 -2.91777	 10.40545	  1.30233	  4.00600	 -0.52693	 11.30739	702.56000	 32.00	
 20.407	-170.264	  8.61858	 -2.83914	 10.25174	  0.78124	  4.62318	 -0.51408	 11.31309	702.35999	 32.00	
 20.410	-165.423	  8.63081	 -2.72541	 10.03307	  0.30059	  5.22950	 -0.50925	 11.31521	702.48999	 32.00	
 20.392	-160.496	  8.64812	 -2.56709	  9.74637	 -0.13934	  5.83247	 -0.50504	 11.31353	702.44000	 32.00	
 20.401	-155.705	  8.64912	 -2.40024	  9.41762	 -0.56106	  6.41586	 -0.50679	 11.30408	702.44000	 32.00	
 20.405	-150.835	  8.66451	 -2.18694	  9.04158	 -0.93210	  6.98198	 -0.51411	 11.31097	702.44000	 32.00	
 20.397	-145.903	  8.68575	 -1.91966	  8.61227	 -1.27436	  7.53370	 -0.52888	 11.30727	702.39001	 32.00	
 20.392	-141.062	  8.70219	 -1.63264	  8.14647	 -1.58233	  8.04244	 -0.53511	 11.30583	702.40002	 32.00	
 20.396	-136.227	  8.72655	 -1.30925	  7.64980	 -1.84489	  8.51553	 -0.55427	 11.31324	702.40997	 32.00	
 20.408	-131.372	  8.73499	 -0.95528	  7.10966	 -2.07886	  8.93210	 -0.56882	 11.30513	702.42999	 32.00	
 20.410	-126.511	  8.75553	 -0.56504	  6.55569	 -2.28635	  9.31890	 -0.58360	 11.30988	702.40997	 32.00	
 20.400	-121.604	  8.77947	 -0.12358	  5.96910	 -2.44773	  9.64458	 -0.60846	 11.30948	702.41998	 32.00	
 20.403	-116.741	  8.79758	  0.33107	  5.37794	 -2.59153	  9.92519	 -0.63006	 11.30969	702.34003	 32.00	
 20.413	-111.900	  8.82427	  0.83248	  4.78170	 -2.69139	 10.14940	 -0.64600	 11.31705	702.42999	 32.00	
 20.398	-107.004	  8.83993	  1.36132	  4.17368	 -2.76919	 10.29818	 -0.66924	 11.30183	702.40002	 32.00	
 20.394	-102.132	  8.87239	  1.90384	  3.59451	 -2.81029	 10.40811	 -0.68779	 11.31331	702.53003	 32.00	
 20.403	-97.332	  8.89748	  2.48974	  3.00752	 -2.81818	 10.43935	 -0.70385	 11.31538	702.51001	 32.00	
 20.392	-92.440	  8.91902	  3.08078	  2.43799	 -2.81027	 10.42473	 -0.71948	 11.31815	702.38000	 32.00	
 20.392	-87.560	  8.93902	  3.68569	  1.89020	 -2.76693	 10.35229	 -0.72774	 11.30900	702.40997	 32.00	
 20.403	-82.668	  8.95893	  4.30840	  1.34551	 -2.69104	 10.22053	 -0.74076	 11.31251	702.39001	 32.00	
 20.394	-77.868	  8.98025	  4.92001	  0.85320	 -2.58797	 10.02439	 -0.74855	 11.30834	702.40002	 32.00	
 20.398	-72.996	  8.99940	  5.52033	  0.38858	 -2.44838	  9.78487	 -0.75347	 11.30876	702.39001	 32.00	
 20.413	-68.100	  9.01465	  6.12677	 -0.06429	 -2.28238	  9.47657	 -0.75267	 11.30867	702.42999	 32.00	
 20.403	-63.259	  9.03703	  6.70405	 -0.45632	 -2.07001	  9.12288	 -0.75520	 11.30740	702.42999	 32.00	
 20.400	-58.396	  9.05949	  7.26556	 -0.83182	 -1.82368	  8.71332	 -0.75283	 11.31413	702.46997	 32.00	
 20.410	-53.489	  9.06746	  7.79462	 -1.17943	 -1.54595	  8.25586	 -0.74412	 11.30379	702.41998	 32.00	
 20.408	-48.628	  9.08046	  8.29213	 -1.48916	 -1.23983	  7.76548	 -0.73788	 11.31567	702.34003	 32.00	
 20.396	-43.773	  9.10061	  8.74257	 -1.74523	 -0.87739	  7.23094	 -0.73354	 11.31482	702.33002	 32.00	
 20.392	-38.938	  9.11621	  9.13443	 -1.96500	 -0.48035	  6.67274	 -0.72407	 11.31096	702.42999	 32.00	
 20.397	-34.097	  9.11060	  9.48433	 -2.16863	 -0.07390	  6.09039	 -0.70440	 11.30934	702.33002	 32.00	
 20.405	-29.165	  9.11663	  9.78939	 -2.33211	  0.38736	  5.47975	 -0.68647	 11.31228	702.39001	 32.00	
 20.401	-24.295	  9.11867	 10.02339	 -2.46722	  0.87141	  4.86787	 -0.66622	 11.31094	702.40002	 32.00	
 20.392	-19.504	  9.12309	 10.20327	 -2.55773	  1.38830	  4.25919	 -0.64178	 11.30891	702.34998	 32.10	
 20.410	-14.577	  9.12191	 10.32529	 -2.62416	  1.92438	  3.65405	 -0.62085	 11.31582	702.41998	 32.10	
 20.407	 -9.736	  9.11722	 10.38638	 -2.65741	  2.48772	  3.04538	 -0.60269	 11.31076	702.34998	 32.10	
 20.401	 -4.847	  9.10875	 10.39440	 -2.66915	  3.07236	  2.44625	 -0.58499	 11.31305	702.34998	 32.00	
 20.400	  0.000	  9.10824	 10.33413	 -2.63361	  3.67416	  1.88363	 -0.57466	 11.31408	702.31000	 32.10	
 20.401	  4.847	  9.08893	 10.21708	 -2.57884	  4.27405	  1.33348	 -0.56894	 11.30845	702.28998	 32.10	
 20.407	  9.736	  9.07865	 10.04099	 -2.48244	  4.88715	  0.80863	 -0.56948	 11.30797	702.28003	 32.10	
 20.410	 14.577	  9.06805	  9.81350	 -2.37211	  5.49666	  0.31426	 -0.57548	 11.31602	702.28003	 32.10	
 20.392	 19.504	  9.05061	  9.51069	 -2.20915	  6.09603	 -0.15397	 -0.58924	 11.30838	702.25000	 32.10	
 20.401	 24.295	  9.03698	  9.17807	 -2.02928	  6.67298	 -0.57341	 -0.60121	 11.30975	702.40997	 32.10	
 20.405	 29.165	  9.01371	  8.78698	 -1.81740	  7.22219	 -0.96429	 -0.62215	 11.30303	702.28998	 32.10	
 20.397	 34.097	  8.99640	  8.34538	 -1.56324	  7.75954	 -1.32584	 -0.63652	 11.30890	702.37000	 32.10	
 20.392	 38.938	  8.98331	  7.85729	 -1.25902	  8.25952	 -1.64037	 -0.65215	 11.30464	702.34998	 32.10	
 20.396	 43.773	  8.97626	  7.35036	 -0.93726	  8.71150	 -1.90727	 -0.67532	 11.30927	702.21002	 32.10	
 20.408	 48.628	  8.95347	  6.79637	 -0.57769	  9.12347	 -2.15044	 -0.68989	 11.30646	702.34003	 32.10	
 20.410	 53.489	  8.92872	  6.22289	 -0.18650	  9.49426	 -2.36803	 -0.69327	 11.30971	702.34003	 32.10	
 20.400	 58.396	  8.91181	  5.62518	  0.24585	  9.80668	 -2.53522	 -0.69341	 11.31087	702.42999	 32.10	
 20.403	 63.259	  8.88559	  5.01824	  0.70113	 10.04630	 -2.67484	 -0.69443	 11.30029	702.33002	 32.10	
 20.413	 68.100	  8.87022	  4.40697	  1.18196	 10.25700	 -2.79587	 -0.68853	 11.30914	702.37000	 32.10	
 20.398	 72.996	  8.85780	  3.79992	  1.71610	 10.38979	 -2.86271	 -0.68589	 11.30810	702.37000	 32.10	
 20.394	 77.868	  8.83513	  3.19245	  2.24692	 10.47635	 -2.91343	 -0.66573	 11.31160	702.37000	 32.10	
 20.403	 82.668	  8.82058	  2.59383	  2.80961	 10.49908	 -2.93438	 -0.66149	 11.30962	702.37000	 32.10	
 20.392	 87.560	  8.81190	  2.01405	  3.40416	 10.46628	 -2.91868	 -0.65435	 11.31273	702.40002	 32.10	
 20.392	 92.440	  8.79408	  1.46335	  3.99699	 10.37772	 -2.87555	 -0.64615	 11.31309	702.42999	 32.10	
 20.403	 97.332	  8.77102	  0.91939	  4.60171	 10.22718	 -2.80829	 -0.64008	 11.30711	702.40997	 32.10	
 20.394	102.132	  8.76318	  0.43016	  5.20003	 10.02116	 -2.70782	 -0.62713	 11.30820	702.38000	 32.10	
 20.398	107.004	  8.74466	 -0.04296	  5.79900	  9.75400	 -2.57189	 -0.62615	 11.30756	702.39001	 32.10	
 20.413	111.900	  8.72534	 -0.48228	  6.38779	  9.43368	 -2.40662	 -0.62412	 11.30844	702.34003	 32.10	
 20.403	116.741	  8.70932	 -0.88196	  6.95264	  9.06399	 -2.20950	 -0.62188	 11.30780	702.28998	 32.10	
 20.400	121.604	  8.69648	 -1.23821	  7.49506	  8.64307	 -1.97077	 -0.61726	 11.30212	702.26001	 32.10	
 20.410	126.511	  8.68460	 -1.58250	  8.02121	  8.17731	 -1.70313	 -0.61782	 11.30769	702.32001	 32.10	
 20.408	131.372	  8.66981	 -1.88097	  8.50078	  7.66941	 -1.40607	 -0.61346	 11.30873	702.28003	 32.10	
 20.396	136.227	  8.65837	 -2.13412	  8.93971	  7.13322	 -1.06599	 -0.60797	 11.30826	702.27002	 32.10	
 20.392	141.062	  8.64895	 -2.34928	  9.33087	  6.57411	 -0.69459	 -0.59809	 11.30871	702.26001	 32.10	
 20.397	145.903	  8.63257	 -2.53897	  9.66892	  5.99452	 -0.29751	 -0.59802	 11.30918	702.22998	 32.10	
 20.405	150.835	  8.62032	 -2.69869	  9.96458	  5.39234	  0.14871	 -0.59266	 11.31452	702.27002	 32.10	
 20.401	155.705	  8.60699	 -2.81474	 10.19182	  4.77772	  0.62832	 -0.57915	 11.30611	702.21997	 32.10	
 20.392	160.496	  8.60012	 -2.90297	 10.35945	  4.17028	  1.12874	 -0.56947	 11.29934	702.15997	 32.10	
 20.410	165.423	  8.59834	 -2.97139	 10.49394	  3.56788	  1.66096	 -0.55712	 11.30949	702.21997	 32.10	
 20.407	170.264	  8.59969	 -3.01065	 10.55983	  2.97993	  2.21460	 -0.55579	 11.31115	702.28998	 32.10	
 20.401	175.153	  8.60207	 -3.00438	 10.56256	  2.39126	  2.80599	 -0.53601	 11.30576	702.29999	 32.10	
  0.141	 45.000	 11.32794	  4.64104	  4.98360	  4.83847	  4.65832	  0.25454	 11.30868	702.28003	 32.10	
  4.001	128.691	 11.26055	  3.54757	  5.93216	  5.71303	  3.63690	  0.15641	 11.31094	702.29999	 32.10	
  4.002	 76.995	 11.28290	  4.66701	  4.75651	  6.17593	  3.28931	  0.19039	 11.30865	702.25000	 32.10	
  4.002	 25.892	 11.29699	  5.75054	  3.78881	  5.49646	  3.87886	  0.22415	 11.30088	702.20001	 32.10	
  4.002	-25.892	 11.30364	  5.92723	  3.67034	  4.27506	  5.08009	  0.22486	 11.30076	702.21997	 32.10	
  4.002	-76.995	 11.29994	  5.02680	  4.45101	  3.48738	  5.98774	  0.20682	 11.30666	702.29999	 32.10	
  4.001	-128.691	 11.28046	  3.82127	  5.66736	  3.58049	  5.82793	  0.18498	 11.31494	702.28998	 32.10	
  4.000	180.000	 11.24514	  3.19604	  6.35427	  4.50074	  4.76130	  0.16498	 11.30072	702.34003	 32.10	
  8.000	180.000	 10.94350	  1.62798	  7.64963	  4.06697	  4.64330	 -0.03452	 11.29959	702.26001	 32.10	
  7.991	-152.370	 10.97908	  2.05148	  7.12656	  2.88071	  6.00662	 -0.00027	 11.31053	702.37000	 32.10	
  7.997	-124.550	 11.01206	  2.96411	  6.02265	  2.08897	  7.02187	 -0.00482	 11.30727	702.35999	 32.10	
  8.006	-96.837	 11.05810	  4.25675	  4.66410	  1.83311	  7.40224	 -0.01451	 11.30609	702.37000	 32.10	
  7.988	-69.228	 11.10304	  5.62375	  3.40799	  2.11005	  7.05945	  0.00841	 11.31348	702.29999	 32.10	
  7.997	-41.563	 11.12565	  6.75671	  2.47772	  2.91311	  6.07603	  0.00885	 11.31447	702.45001	 32.10	
  8.008	-13.821	 11.12845	  7.31185	  2.04450	  4.14225	  4.71210	  0.03654	 11.30673	702.35999	 32.10	
  8.008	 13.821	 11.11488	  7.12559	  2.17233	  5.52966	  3.35741	  0.04832	 11.30694	702.31000	 32.10	
  7.997	 41.563	 11.07716	  6.25146	  2.84138	  6.73989	  2.30484	  0.04137	 11.30153	702.26001	 32.10	
  7.988	 69.228	 11.03939	  4.94579	  3.96513	  7.43178	  1.74723	  0.01865	 11.30449	702.28003	 32.10	
  8.006	 96.837	 11.00426	  3.55840	  5.32615	  7.41509	  1.74884	 -0.03399	 11.30866	702.28998	 32.10	
  7.997	124.550	 10.97190	  2.43066	  6.60459	  6.69202	  2.28637	 -0.05730	 11.31226	702.19000	 32.10	
  7.991	152.370	 10.94891	  1.76707	  7.45890	  5.44887	  3.31635	 -0.03610	 11.31032	702.21002	 32.10	
 12.009	161.059	 10.41556	  0.10217	  8.71205	  4.88859	  2.99051	 -0.28377	 11.31447	702.28003	 32.10	
 12.013	142.081	 10.42744	  0.48624	  8.12784	  6.29350	  1.79054	 -0.28744	 11.31165	702.28998	 32.10	
 12.006	123.113	 10.45801	  1.24609	  7.09813	  7.50652	  0.88646	 -0.30959	 11.30850	702.22998	 32.10	
 12.007	104.200	 10.49440	  2.32531	  5.79304	  8.34872	  0.31178	 -0.29416	 11.31300	702.22998	 32.10	
 11.989	 85.301	 10.52951	  3.65943	  4.37285	  8.68296	  0.10699	 -0.26691	 11.30575	702.23999	 32.10	
 12.013	 66.294	 10.57533	  5.10964	  3.01028	  8.51202	  0.23569	 -0.23028	 11.30997	702.22998	 32.10	
 12.012	 47.388	 10.62198	  6.49581	  1.87216	  7.81871	  0.73294	 -0.20925	 11.31598	702.28003	 32.10	
 11.990	 28.440	 10.66215	  7.60261	  1.05255	  6.70713	  1.60334	 -0.17251	 11.30701	702.29999	 32.10	
 11.991	  9.464	 10.69176	  8.32403	  0.55795	  5.34146	  2.77416	 -0.20007	 11.30875	702.22998	 32.10	
 11.991	 -9.464	 10.70747	  8.52000	  0.43638	  3.90423	  4.15942	 -0.19599	 11.30659	702.28003	 32.10	
 11.990	-28.440	 10.71132	  8.18186	  0.67162	  2.56036	  5.60402	 -0.21822	 11.31190	702.27002	 32.10	
 12.012	-47.388	 10.69524	  7.35105	  1.26060	  1.46757	  6.93596	 -0.28812	 11.31491	702.34003	 32.10	
 12.013	-66.294	 10.65771	  6.13163	  2.20115	  0.70800	  7.94365	 -0.28586	 11.30356	702.28998	 32.10	
 11.989	-85.301	 10.62065	  4.70943	  3.42804	  0.31056	  8.51378	 -0.30392	 11.31042	702.33002	 32.10	
 12.007	-104.200	 10.56624	  3.27864	  4.79969	  0.24512	  8.56154	 -0.28935	 11.31071	702.27002	 32.10	
 12.006	-123.113	 10.51667	  2.01346	  6.19568	  0.54741	  8.08018	 -0.27229	 11.31182	702.32001	 32.10	
 12.013	-142.081	 10.47655	  1.01068	  7.45567	  1.21174	  7.11591	 -0.26180	 11.31403	702.21002	 32.10	
 12.009	-161.059	 10.43665	  0.35173	  8.35174	  2.19245	  5.83329	 -0.24507	 11.30655	702.23999	 32.10	
 16.000	180.000	  9.67308	 -1.44349	  9.73694	  2.73772	  3.98279	 -0.48750	 11.31460	702.21997	 32.10	
 15.990	-165.604	  9.68236	 -1.21270	  9.34314	  1.48193	  5.43134	 -0.45196	 11.30508	702.32001	 32.10	
 16.002	-151.165	  9.71871	 -0.74089	  8.58659	  0.43274	  6.81917	 -0.45968	 11.31215	702.21997	 32.10	
 16.002	-136.836	  9.75748	  0.00299	  7.50081	 -0.37124	  8.01322	 -0.48076	 11.30790	702.37000	 32.10	
 15.995	-122.439	  9.81113	  1.00530	  6.20275	 -0.91249	  8.92171	 -0.50393	 11.31565	702.37000	 32.10	
 15.993	-107.966	  9.85705	  2.21774	  4.78382	 -1.21759	  9.46407	 -0.53663	 11.31288	702.25000	 32.10	
 16.005	-93.629	  9.90182	  3.59464	  3.37598	 -1.28334	  9.59298	 -0.59452	 11.31101	702.27002	 32.10	
 15.992	-79.234	  9.96271	  5.05305	  2.08370	 -1.09285	  9.30766	 -0.59022	 11.31262	702.31000	 32.20	
 16.009	-64.774	  9.99211	  6.46390	  0.94549	 -0.65787	  8.62607	 -0.57661	 11.30205	702.28998	 32.20	
 15.997	-50.364	 10.04120	  7.71582	  0.05957	  0.04011	  7.61236	 -0.59712	 11.31194	702.21997	 32.20	
 15.997	-36.045	 10.05687	  8.69816	 -0.58766	  0.98107	  6.33033	 -0.53623	 11.30781	702.28998	 32.20	
 16.000	-21.597	 10.07131	  9.32017	 -0.96710	  2.17091	  4.89746	 -0.44322	 11.31041	702.28003	 32.20	
 16.003	 -7.169	 10.06289	  9.53261	 -1.09647	  3.52787	  3.44645	 -0.42709	 11.31068	702.26001	 32.20	
 16.003	  7.169	 10.04336	  9.32430	 -0.98008	  4.96384	  2.09010	 -0.43378	 11.30603	702.19000	 32.20	
 16.000	 21.597	 10.01328	  8.72448	 -0.62088	  6.38303	  0.89788	 -0.42129	 11.31264	702.16998	 32.20	
 15.997	 36.045	  9.97448	  7.75786	 -0.00561	  7.66924	 -0.06868	 -0.44787	 11.30637	702.17999	 32.20	
 15.997	 50.364	  9.93253	  6.52985	  0.85734	  8.68907	 -0.76429	 -0.47953	 11.31332	702.22998	 32.20	
 16.009	 64.774	  9.89250	  5.12514	  1.96459	  9.36970	 -1.19495	 -0.48193	 11.31301	702.26001	 32.20	
 15.992	 79.234	  9.84754	  3.67291	  3.25884	  9.65967	 -1.38964	 -0.49814	 11.31271	702.23999	 32.20	
 16.005	 93.629	  9.80056	  2.27381	  4.66639	  9.54819	 -1.34590	 -0.51468	 11.31149	702.04999	 32.20	
 15.993	107.966	  9.77322	  1.04453	  6.09184	  9.02970	 -1.04482	 -0.52258	 11.31824	702.14001	 32.20	
 15.995	122.439	  9.73135	  0.03442	  7.41289	  8.13321	 -0.49415	 -0.53501	 11.31039	702.21997	 32.20	
 16.002	136.836	  9.70294	 -0.71249	  8.50994	  6.95870	  0.28908	 -0.52224	 11.31363	702.17999	 32.20	
 16.002	151.165	  9.66887	 -1.20023	  9.29522	  5.58521	  1.31312	 -0.49339	 11.31060	702.22998	 32.20	
 15.990	165.604	  9.66696	 -1.44547	  9.72289	  4.13339	  2.58705	 -0.49815	 11.31724	702.25000	 32.20	
 20.003	168.362	  8.70617	 -2.85811	 10.48062	  3.28025	  2.07778	 -0.55948	 11.31353	702.38000	 32.20	
 20.008	156.764	  8.71127	 -2.70888	 10.18315	  4.68636	  0.83316	 -0.58625	 11.30935	702.25000	 32.20	
 20.000	145.147	  8.74177	 -2.38357	  9.57929	  6.10283	 -0.24047	 -0.59715	 11.31363	702.20001	 32.20	
 19.995	133.545	  8.78216	 -1.86509	  8.68353	  7.42924	 -1.12694	 -0.61413	 11.31966	702.25000	 32.20	
 20.009	121.926	  8.79345	 -1.15554	  7.52880	  8.58455	 -1.83739	 -0.61860	 11.30695	702.23999	 32.20	
 20.005	110.327	  8.84443	 -0.22909	  6.22361	  9.49947	 -2.32849	 -0.62473	 11.31744	702.19000	 32.20	
 19.989	 98.733	  8.87698	  0.88629	  4.81386	 10.11554	 -2.64784	 -0.63547	 11.31115	702.21002	 32.20	
 19.999	 87.075	  8.91768	  2.15222	  3.41429	 10.40917	 -2.78506	 -0.64924	 11.31377	702.26001	 32.20	
 19.992	 75.457	  8.95549	  3.54179	  2.07830	 10.38272	 -2.75873	 -0.66953	 11.31575	702.15002	 32.20	
 20.009	 63.844	  8.99250	  4.98307	  0.85208	 10.03292	 -2.56559	 -0.68568	 11.31607	702.14001	 32.20	
 19.989	 52.269	  9.03950	  6.37940	 -0.16705	  9.35909	 -2.17231	 -0.68189	 11.30906	702.28998	 32.20	
 19.999	 40.602	  9.07867	  7.67112	 -1.03199	  8.38897	 -1.60654	 -0.65229	 11.30830	702.19000	 32.20	
 20.004	 29.051	  9.12263	  8.76296	 -1.68170	  7.21579	 -0.83237	 -0.61431	 11.31389	702.21997	 32.20	
 20.005	 17.433	  9.16433	  9.60469	 -2.14915	  5.86526	  0.15441	 -0.57345	 11.31886	702.20001	 32.20	
 20.006	  5.780	  9.19046	 10.12790	 -2.42052	  4.44426	  1.31894	 -0.56645	 11.31489	702.26001	 32.20	
 20.006	 -5.780	  9.21292	 10.32758	 -2.52117	  3.03772	  2.63538	 -0.57796	 11.31151	702.07001	 32.20	
 20.005	-17.433	  9.21723	 10.19993	 -2.44972	  1.70073	  4.04617	 -0.62939	 11.30972	702.17999	 32.20	
 20.004	-29.051	  9.21532	  9.72886	 -2.19015	  0.51730	  5.48922	 -0.67240	 11.30385	702.25000	 32.20	
 19.999	-40.602	  9.20597	  8.95255	 -1.75182	 -0.49737	  6.86809	 -0.71915	 11.30610	702.19000	 32.20	
 19.989	-52.269	  9.17876	  7.90049	 -1.11666	 -1.33135	  8.11071	 -0.74289	 11.30806	702.25000	 32.20	
 20.009	-63.844	  9.14016	  6.64012	 -0.29164	 -1.94872	  9.11248	 -0.74704	 11.30377	702.15002	 32.20	
 19.992	-75.457	  9.09688	  5.23575	  0.74095	 -2.38387	  9.86096	 -0.74264	 11.30787	702.22998	 32.20	
 19.999	-87.075	  9.03348	  3.79771	  1.91828	 -2.62395	 10.27243	 -0.72966	 11.30546	702.21002	 32.20	
 19.989	-98.733	  8.98797	  2.39307	  3.25175	 -2.67974	 10.36739	 -0.69123	 11.30982	702.26001	 32.20	
 20.005	-110.327	  8.93395	  1.08681	  4.64321	 -2.57722	 10.13692	 -0.65185	 11.30939	702.25000	 32.20	
 20.009	-121.926	  8.87615	 -0.05400	  6.03487	 -2.30928	  9.57837	 -0.60666	 11.30886	702.17999	 32.20	
 19.995	-133.545	  8.84319	 -0.99279	  7.35064	 -1.84399	  8.72198	 -0.56831	 11.31500	702.27002	 32.20	
 20.000	-145.147	  8.80156	 -1.73453	  8.51072	 -1.19738	  7.60755	 -0.52576	 11.31205	702.28003	 32.20	
 20.008	-156.764	  8.75882	 -2.31058	  9.45199	 -0.34970	  6.29946	 -0.51298	 11.31057	702.35999	 32.20	
 20.003	-168.362	  8.73053	 -2.66299	 10.11433	  0.69557	  4.89675	 -0.51246	 11.31376	702.17999	 32.20	
 20.000	180.000	  8.71708	 -2.83477	 10.45057	  1.92139	  3.46715	 -0.53333	 11.30538	702.33002	 32.20	
