FileType=PCF
NHL=14
Date=05/31/19	10:59:06
Facility=APL
Serial=16071-14
Customer=NASA
NP=6
Mach=0.036000
Calibration=1:1
CalPts=490
TstPts=95
PortNumbering=AP Standard
Units=Torr C m/s kg/m^3 deg mm 
Theta[deg]	Phi[deg]	P1[Torr]	P2[Torr]	P3[Torr]	P4[Torr]	P5[Torr]	P6[Torr]	Pt[Torr]	Ps[Abs,Torr]	Ts[C]	
  0.000	  0.000	  0.63595	  0.28639	  0.28677	  0.28769	  0.27908	  0.04597	  0.63777	702.10999	 33.00	
  1.691	128.401	  0.63140	  0.26207	  0.30471	  0.30942	  0.25304	  0.04370	  0.63397	702.09003	 33.00	
  1.692	 77.194	  0.63018	  0.28134	  0.28319	  0.32068	  0.23881	  0.04393	  0.63421	702.09998	 33.00	
  1.699	 26.182	  0.63510	  0.31064	  0.26187	  0.30406	  0.25711	  0.04588	  0.63746	702.16998	 33.00	
  1.699	-26.182	  0.63563	  0.31426	  0.25788	  0.27410	  0.28758	  0.04496	  0.63885	702.15002	 33.00	
  1.692	-77.194	  0.63894	  0.29269	  0.27895	  0.26366	  0.30645	  0.04645	  0.64117	702.06000	 33.00	
  1.691	-128.401	  0.63755	  0.26788	  0.30487	  0.26192	  0.30581	  0.04473	  0.63996	702.03998	 33.00	
  1.700	180.000	  0.63726	  0.25648	  0.31873	  0.28493	  0.28246	  0.04444	  0.63847	702.08002	 33.00	
  3.400	180.000	  0.63723	  0.22274	  0.35323	  0.27853	  0.28311	  0.04115	  0.64275	702.09998	 33.00	
  3.388	-152.325	  0.63647	  0.23340	  0.33762	  0.25165	  0.31190	  0.04022	  0.64108	702.01001	 33.00	
  3.397	-124.529	  0.63419	  0.25153	  0.31428	  0.23600	  0.32941	  0.04072	  0.63891	702.07001	 33.00	
  3.399	-96.763	  0.63689	  0.27906	  0.28493	  0.22551	  0.34436	  0.04221	  0.63989	702.08002	 33.00	
  3.394	-69.283	  0.63267	  0.31037	  0.25459	  0.22905	  0.33068	  0.04228	  0.63631	702.03003	 33.00	
  3.400	-41.398	  0.63959	  0.33964	  0.23256	  0.24799	  0.31206	  0.04133	  0.64410	702.12000	 33.00	
  3.401	-14.021	  0.63683	  0.34629	  0.22696	  0.27138	  0.28856	  0.04426	  0.64079	702.02002	 32.90	
  3.401	 14.021	  0.63315	  0.34148	  0.22543	  0.30708	  0.24979	  0.04342	  0.63555	702.04999	 32.90	
  3.400	 41.398	  0.63809	  0.32672	  0.24358	  0.33391	  0.23064	  0.04418	  0.64229	702.07001	 32.90	
  3.394	 69.283	  0.63284	  0.29249	  0.26967	  0.35064	  0.21388	  0.04181	  0.63855	702.07001	 32.90	
  3.399	 96.763	  0.63226	  0.26347	  0.29961	  0.35116	  0.21238	  0.04211	  0.63663	702.09998	 32.90	
  3.397	124.529	  0.63146	  0.24051	  0.32314	  0.33360	  0.22877	  0.04115	  0.63503	701.98999	 32.90	
  3.388	152.325	  0.63043	  0.22569	  0.34165	  0.30706	  0.25088	  0.04023	  0.63541	702.12000	 32.90	
  5.099	161.165	  0.62968	  0.18624	  0.37990	  0.29680	  0.25506	  0.03608	  0.63940	702.17999	 32.90	
  5.109	142.013	  0.62456	  0.19608	  0.36164	  0.32883	  0.22175	  0.03593	  0.63322	702.10999	 32.90	
  5.095	123.033	  0.62415	  0.21414	  0.33900	  0.35544	  0.19908	  0.03621	  0.63195	702.09998	 32.90	
  5.105	104.191	  0.62871	  0.24052	  0.31298	  0.37584	  0.18280	  0.03480	  0.63674	701.95001	 32.90	
  5.093	 85.207	  0.63255	  0.27226	  0.28394	  0.38534	  0.17781	  0.03827	  0.64173	701.92999	 32.90	
  5.104	 66.290	  0.62869	  0.29973	  0.25127	  0.38110	  0.17741	  0.03644	  0.63762	702.00000	 32.90	
  5.094	 47.331	  0.63372	  0.33315	  0.22555	  0.36680	  0.19240	  0.03627	  0.64122	702.03998	 32.90	
  5.089	 28.397	  0.62970	  0.36281	  0.19842	  0.33705	  0.21353	  0.03977	  0.63816	701.92999	 32.90	
  5.096	  9.576	  0.63163	  0.37460	  0.19165	  0.30530	  0.24265	  0.04038	  0.64028	702.03998	 32.90	
  5.096	 -9.576	  0.63073	  0.37848	  0.18676	  0.27300	  0.27726	  0.04126	  0.63696	702.04999	 32.90	
  5.089	-28.397	  0.63365	  0.37497	  0.19395	  0.24171	  0.31030	  0.04174	  0.64114	702.71997	 32.90	
  5.094	-47.331	  0.63938	  0.35882	  0.21176	  0.22210	  0.33790	  0.04002	  0.64463	702.02002	 32.90	
  5.104	-66.290	  0.63226	  0.32651	  0.23453	  0.20131	  0.35854	  0.03784	  0.63823	702.00000	 32.90	
  5.093	-85.207	  0.63069	  0.29498	  0.26132	  0.19111	  0.37283	  0.03870	  0.63592	701.94000	 32.90	
  5.105	-104.191	  0.63169	  0.26586	  0.29132	  0.18939	  0.37556	  0.03716	  0.63807	701.98999	 32.90	
  5.095	-123.033	  0.63221	  0.23150	  0.32880	  0.19984	  0.36594	  0.03676	  0.63875	701.92999	 32.90	
  5.109	-142.013	  0.63487	  0.21296	  0.35233	  0.21586	  0.34786	  0.03539	  0.64421	701.94000	 32.90	
  5.099	-161.165	  0.63311	  0.20111	  0.36818	  0.23815	  0.31636	  0.03578	  0.64222	701.97998	 32.90	
  5.100	180.000	  0.62738	  0.18613	  0.37934	  0.26880	  0.28066	  0.03372	  0.63579	702.03998	 32.90	
  6.800	180.000	  0.62125	  0.14831	  0.41307	  0.25752	  0.28147	  0.02782	  0.63525	701.98999	 32.90	
  6.796	-166.229	  0.62584	  0.15559	  0.40569	  0.23068	  0.31387	  0.02830	  0.63950	701.94000	 32.90	
  6.808	-152.311	  0.62779	  0.16939	  0.38984	  0.20644	  0.34303	  0.02881	  0.64137	702.01001	 32.90	
  6.795	-138.383	  0.62715	  0.18659	  0.36904	  0.18090	  0.37207	  0.02973	  0.64213	702.10999	 32.90	
  6.792	-124.591	  0.62760	  0.21280	  0.33674	  0.16708	  0.39227	  0.02936	  0.64152	701.95001	 32.90	
  6.787	-110.754	  0.62719	  0.24045	  0.30687	  0.15866	  0.40180	  0.02973	  0.63882	702.72998	 32.90	
  6.800	-96.985	  0.63298	  0.27127	  0.27909	  0.15172	  0.41175	  0.03019	  0.64497	701.89001	 32.90	
  6.800	-83.015	  0.62594	  0.30174	  0.24130	  0.15461	  0.40280	  0.03058	  0.63852	701.89001	 32.90	
  6.787	-69.246	  0.62853	  0.33183	  0.21660	  0.16181	  0.39407	  0.03118	  0.64122	702.56000	 32.90	
  6.792	-55.409	  0.62825	  0.36298	  0.19065	  0.17895	  0.37158	  0.03378	  0.63923	702.15997	 32.90	
  6.795	-41.617	  0.63254	  0.38618	  0.17560	  0.20386	  0.34712	  0.03373	  0.64277	702.03003	 32.90	
  6.808	-27.689	  0.63237	  0.40041	  0.16155	  0.22978	  0.31929	  0.03471	  0.64298	702.56000	 32.80	
  6.796	-13.771	  0.63189	  0.41184	  0.15541	  0.26148	  0.28430	  0.03513	  0.64330	701.92999	 32.90	
  6.800	  0.000	  0.63017	  0.40934	  0.15667	  0.29287	  0.25082	  0.03547	  0.63990	701.94000	 32.80	
  6.796	 13.771	  0.62773	  0.39870	  0.16030	  0.32383	  0.22228	  0.03692	  0.63713	701.91998	 32.90	
  6.808	 27.689	  0.62761	  0.38370	  0.17353	  0.35537	  0.19245	  0.03516	  0.63858	701.83002	 32.80	
  6.795	 41.617	  0.63753	  0.36473	  0.19532	  0.38371	  0.17783	  0.03441	  0.65005	701.94000	 32.80	
  6.792	 55.409	  0.62311	  0.33178	  0.21312	  0.39543	  0.15888	  0.03449	  0.63490	701.90002	 32.80	
  6.787	 69.246	  0.62686	  0.30296	  0.24320	  0.41062	  0.14909	  0.03536	  0.63922	702.65002	 32.80	
  6.800	 83.015	  0.62125	  0.27137	  0.26893	  0.41393	  0.14176	  0.02979	  0.63612	702.40997	 32.80	
  6.800	 96.985	  0.63018	  0.24715	  0.30108	  0.41586	  0.14794	  0.02868	  0.64580	702.03998	 32.80	
  6.787	110.754	  0.62286	  0.21404	  0.33141	  0.39814	  0.15599	  0.03094	  0.63760	701.92999	 32.80	
  6.792	124.591	  0.62399	  0.18870	  0.36194	  0.38082	  0.17252	  0.02984	  0.63879	701.96997	 32.80	
  6.795	138.383	  0.62335	  0.16875	  0.38536	  0.35211	  0.19692	  0.02958	  0.63724	702.62000	 32.80	
  6.808	152.311	  0.62745	  0.16145	  0.40193	  0.32323	  0.22336	  0.02716	  0.64142	702.00000	 32.80	
  6.796	166.229	  0.62337	  0.15304	  0.40943	  0.29363	  0.24889	  0.03125	  0.63720	702.33002	 32.80	
  8.491	168.704	  0.61313	  0.11177	  0.44186	  0.28460	  0.23931	  0.02034	  0.63745	702.15997	 32.80	
  8.502	157.493	  0.61433	  0.12010	  0.43253	  0.31407	  0.21331	  0.01868	  0.63937	701.95001	 32.80	
  8.494	146.194	  0.61500	  0.12535	  0.42234	  0.34507	  0.18773	  0.02125	  0.63788	702.67999	 32.80	
  8.495	135.039	  0.61326	  0.14044	  0.40310	  0.37222	  0.16072	  0.02042	  0.63745	702.00000	 32.80	
  8.487	123.723	  0.61703	  0.16261	  0.37851	  0.40377	  0.13746	  0.02025	  0.64150	702.00000	 32.80	
  8.492	112.575	  0.61350	  0.18199	  0.34982	  0.42087	  0.12392	  0.02128	  0.63607	701.87000	 32.80	
  8.510	101.220	  0.61386	  0.21282	  0.31402	  0.43489	  0.11350	  0.02130	  0.63699	702.73999	 32.80	
  8.500	 90.000	  0.61293	  0.24244	  0.28213	  0.44079	  0.10850	  0.02367	  0.63520	702.64001	 32.80	
  8.510	 78.780	  0.61743	  0.27703	  0.25162	  0.44332	  0.10849	  0.02349	  0.63917	702.59998	 32.80	
  8.492	 67.425	  0.62234	  0.30725	  0.22677	  0.43602	  0.11618	  0.02588	  0.64396	702.64001	 32.80	
  8.487	 56.277	  0.61853	  0.34128	  0.19257	  0.42561	  0.12150	  0.02888	  0.63982	702.65002	 32.80	
  8.495	 44.961	  0.62328	  0.37109	  0.17264	  0.40715	  0.13742	  0.02994	  0.64346	702.60999	 32.80	
  8.494	 33.806	  0.61779	  0.39335	  0.14770	  0.37861	  0.15733	  0.02912	  0.63685	702.65997	 32.80	
  8.502	 22.507	  0.61596	  0.41301	  0.13009	  0.35114	  0.17780	  0.02973	  0.63707	701.96002	 32.80	
  8.491	 11.296	  0.61650	  0.42548	  0.12462	  0.32044	  0.20610	  0.03046	  0.63654	702.71997	 32.80	
  8.500	  0.000	  0.62224	  0.43891	  0.11752	  0.28914	  0.23942	  0.02896	  0.64257	701.92999	 32.80	
  8.491	-11.296	  0.62331	  0.44134	  0.11606	  0.25285	  0.27629	  0.02859	  0.64077	701.97998	 32.80	
  8.502	-22.507	  0.62350	  0.43641	  0.11911	  0.22253	  0.30881	  0.02866	  0.64357	702.02002	 32.80	
  8.494	-33.806	  0.62796	  0.42277	  0.13292	  0.19820	  0.34149	  0.02654	  0.64705	701.91998	 32.80	
  8.495	-44.961	  0.62249	  0.40131	  0.14665	  0.17292	  0.36612	  0.02582	  0.64221	701.92999	 32.80	
  8.487	-56.277	  0.62117	  0.38015	  0.16343	  0.15131	  0.38985	  0.02475	  0.64297	702.01001	 32.80	
  8.492	-67.425	  0.62392	  0.35181	  0.18907	  0.13609	  0.41528	  0.02492	  0.64370	702.00000	 32.80	
  8.510	-78.780	  0.62373	  0.31825	  0.21618	  0.12463	  0.43257	  0.02259	  0.64302	701.94000	 32.80	
  8.500	-90.000	  0.62227	  0.28598	  0.24826	  0.12042	  0.43571	  0.02375	  0.64014	702.12000	 32.80	
  8.510	-101.220	  0.62412	  0.25351	  0.27814	  0.11885	  0.44320	  0.02171	  0.64475	701.94000	 32.80	
  8.492	-112.575	  0.61895	  0.22119	  0.31353	  0.12615	  0.42757	  0.02383	  0.63916	701.91998	 32.80	
  8.487	-123.723	  0.61954	  0.19478	  0.34381	  0.13564	  0.41612	  0.02263	  0.63872	701.91998	 32.80	
  8.495	-135.039	  0.61682	  0.16896	  0.37093	  0.14241	  0.40354	  0.02273	  0.64066	701.85999	 32.80	
  8.494	-146.194	  0.62086	  0.15021	  0.40169	  0.16949	  0.37195	  0.02187	  0.64346	701.91998	 32.80	
  8.502	-157.493	  0.61360	  0.12924	  0.41750	  0.18966	  0.34552	  0.02300	  0.63626	701.84998	 32.80	
  8.491	-168.704	  0.61591	  0.12210	  0.43229	  0.22027	  0.31276	  0.02120	  0.64070	701.91998	 32.70	
  8.500	180.000	  0.61929	  0.11725	  0.44193	  0.24762	  0.28487	  0.02058	  0.64266	702.01001	 32.70	
 10.200	180.000	  0.60773	  0.07902	  0.46985	  0.23388	  0.27943	  0.01310	  0.64169	701.88000	 32.80	
 10.191	-170.497	  0.60395	  0.08592	  0.45683	  0.20771	  0.30696	  0.01302	  0.63821	701.78998	 32.70	
 10.210	-161.034	  0.60425	  0.09198	  0.44901	  0.17639	  0.34036	  0.01322	  0.63873	701.84998	 32.70	
 10.194	-151.526	  0.60769	  0.10613	  0.43106	  0.14905	  0.37331	  0.01286	  0.64253	701.79999	 32.70	
 10.190	-142.105	  0.60744	  0.12592	  0.40724	  0.13114	  0.39785	  0.01486	  0.64072	701.82001	 32.70	
 10.215	-132.646	  0.61027	  0.14737	  0.38147	  0.10986	  0.42722	  0.01360	  0.64459	701.82001	 32.70	
 10.203	-123.092	  0.60701	  0.16929	  0.34983	  0.09673	  0.44321	  0.01030	  0.64095	701.84998	 32.70	
 10.192	-113.678	  0.60808	  0.20126	  0.31801	  0.09017	  0.45405	  0.01387	  0.63968	701.85999	 32.70	
 10.208	-104.249	  0.61445	  0.23157	  0.28607	  0.08573	  0.46669	  0.01418	  0.64496	701.90002	 32.70	
 10.210	-94.801	  0.60797	  0.26121	  0.25194	  0.08414	  0.46241	  0.01296	  0.63543	701.88000	 32.70	
 10.210	-85.199	  0.60916	  0.29737	  0.21902	  0.08838	  0.45653	  0.01402	  0.63730	701.87000	 32.70	
 10.208	-75.751	  0.60867	  0.32731	  0.18978	  0.09058	  0.44815	  0.01508	  0.63788	701.98999	 32.70	
 10.192	-66.322	  0.60814	  0.35570	  0.16587	  0.10127	  0.43355	  0.01538	  0.63684	701.91998	 32.70	
 10.203	-56.908	  0.60913	  0.38437	  0.14115	  0.12512	  0.40783	  0.01606	  0.63427	701.92999	 32.70	
 10.215	-47.354	  0.61390	  0.41581	  0.12048	  0.14156	  0.38530	  0.01718	  0.64055	701.92999	 32.70	
 10.190	-37.895	  0.61313	  0.43549	  0.10419	  0.15961	  0.36123	  0.01707	  0.64181	701.84003	 32.70	
 10.194	-28.474	  0.61447	  0.45622	  0.09039	  0.19118	  0.32287	  0.01847	  0.64301	701.91998	 32.70	
 10.210	-18.966	  0.61378	  0.46320	  0.08303	  0.21656	  0.29622	  0.02018	  0.64335	701.84003	 32.70	
 10.191	 -9.503	  0.61657	  0.47045	  0.08066	  0.25131	  0.26298	  0.02160	  0.64594	701.89001	 32.70	
 10.200	  0.000	  0.60890	  0.46312	  0.07888	  0.27972	  0.22961	  0.02175	  0.63681	701.84998	 32.70	
 10.191	  9.503	  0.61096	  0.45834	  0.08301	  0.31794	  0.19467	  0.02055	  0.64242	701.91998	 32.70	
 10.210	 18.966	  0.60639	  0.44708	  0.08853	  0.34636	  0.16603	  0.02139	  0.63871	701.90002	 32.70	
 10.194	 28.474	  0.60610	  0.41995	  0.11083	  0.38034	  0.13798	  0.02200	  0.63591	701.78003	 32.70	
 10.190	 37.895	  0.61051	  0.40283	  0.12765	  0.40721	  0.11984	  0.02167	  0.64047	701.87000	 32.70	
 10.215	 47.354	  0.61389	  0.37602	  0.14981	  0.43106	  0.10268	  0.01836	  0.64348	701.87000	 32.70	
 10.203	 56.908	  0.60750	  0.34897	  0.16924	  0.44427	  0.09067	  0.01885	  0.63932	701.77002	 32.70	
 10.192	 66.322	  0.60904	  0.31512	  0.20119	  0.46419	  0.07665	  0.01871	  0.64138	701.87000	 32.70	
 10.208	 75.751	  0.60894	  0.28180	  0.23116	  0.47175	  0.07378	  0.01722	  0.64076	701.94000	 32.70	
 10.210	 85.199	  0.60415	  0.24550	  0.26250	  0.47290	  0.07245	  0.01596	  0.63768	701.90002	 32.70	
 10.210	 94.801	  0.60347	  0.21919	  0.29138	  0.46351	  0.07748	  0.01613	  0.63693	701.90997	 32.70	
 10.208	104.249	  0.60542	  0.18429	  0.33049	  0.45548	  0.08463	  0.01322	  0.63831	701.85999	 32.70	
 10.192	113.678	  0.60914	  0.16119	  0.36121	  0.43966	  0.10002	  0.01251	  0.64272	701.83002	 32.70	
 10.203	123.092	  0.60644	  0.13402	  0.39011	  0.42057	  0.11408	  0.01341	  0.64150	701.83002	 32.70	
 10.215	132.646	  0.60574	  0.11351	  0.41794	  0.39708	  0.13022	  0.01101	  0.64160	701.90997	 32.70	
 10.190	142.105	  0.60660	  0.10404	  0.43285	  0.36482	  0.15854	  0.01257	  0.64031	701.85999	 32.70	
 10.194	151.526	  0.60323	  0.08583	  0.45294	  0.33539	  0.17837	  0.01356	  0.63798	701.87000	 32.70	
 10.210	161.034	  0.60172	  0.08062	  0.46157	  0.30073	  0.20872	  0.01407	  0.63678	701.95001	 32.70	
 10.191	170.497	  0.60336	  0.07671	  0.46868	  0.26721	  0.24320	  0.01051	  0.63966	701.79999	 32.70	
 11.899	171.783	  0.58803	  0.04237	  0.49271	  0.25276	  0.23537	  0.00187	  0.63640	701.89001	 32.70	
 11.890	163.610	  0.59249	  0.04480	  0.49083	  0.28792	  0.20607	  0.00266	  0.64132	701.87000	 32.70	
 11.889	155.445	  0.58988	  0.05358	  0.47806	  0.31501	  0.17782	  0.00322	  0.63867	701.87000	 32.70	
 11.909	147.299	  0.58717	  0.05874	  0.46610	  0.34893	  0.14701	  0.00218	  0.63506	701.89001	 32.70	
 11.902	139.148	  0.59046	  0.07408	  0.44694	  0.38505	  0.11862	  0.00289	  0.64103	701.96997	 32.70	
 11.894	130.867	  0.59150	  0.08766	  0.42751	  0.41194	  0.09767	  0.00340	  0.63992	701.91998	 32.70	
 11.897	122.732	  0.59094	  0.10724	  0.40100	  0.43441	  0.08044	  0.00369	  0.63710	701.85999	 32.70	
 11.903	114.597	  0.58988	  0.12897	  0.37081	  0.45821	  0.06369	  0.00380	  0.63650	701.92999	 32.70	
 11.893	106.346	  0.59132	  0.15786	  0.33726	  0.47664	  0.05133	  0.00560	  0.63771	702.02002	 32.70	
 11.892	 98.155	  0.59785	  0.18659	  0.30905	  0.49157	  0.04471	  0.00380	  0.64422	701.92999	 32.70	
 11.900	 90.000	  0.59401	  0.21959	  0.26964	  0.49683	  0.03743	  0.00552	  0.63959	701.96002	 32.70	
 11.892	 81.845	  0.59625	  0.24756	  0.23921	  0.50359	  0.03526	  0.00589	  0.64315	701.95001	 32.70	
 11.893	 73.654	  0.59746	  0.28411	  0.20977	  0.49294	  0.04411	  0.00937	  0.64276	701.92999	 32.70	
 11.903	 65.403	  0.59514	  0.31831	  0.17818	  0.48762	  0.04260	  0.01185	  0.64133	701.98999	 32.70	
 11.897	 57.268	  0.59891	  0.34751	  0.15330	  0.47508	  0.05549	  0.01098	  0.64301	702.02002	 32.70	
 11.894	 49.133	  0.59852	  0.37909	  0.12835	  0.45531	  0.06660	  0.01292	  0.64154	701.98999	 32.70	
 11.902	 40.852	  0.59178	  0.40262	  0.10564	  0.42985	  0.08051	  0.01290	  0.63418	702.04999	 32.70	
 11.909	 32.701	  0.59965	  0.43689	  0.08191	  0.40486	  0.10428	  0.01380	  0.64234	702.09003	 32.70	
 11.889	 24.555	  0.59642	  0.45035	  0.07011	  0.37772	  0.12583	  0.01318	  0.63614	702.02002	 32.70	
 11.890	 16.390	  0.58997	  0.46909	  0.05403	  0.33614	  0.15223	  0.01570	  0.63242	701.98999	 32.70	
 11.899	  8.217	  0.59635	  0.48348	  0.04778	  0.30662	  0.18233	  0.01479	  0.63881	702.08002	 32.70	
 11.900	  0.000	  0.59382	  0.49024	  0.04107	  0.27442	  0.21067	  0.01652	  0.63602	702.09998	 32.70	
 11.899	 -8.217	  0.59956	  0.49231	  0.04333	  0.24694	  0.24224	  0.01545	  0.64054	702.07001	 32.70	
 11.890	-16.390	  0.59732	  0.49116	  0.04276	  0.21135	  0.27644	  0.01411	  0.63874	701.96002	 32.70	
 11.889	-24.555	  0.59884	  0.48090	  0.05171	  0.18121	  0.31397	  0.01365	  0.63508	701.91998	 32.70	
 11.909	-32.701	  0.59719	  0.46436	  0.06359	  0.15151	  0.34572	  0.01061	  0.63598	702.02002	 32.70	
 11.902	-40.852	  0.60103	  0.44976	  0.07516	  0.12975	  0.37826	  0.00846	  0.63965	701.97998	 32.70	
 11.894	-49.133	  0.60050	  0.42771	  0.09036	  0.10898	  0.40272	  0.00743	  0.64030	701.81000	 32.70	
 11.897	-57.268	  0.59851	  0.39725	  0.11475	  0.08814	  0.43131	  0.00912	  0.63713	702.03003	 32.70	
 11.903	-65.403	  0.59878	  0.36477	  0.13748	  0.07300	  0.45547	  0.00750	  0.63879	702.02002	 32.70	
 11.893	-73.654	  0.59986	  0.33892	  0.16181	  0.06026	  0.47216	  0.00397	  0.63915	701.98999	 32.70	
 11.892	-81.845	  0.59973	  0.30803	  0.19202	  0.05581	  0.47992	  0.00306	  0.64037	701.97998	 32.70	
 11.900	-90.000	  0.59919	  0.27194	  0.22297	  0.05192	  0.48709	  0.00268	  0.63774	701.91998	 32.70	
 11.892	-98.155	  0.60332	  0.24236	  0.25580	  0.04703	  0.49825	  0.00346	  0.64494	701.96997	 32.70	
 11.893	-106.346	  0.59837	  0.20796	  0.28876	  0.04827	  0.49117	  0.00479	  0.64141	701.90997	 32.70	
 11.903	-114.597	  0.59336	  0.17962	  0.31845	  0.05430	  0.47865	  0.00394	  0.63681	701.88000	 32.70	
 11.897	-122.732	  0.59424	  0.15036	  0.35076	  0.06360	  0.46768	  0.00442	  0.63875	701.98999	 32.70	
 11.894	-130.867	  0.59490	  0.12325	  0.38443	  0.07967	  0.44648	  0.00417	  0.63788	702.04999	 32.70	
 11.902	-139.148	  0.59207	  0.10235	  0.41052	  0.09554	  0.42171	  0.00419	  0.63670	701.91998	 32.70	
 11.909	-147.299	  0.59332	  0.08477	  0.43797	  0.11403	  0.39522	  0.00448	  0.63899	701.88000	 32.70	
 11.889	-155.445	  0.59510	  0.06892	  0.45786	  0.13952	  0.36808	  0.00608	  0.64100	701.91998	 32.70	
 11.890	-163.610	  0.59515	  0.05818	  0.47317	  0.16348	  0.33961	  0.00506	  0.63981	702.01001	 32.70	
 11.899	-171.783	  0.58597	  0.04507	  0.48265	  0.19045	  0.30126	  0.00490	  0.63449	701.92999	 32.70	
 11.900	180.000	  0.59446	  0.04356	  0.49505	  0.22062	  0.27555	  0.00308	  0.64189	701.95001	 32.70	
 13.600	180.000	  0.57827	  0.01124	  0.51405	  0.20686	  0.26504	 -0.00768	  0.64003	701.90002	 32.70	
 13.608	-172.853	  0.57572	  0.00813	  0.51350	  0.17691	  0.29399	 -0.00558	  0.63943	702.02002	 32.70	
 13.611	-165.583	  0.57782	  0.02032	  0.49740	  0.14893	  0.32864	 -0.00504	  0.63988	701.90997	 32.70	
 13.601	-158.353	  0.57725	  0.02752	  0.48651	  0.12263	  0.35712	 -0.00549	  0.63958	702.06000	 32.70	
 13.609	-151.210	  0.57862	  0.04578	  0.46107	  0.09923	  0.39109	 -0.00269	  0.63863	701.98999	 32.70	
 13.611	-143.999	  0.57997	  0.05911	  0.44216	  0.07497	  0.42158	 -0.00310	  0.64179	701.91998	 32.70	
 13.601	-136.825	  0.57780	  0.07627	  0.41762	  0.05874	  0.44349	 -0.00396	  0.63755	701.92999	 32.70	
 13.596	-129.640	  0.57908	  0.10063	  0.38434	  0.04175	  0.46947	 -0.00472	  0.64012	701.94000	 32.70	
 13.611	-122.431	  0.58019	  0.12453	  0.35698	  0.03213	  0.48490	 -0.00534	  0.63941	702.03998	 32.70	
 13.604	-115.211	  0.58169	  0.15037	  0.32634	  0.02266	  0.49873	 -0.00550	  0.63912	701.98999	 32.70	
 13.595	-108.042	  0.58626	  0.18610	  0.29227	  0.01567	  0.51205	 -0.00597	  0.64375	702.08002	 32.70	
 13.607	-100.793	  0.58524	  0.21931	  0.25399	  0.00996	  0.51892	 -0.00784	  0.64336	702.03998	 32.70	
 13.601	-93.617	  0.58353	  0.24802	  0.22342	  0.01277	  0.51356	 -0.00593	  0.63864	701.95001	 32.70	
 13.601	-86.383	  0.58542	  0.28034	  0.19412	  0.01272	  0.51501	 -0.00694	  0.64218	701.97998	 32.70	
 13.607	-79.207	  0.58572	  0.31611	  0.16162	  0.02217	  0.50210	 -0.00677	  0.64007	701.97998	 32.70	
 13.595	-71.958	  0.58495	  0.34650	  0.13365	  0.02755	  0.49060	 -0.00473	  0.64089	702.09998	 32.70	
 13.604	-64.789	  0.58660	  0.37810	  0.11001	  0.03863	  0.47525	 -0.00448	  0.64251	701.89001	 32.70	
 13.611	-57.569	  0.58686	  0.40834	  0.08669	  0.05596	  0.44675	 -0.00724	  0.63831	702.03003	 32.70	
 13.596	-50.360	  0.58483	  0.43401	  0.06670	  0.07480	  0.42127	 -0.00143	  0.63661	702.03003	 32.70	
 13.601	-43.175	  0.58353	  0.46085	  0.04681	  0.09607	  0.38919	 -0.00344	  0.63538	702.02002	 32.70	
 13.611	-36.001	  0.58902	  0.48337	  0.03430	  0.12272	  0.36231	 -0.00009	  0.64241	702.00000	 32.70	
 13.609	-28.790	  0.57873	  0.49338	  0.01897	  0.14419	  0.32707	  0.00437	  0.63360	702.02002	 32.70	
 13.601	-21.647	  0.58527	  0.50607	  0.01667	  0.17629	  0.29599	  0.00610	  0.63752	702.13000	 32.70	
 13.611	-14.417	  0.58835	  0.51237	  0.01523	  0.20890	  0.26510	  0.00478	  0.63935	702.10999	 32.70	
 13.608	 -7.147	  0.57726	  0.51388	  0.00478	  0.23604	  0.22588	  0.00737	  0.63218	702.01001	 32.70	
 13.600	  0.000	  0.58772	  0.51350	  0.01440	  0.27230	  0.19802	  0.00688	  0.64008	702.02002	 32.70	
 13.608	  7.147	  0.58259	  0.50401	  0.01437	  0.29764	  0.17186	  0.00982	  0.63435	701.97998	 32.70	
 13.611	 14.417	  0.58421	  0.49386	  0.02236	  0.33945	  0.13468	  0.00683	  0.63863	702.02002	 32.70	
 13.601	 21.647	  0.58115	  0.47769	  0.03087	  0.36782	  0.11184	  0.00790	  0.63629	702.07001	 32.70	
 13.609	 28.790	  0.58703	  0.46599	  0.04469	  0.40155	  0.08760	  0.00661	  0.64325	702.14001	 32.70	
 13.611	 36.001	  0.58256	  0.43345	  0.06351	  0.42802	  0.06572	  0.00381	  0.63759	702.15997	 32.70	
 13.601	 43.175	  0.58062	  0.41096	  0.07996	  0.45063	  0.04795	  0.00384	  0.64084	702.01001	 32.70	
 13.596	 50.360	  0.58205	  0.37920	  0.10597	  0.47534	  0.03251	  0.00254	  0.63816	702.15002	 32.70	
 13.611	 57.569	  0.58411	  0.35193	  0.12815	  0.49487	  0.02307	  0.00237	  0.64233	702.02002	 32.70	
 13.604	 64.789	  0.58192	  0.31804	  0.15489	  0.50797	  0.01184	  0.00069	  0.64115	702.03003	 32.70	
 13.595	 71.958	  0.58045	  0.28425	  0.18569	  0.51676	  0.00836	  0.00146	  0.64010	702.04999	 32.70	
 13.607	 79.207	  0.58107	  0.25197	  0.21529	  0.52294	  0.00298	 -0.00197	  0.64138	702.08002	 32.70	
 13.601	 86.383	  0.57844	  0.22075	  0.24635	  0.52047	  0.00424	 -0.00263	  0.63766	702.12000	 32.70	
 13.601	 93.617	  0.57807	  0.18636	  0.28175	  0.51804	  0.00334	 -0.00308	  0.63937	702.02002	 32.70	
 13.607	100.793	  0.57537	  0.15519	  0.31272	  0.50850	  0.00902	 -0.00533	  0.63954	702.10999	 32.70	
 13.595	108.042	  0.58182	  0.13033	  0.35093	  0.49707	  0.02283	 -0.00379	  0.64390	702.03998	 32.70	
 13.604	115.211	  0.57573	  0.10602	  0.37889	  0.47268	  0.03458	 -0.00533	  0.63680	701.98999	 32.70	
 13.611	122.431	  0.57435	  0.07862	  0.40925	  0.45227	  0.04963	 -0.00579	  0.63689	701.94000	 32.70	
 13.596	129.640	  0.57832	  0.06071	  0.43633	  0.43082	  0.06920	 -0.00729	  0.64042	702.01001	 32.70	
 13.601	136.825	  0.57097	  0.04147	  0.45925	  0.39905	  0.08453	 -0.00409	  0.63519	702.08002	 32.70	
 13.611	143.999	  0.57283	  0.02698	  0.48132	  0.36857	  0.10980	 -0.00629	  0.63703	701.98999	 32.70	
 13.609	151.210	  0.57085	  0.01959	  0.49325	  0.33557	  0.13698	 -0.00409	  0.63512	702.01001	 32.70	
 13.601	158.353	  0.57606	  0.01446	  0.50857	  0.30605	  0.16650	 -0.00534	  0.64061	701.96997	 32.70	
 13.611	165.583	  0.57864	  0.00512	  0.52152	  0.27160	  0.20196	 -0.00371	  0.64306	701.94000	 32.70	
 13.608	172.853	  0.57491	  0.00602	  0.51961	  0.24134	  0.22328	 -0.00623	  0.63948	701.96002	 32.70	
 15.298	173.587	  0.55970	 -0.02421	  0.53894	  0.22420	  0.21876	 -0.01559	  0.63935	701.91998	 32.70	
 15.291	167.167	  0.55867	 -0.02705	  0.53831	  0.25749	  0.18701	 -0.01712	  0.64064	701.92999	 32.70	
 15.307	160.676	  0.55701	 -0.02601	  0.53623	  0.28946	  0.15507	 -0.01299	  0.63917	701.97998	 32.70	
 15.300	154.261	  0.56033	 -0.01731	  0.52604	  0.32367	  0.13001	 -0.01363	  0.64083	701.98999	 32.70	
 15.288	147.854	  0.55975	 -0.00821	  0.50743	  0.35283	  0.10493	 -0.01271	  0.64027	702.07001	 32.70	
 15.293	141.428	  0.55834	  0.00358	  0.48812	  0.38499	  0.07690	 -0.01488	  0.63806	701.91998	 32.70	
 15.299	134.985	  0.55603	  0.01893	  0.46393	  0.41154	  0.05658	 -0.01533	  0.63523	701.95001	 32.70	
 15.305	128.583	  0.55860	  0.03262	  0.44295	  0.44713	  0.02950	 -0.01530	  0.64094	702.08002	 32.70	
 15.309	122.142	  0.56012	  0.05514	  0.41644	  0.47084	  0.01395	 -0.01363	  0.64115	701.97998	 32.60	
 15.304	115.711	  0.56063	  0.07699	  0.38606	  0.49039	  0.00318	 -0.01234	  0.63886	702.00000	 32.70	
 15.297	109.291	  0.56160	  0.09997	  0.35674	  0.50685	 -0.00585	 -0.01434	  0.63872	701.98999	 32.70	
 15.293	102.897	  0.56254	  0.12857	  0.32071	  0.52742	 -0.02055	 -0.01522	  0.64111	702.01001	 32.70	
 15.293	 96.458	  0.56096	  0.15637	  0.28830	  0.53807	 -0.02806	 -0.01249	  0.64043	702.01001	 32.70	
 15.300	 90.000	  0.56297	  0.18719	  0.25499	  0.54239	 -0.02858	 -0.01120	  0.63972	701.97998	 32.70	
 15.293	 83.542	  0.55883	  0.21942	  0.21934	  0.54099	 -0.03196	 -0.01075	  0.63678	701.96002	 32.70	
 15.293	 77.103	  0.56945	  0.24920	  0.19807	  0.54584	 -0.02839	 -0.01259	  0.64524	701.92999	 32.70	
 15.297	 70.709	  0.55966	  0.27845	  0.16235	  0.53513	 -0.02700	 -0.01046	  0.63468	701.92999	 32.70	
 15.304	 64.289	  0.56434	  0.31782	  0.13345	  0.52525	 -0.01918	 -0.00880	  0.63997	701.92999	 32.70	
 15.309	 57.858	  0.56292	  0.34560	  0.10753	  0.51304	 -0.01204	 -0.00918	  0.63674	701.95001	 32.70	
 15.305	 51.417	  0.56680	  0.38271	  0.08002	  0.49545	  0.00049	 -0.00757	  0.64146	701.90002	 32.70	
 15.299	 45.015	  0.57153	  0.41298	  0.06281	  0.47142	  0.02038	 -0.00887	  0.64453	701.92999	 32.70	
 15.293	 38.572	  0.56216	  0.44173	  0.03624	  0.44289	  0.03245	 -0.00645	  0.64052	701.94000	 32.70	
 15.288	 32.146	  0.56729	  0.46332	  0.02306	  0.41875	  0.05192	 -0.00341	  0.64039	701.85999	 32.60	
 15.300	 25.739	  0.56847	  0.48674	  0.00645	  0.39079	  0.07295	 -0.00309	  0.64369	701.84998	 32.70	
 15.307	 19.324	  0.56965	  0.50556	 -0.00481	  0.36088	  0.09761	 -0.00246	  0.64193	701.91998	 32.70	
 15.291	 12.833	  0.56703	  0.51418	 -0.01085	  0.32707	  0.12534	 -0.00083	  0.63517	701.96002	 32.70	
 15.298	  6.413	  0.56898	  0.52969	 -0.01983	  0.29310	  0.15417	 -0.00076	  0.63945	701.90002	 32.70	
 15.300	  0.000	  0.57156	  0.53842	 -0.02272	  0.25747	  0.18765	 -0.00117	  0.64306	701.89001	 32.60	
 15.298	 -6.413	  0.56848	  0.53740	 -0.02495	  0.23061	  0.21215	 -0.00101	  0.63781	701.90997	 32.70	
 15.291	-12.833	  0.56960	  0.53392	 -0.02215	  0.19775	  0.24826	 -0.00157	  0.63676	701.96997	 32.70	
 15.307	-19.324	  0.56646	  0.52850	 -0.02134	  0.16470	  0.27909	 -0.00662	  0.63578	701.98999	 32.60	
 15.300	-25.739	  0.57188	  0.52392	 -0.01517	  0.13576	  0.31744	 -0.00748	  0.64414	701.91998	 32.60	
 15.288	-32.146	  0.57271	  0.50798	 -0.00168	  0.11199	  0.34676	 -0.01003	  0.64102	701.92999	 32.60	
 15.293	-38.572	  0.57240	  0.48673	  0.00913	  0.08574	  0.38220	 -0.00962	  0.64205	701.94000	 32.60	
 15.299	-45.015	  0.56966	  0.46839	  0.02140	  0.05920	  0.41269	 -0.01465	  0.64153	701.98999	 32.70	
 15.305	-51.417	  0.57055	  0.44530	  0.03968	  0.04471	  0.43524	 -0.01336	  0.64131	702.03003	 32.60	
 15.309	-57.858	  0.57233	  0.42086	  0.05699	  0.02464	  0.46515	 -0.01484	  0.64584	702.03003	 32.60	
 15.304	-64.289	  0.56758	  0.38761	  0.08081	  0.01250	  0.48360	 -0.01547	  0.63861	701.96002	 32.60	
 15.297	-70.709	  0.57208	  0.35505	  0.10871	  0.00102	  0.50477	 -0.01704	  0.64209	702.09003	 32.60	
 15.293	-77.103	  0.57100	  0.32683	  0.12913	 -0.00875	  0.52128	 -0.01792	  0.64408	702.06000	 32.70	
 15.293	-83.542	  0.57468	  0.28919	  0.16797	 -0.01612	  0.53536	 -0.01598	  0.64750	702.03003	 32.70	
 15.300	-90.000	  0.56463	  0.25244	  0.19380	 -0.01888	  0.53368	 -0.01838	  0.63493	701.98999	 32.70	
 15.293	-96.458	  0.56669	  0.22338	  0.22417	 -0.02350	  0.54074	 -0.01873	  0.64019	702.09998	 32.60	
 15.293	-102.897	  0.56493	  0.18898	  0.25687	 -0.01997	  0.53581	 -0.01897	  0.63938	702.03003	 32.60	
 15.297	-109.291	  0.56508	  0.16249	  0.28549	 -0.01982	  0.53390	 -0.01602	  0.63954	702.12000	 32.60	
 15.304	-115.711	  0.56345	  0.13266	  0.31961	 -0.00887	  0.51795	 -0.01541	  0.63796	702.04999	 32.60	
 15.309	-122.142	  0.56741	  0.10688	  0.35481	 -0.00340	  0.51086	 -0.01493	  0.64610	702.01001	 32.60	
 15.305	-128.583	  0.55983	  0.08052	  0.38194	  0.00936	  0.48546	 -0.01388	  0.63523	701.98999	 32.60	
 15.299	-134.985	  0.56326	  0.05868	  0.41569	  0.02570	  0.46684	 -0.01385	  0.63984	701.91998	 32.60	
 15.293	-141.428	  0.56392	  0.04073	  0.44084	  0.04222	  0.44502	 -0.01135	  0.64124	701.92999	 32.60	
 15.288	-147.854	  0.56103	  0.01961	  0.46904	  0.06120	  0.41398	 -0.01172	  0.63916	702.01001	 32.60	
 15.300	-154.261	  0.55545	  0.00613	  0.48633	  0.07942	  0.38200	 -0.01012	  0.63467	701.97998	 32.60	
 15.307	-160.676	  0.56022	 -0.00938	  0.50960	  0.10658	  0.35193	 -0.01272	  0.64042	701.96997	 32.60	
 15.291	-167.167	  0.55590	 -0.01314	  0.51547	  0.12941	  0.32174	 -0.01243	  0.63509	702.00000	 32.60	
 15.298	-173.587	  0.55987	 -0.02302	  0.53490	  0.15853	  0.28786	 -0.01334	  0.64134	702.10999	 32.70	
 15.300	180.000	  0.55796	 -0.02660	  0.53745	  0.19184	  0.25312	 -0.01416	  0.63804	702.03003	 32.60	
 17.000	180.000	  0.54027	 -0.06281	  0.56131	  0.17265	  0.24502	 -0.02074	  0.64335	702.00000	 32.60	
 16.990	-174.179	  0.53595	 -0.05405	  0.54522	  0.14416	  0.27501	 -0.02116	  0.63434	702.03003	 32.60	
 17.009	-168.383	  0.53841	 -0.04348	  0.53452	  0.11547	  0.30849	 -0.02055	  0.63595	702.00000	 32.60	
 17.000	-162.596	  0.53828	 -0.04096	  0.52145	  0.08897	  0.34434	 -0.02215	  0.63665	702.02002	 32.60	
 16.990	-156.759	  0.54412	 -0.02628	  0.50975	  0.06874	  0.37440	 -0.02084	  0.64024	702.09003	 32.60	
 16.995	-150.919	  0.54195	 -0.01484	  0.48696	  0.04304	  0.40684	 -0.01910	  0.63881	702.07001	 32.60	
 16.988	-145.161	  0.53983	 -0.00153	  0.46281	  0.02092	  0.43378	 -0.02224	  0.63603	702.04999	 32.60	
 17.014	-139.343	  0.54227	  0.01450	  0.44225	  0.00367	  0.46129	 -0.02224	  0.64015	702.03998	 32.60	
 17.007	-133.546	  0.54132	  0.03510	  0.41387	 -0.00856	  0.48062	 -0.02166	  0.63722	702.09998	 32.60	
 17.001	-127.699	  0.54247	  0.05735	  0.38241	 -0.02446	  0.50326	 -0.02291	  0.63681	702.07001	 32.60	
 17.006	-121.937	  0.54951	  0.08589	  0.35100	 -0.03466	  0.52902	 -0.02592	  0.64596	702.00000	 32.60	
 17.002	-116.134	  0.54483	  0.10598	  0.31918	 -0.04685	  0.54193	 -0.02462	  0.64229	702.09998	 32.60	
 17.001	-110.310	  0.54585	  0.12962	  0.29078	 -0.05167	  0.55214	 -0.02820	  0.64300	702.09003	 32.60	
 16.988	-104.517	  0.54696	  0.16722	  0.25421	 -0.05189	  0.55677	 -0.03261	  0.64028	702.01001	 32.60	
 17.008	-98.662	  0.55027	  0.19983	  0.22348	 -0.05092	  0.55897	 -0.02523	  0.63969	702.03003	 32.60	
 16.996	-92.909	  0.55048	  0.23101	  0.19280	 -0.05205	  0.55985	 -0.02805	  0.64056	702.01001	 32.60	
 16.996	-87.091	  0.55203	  0.26529	  0.16109	 -0.04993	  0.55578	 -0.02811	  0.64356	702.06000	 32.60	
 17.012	-81.253	  0.55000	  0.29772	  0.12866	 -0.04543	  0.54491	 -0.02684	  0.64013	702.06000	 32.60	
 16.988	-75.483	  0.55123	  0.32781	  0.10695	 -0.03693	  0.53238	 -0.02725	  0.63867	702.16998	 32.60	
 17.001	-69.690	  0.55285	  0.36148	  0.07875	 -0.03312	  0.52367	 -0.02625	  0.64580	702.13000	 32.60	
 17.002	-63.866	  0.54742	  0.39022	  0.05306	 -0.01764	  0.49511	 -0.03405	  0.63617	702.12000	 32.60	
 17.006	-58.063	  0.54963	  0.41890	  0.03356	 -0.00524	  0.47683	 -0.03187	  0.63905	702.08002	 32.60	
 17.001	-52.301	  0.54752	  0.44464	  0.01791	  0.01610	  0.44489	 -0.02398	  0.63433	702.15002	 32.60	
 17.007	-46.454	  0.55283	  0.47390	 -0.00219	  0.03378	  0.42392	 -0.02010	  0.63881	702.07001	 32.60	
 17.014	-40.657	  0.55543	  0.49469	 -0.01592	  0.05065	  0.40186	 -0.02135	  0.64494	702.08002	 32.60	
 16.988	-34.839	  0.55022	  0.50959	 -0.02887	  0.07476	  0.36311	 -0.01871	  0.63912	702.12000	 32.60	
 16.995	-29.081	  0.55176	  0.52977	 -0.03908	  0.10404	  0.32959	 -0.01320	  0.63670	702.02002	 32.60	
 16.990	-23.241	  0.55441	  0.54173	 -0.04610	  0.13164	  0.29641	 -0.01576	  0.63936	702.09998	 32.60	
 17.000	-17.404	  0.55344	  0.54971	 -0.05032	  0.15808	  0.26606	 -0.01150	  0.63875	702.15997	 32.60	
 17.009	-11.617	  0.55224	  0.55815	 -0.05772	  0.18728	  0.23003	 -0.01402	  0.63980	702.09998	 32.60	
 16.990	 -5.821	  0.55188	  0.55720	 -0.05667	  0.21990	  0.19943	 -0.00856	  0.63905	702.06000	 32.60	
 17.000	  0.000	  0.55278	  0.55943	 -0.05827	  0.25314	  0.16777	 -0.00837	  0.64481	702.09998	 32.60	
 16.990	  5.821	  0.55367	  0.55025	 -0.05174	  0.28824	  0.13660	 -0.00923	  0.64246	702.06000	 32.60	
 17.009	 11.617	  0.54864	  0.54248	 -0.05287	  0.31705	  0.10641	 -0.00928	  0.64237	702.09998	 32.60	
 17.000	 17.404	  0.55132	  0.52639	 -0.04005	  0.34851	  0.08547	 -0.01026	  0.64163	702.08002	 32.60	
 16.990	 23.241	  0.54697	  0.50739	 -0.02844	  0.37642	  0.05966	 -0.00813	  0.63471	702.14001	 32.60	
 16.995	 29.081	  0.54644	  0.48706	 -0.01658	  0.40981	  0.03389	 -0.00997	  0.63808	702.08002	 32.60	
 16.988	 34.839	  0.55238	  0.46397	  0.00266	  0.44125	  0.01883	 -0.01068	  0.64002	702.07001	 32.60	
 17.014	 40.657	  0.54749	  0.43939	  0.01891	  0.46683	 -0.00242	 -0.01408	  0.64010	702.08002	 32.60	
 17.007	 46.454	  0.54450	  0.40772	  0.03754	  0.48737	 -0.01642	 -0.01500	  0.63738	702.06000	 32.60	
 17.001	 52.301	  0.54551	  0.37727	  0.06191	  0.51269	 -0.03220	 -0.01782	  0.63803	702.06000	 32.60	
 17.006	 58.063	  0.55077	  0.35021	  0.08379	  0.53602	 -0.04271	 -0.01619	  0.64483	702.07001	 32.60	
 17.002	 63.866	  0.54178	  0.31547	  0.10799	  0.54105	 -0.05302	 -0.02210	  0.63647	702.09003	 32.60	
 17.001	 69.690	  0.54214	  0.28015	  0.14113	  0.55530	 -0.05946	 -0.01977	  0.63810	702.07001	 32.60	
 16.988	 75.483	  0.54085	  0.25105	  0.16386	  0.55693	 -0.06025	 -0.01876	  0.63537	702.00000	 32.60	
 17.012	 81.253	  0.54847	  0.21519	  0.20514	  0.56566	 -0.06081	 -0.02037	  0.64351	702.09003	 32.60	
 16.996	 87.091	  0.54528	  0.18817	  0.22873	  0.56734	 -0.06419	 -0.02274	  0.64303	702.04999	 32.60	
 16.996	 92.909	  0.53821	  0.15449	  0.25884	  0.55519	 -0.05994	 -0.01984	  0.63317	702.10999	 32.60	
 17.008	 98.662	  0.54100	  0.12583	  0.29309	  0.55329	 -0.05849	 -0.02293	  0.63950	702.09003	 32.60	
 16.988	104.517	  0.54129	  0.09694	  0.32897	  0.53818	 -0.04817	 -0.02025	  0.64000	702.21002	 32.60	
 17.001	110.310	  0.54155	  0.06879	  0.36176	  0.52485	 -0.04189	 -0.02241	  0.64013	702.17999	 32.60	
 17.002	116.134	  0.54469	  0.05296	  0.39191	  0.50369	 -0.02429	 -0.02071	  0.64290	702.08002	 32.60	
 17.006	121.937	  0.54097	  0.03281	  0.41524	  0.48506	 -0.01554	 -0.02144	  0.63956	702.03998	 32.60	
 17.001	127.699	  0.54664	  0.00991	  0.44957	  0.46374	  0.00291	 -0.02227	  0.64542	702.09998	 32.60	
 17.007	133.546	  0.53730	 -0.00743	  0.47083	  0.42791	  0.02147	 -0.02216	  0.63694	702.15002	 32.60	
 17.014	139.343	  0.54252	 -0.02170	  0.49680	  0.39773	  0.04812	 -0.02235	  0.64006	702.09998	 32.60	
 16.988	145.161	  0.53819	 -0.03837	  0.51677	  0.36967	  0.06697	 -0.02249	  0.63803	702.14001	 32.60	
 16.995	150.919	  0.53561	 -0.04324	  0.52883	  0.33813	  0.08903	 -0.02271	  0.63598	702.12000	 32.60	
 16.990	156.759	  0.53678	 -0.05458	  0.54442	  0.30326	  0.12076	 -0.02327	  0.63710	702.08002	 32.60	
 17.000	162.596	  0.53804	 -0.05378	  0.55032	  0.26955	  0.14979	 -0.02076	  0.63755	702.26001	 32.60	
 17.009	168.383	  0.54056	 -0.06055	  0.56178	  0.24228	  0.17650	 -0.02314	  0.64316	702.20001	 32.60	
 16.990	174.179	  0.54051	 -0.05922	  0.56096	  0.20818	  0.20975	 -0.02088	  0.63989	702.21002	 32.60	
 18.709	174.675	  0.52107	 -0.09168	  0.57834	  0.18652	  0.20245	 -0.03108	  0.64413	702.26001	 32.60	
 18.703	169.441	  0.51570	 -0.09403	  0.57818	  0.22116	  0.16436	 -0.02932	  0.64066	702.12000	 32.60	
 18.691	164.085	  0.52106	 -0.08495	  0.57169	  0.25161	  0.14201	 -0.02851	  0.64102	702.02002	 32.60	
 18.706	158.818	  0.52026	 -0.08437	  0.56595	  0.28608	  0.10809	 -0.03004	  0.64252	702.09003	 32.60	
 18.695	153.537	  0.51769	 -0.08210	  0.55543	  0.32068	  0.07720	 -0.03075	  0.64158	702.19000	 32.60	
 18.704	148.255	  0.51416	 -0.07104	  0.53412	  0.34722	  0.05244	 -0.03028	  0.63554	702.21002	 32.60	
 18.698	142.952	  0.51674	 -0.06469	  0.52353	  0.37898	  0.03346	 -0.03181	  0.63962	702.12000	 32.60	
 18.699	137.625	  0.51846	 -0.04828	  0.49914	  0.41417	  0.01019	 -0.03246	  0.64074	702.12000	 32.60	
 18.705	132.343	  0.51871	 -0.03777	  0.47835	  0.44204	 -0.01194	 -0.02998	  0.64190	702.08002	 32.60	
 18.713	127.067	  0.52495	 -0.01695	  0.45388	  0.46907	 -0.02458	 -0.03031	  0.64485	702.09003	 32.60	
 18.700	121.794	  0.51540	  0.00156	  0.42195	  0.48740	 -0.04256	 -0.02973	  0.63618	702.13000	 32.60	
 18.698	116.504	  0.52018	  0.01917	  0.39613	  0.51556	 -0.06010	 -0.02960	  0.64215	702.08002	 32.60	
 18.707	111.165	  0.51882	  0.04539	  0.36286	  0.52845	 -0.06599	 -0.03035	  0.63497	702.12000	 32.60	
 18.690	105.863	  0.52400	  0.06779	  0.33416	  0.55054	 -0.07708	 -0.03142	  0.64342	702.10999	 32.60	
 18.696	100.583	  0.52356	  0.10020	  0.29458	  0.56571	 -0.08568	 -0.03113	  0.64198	702.09998	 32.60	
 18.700	 95.309	  0.52418	  0.12839	  0.26330	  0.57340	 -0.08950	 -0.02923	  0.64181	702.15997	 32.60	
 18.700	 90.000	  0.52087	  0.15214	  0.23560	  0.57713	 -0.09388	 -0.02723	  0.63733	702.08002	 32.60	
 18.700	 84.691	  0.52656	  0.18052	  0.20419	  0.58405	 -0.09570	 -0.02985	  0.64507	702.07001	 32.60	
 18.696	 79.417	  0.51899	  0.21232	  0.16566	  0.58264	 -0.10411	 -0.03098	  0.63997	702.09998	 32.60	
 18.690	 74.137	  0.52101	  0.24664	  0.14021	  0.57446	 -0.09490	 -0.02937	  0.63824	702.14001	 32.60	
 18.707	 68.835	  0.52643	  0.27798	  0.11303	  0.57161	 -0.08975	 -0.02672	  0.64218	702.10999	 32.60	
 18.698	 63.496	  0.52753	  0.31202	  0.08723	  0.55538	 -0.07598	 -0.02442	  0.63862	701.98999	 32.60	
 18.700	 58.206	  0.52808	  0.34770	  0.05697	  0.54362	 -0.07505	 -0.02808	  0.64355	702.15997	 32.60	
 18.713	 52.933	  0.52683	  0.37444	  0.03673	  0.52967	 -0.06587	 -0.02303	  0.64306	702.15002	 32.60	
 18.705	 47.657	  0.52711	  0.40469	  0.01682	  0.50642	 -0.05414	 -0.02236	  0.63771	702.19000	 32.60	
 18.699	 42.375	  0.52749	  0.43591	 -0.00361	  0.48005	 -0.03862	 -0.02062	  0.63567	702.12000	 32.60	
 18.698	 37.048	  0.52827	  0.45972	 -0.02163	  0.46091	 -0.02448	 -0.02216	  0.63910	702.14001	 32.60	
 18.704	 31.745	  0.52636	  0.48479	 -0.03887	  0.42912	 -0.00748	 -0.02039	  0.63763	702.07001	 32.60	
 18.695	 26.463	  0.53355	  0.51312	 -0.05408	  0.40114	  0.01630	 -0.02042	  0.64306	702.09003	 32.60	
 18.706	 21.182	  0.52879	  0.52638	 -0.06380	  0.37120	  0.03578	 -0.01618	  0.63864	702.20001	 32.60	
 18.691	 15.915	  0.52757	  0.54326	 -0.07337	  0.33574	  0.05978	 -0.01513	  0.63779	702.14001	 32.60	
 18.703	 10.559	  0.53507	  0.56157	 -0.07921	  0.30451	  0.09018	 -0.01618	  0.64472	702.13000	 32.60	
 18.709	  5.325	  0.53006	  0.56439	 -0.08279	  0.27314	  0.11504	 -0.01594	  0.63513	702.17999	 32.60	
 18.700	  0.000	  0.53623	  0.57582	 -0.08700	  0.24275	  0.14747	 -0.01670	  0.64287	702.17999	 32.60	
 18.709	 -5.325	  0.53206	  0.57614	 -0.08943	  0.20807	  0.17550	 -0.01838	  0.63969	702.13000	 32.60	
 18.703	-10.559	  0.53159	  0.57951	 -0.09488	  0.17746	  0.20284	 -0.01864	  0.64187	702.07001	 32.60	
 18.691	-15.915	  0.53263	  0.57014	 -0.08736	  0.14583	  0.24205	 -0.01988	  0.63898	701.97998	 32.60	
 18.706	-21.182	  0.52906	  0.56315	 -0.08393	  0.11650	  0.27209	 -0.01947	  0.63664	702.09998	 32.60	
 18.695	-26.463	  0.53472	  0.55818	 -0.07921	  0.09005	  0.30570	 -0.02354	  0.64383	702.10999	 32.60	
 18.704	-31.745	  0.53353	  0.53870	 -0.06472	  0.06829	  0.33791	 -0.02325	  0.63753	702.15002	 32.60	
 18.698	-37.048	  0.53501	  0.52491	 -0.05659	  0.04292	  0.37185	 -0.02598	  0.64007	702.12000	 32.60	
 18.699	-42.375	  0.53041	  0.50121	 -0.04651	  0.01522	  0.40197	 -0.02693	  0.63919	702.10999	 32.60	
 18.705	-47.657	  0.53128	  0.47543	 -0.02549	  0.00290	  0.42875	 -0.02945	  0.63526	702.15997	 32.60	
 18.713	-52.933	  0.53567	  0.45261	 -0.00968	 -0.01711	  0.46118	 -0.02908	  0.64028	701.96997	 32.60	
 18.700	-58.206	  0.53344	  0.42729	  0.00525	 -0.03551	  0.48509	 -0.03228	  0.64100	702.04999	 32.60	
 18.698	-63.496	  0.53060	  0.39910	  0.02116	 -0.05304	  0.50881	 -0.03481	  0.64319	702.12000	 32.60	
 18.707	-68.835	  0.52919	  0.36316	  0.05173	 -0.06046	  0.52824	 -0.03645	  0.63814	702.08002	 32.60	
 18.690	-74.137	  0.53625	  0.33526	  0.07953	 -0.06834	  0.54722	 -0.03297	  0.64443	702.00000	 32.60	
 18.696	-79.417	  0.53605	  0.30314	  0.09869	 -0.08145	  0.56538	 -0.03313	  0.64913	702.09003	 32.60	
 18.700	-84.691	  0.52862	  0.26782	  0.12911	 -0.07806	  0.56161	 -0.03354	  0.63694	702.04999	 32.60	
 18.700	-90.000	  0.53053	  0.23946	  0.15670	 -0.08301	  0.57092	 -0.03257	  0.63938	701.98999	 32.60	
 18.700	-95.309	  0.52853	  0.20373	  0.18889	 -0.08940	  0.57667	 -0.03358	  0.64308	702.03998	 32.60	
 18.696	-100.583	  0.52494	  0.17164	  0.21799	 -0.08796	  0.57296	 -0.03722	  0.63852	702.03998	 32.60	
 18.690	-105.863	  0.52208	  0.13907	  0.24993	 -0.09151	  0.57454	 -0.03046	  0.64293	702.03003	 32.60	
 18.707	-111.165	  0.52691	  0.11741	  0.28454	 -0.07861	  0.56083	 -0.03084	  0.63940	702.06000	 32.60	
 18.698	-116.504	  0.52595	  0.08659	  0.31817	 -0.07586	  0.55367	 -0.03559	  0.64059	702.03998	 32.50	
 18.700	-121.794	  0.53094	  0.06359	  0.34800	 -0.06255	  0.53952	 -0.03324	  0.64454	702.06000	 32.50	
 18.713	-127.067	  0.52436	  0.03638	  0.38277	 -0.05394	  0.51754	 -0.03094	  0.63833	702.03003	 32.60	
 18.705	-132.343	  0.52184	  0.01258	  0.40843	 -0.04820	  0.50179	 -0.03015	  0.64067	702.06000	 32.50	
 18.699	-137.625	  0.52110	 -0.00583	  0.43908	 -0.02848	  0.46980	 -0.02892	  0.63556	702.06000	 32.50	
 18.698	-142.952	  0.51708	 -0.02291	  0.46263	 -0.01369	  0.44483	 -0.02438	  0.63380	702.03998	 32.50	
 18.704	-148.255	  0.52189	 -0.03882	  0.49222	  0.00611	  0.41944	 -0.02972	  0.63835	702.09998	 32.60	
 18.695	-153.537	  0.51890	 -0.05200	  0.51078	  0.02311	  0.39151	 -0.02702	  0.63785	702.04999	 32.50	
 18.706	-158.818	  0.52180	 -0.06294	  0.53026	  0.04784	  0.36023	 -0.02352	  0.64079	702.15002	 32.60	
 18.691	-164.085	  0.52229	 -0.07135	  0.54529	  0.07154	  0.33266	 -0.02403	  0.64114	702.06000	 32.60	
 18.703	-169.441	  0.52250	 -0.08193	  0.56210	  0.09884	  0.29892	 -0.02810	  0.64267	702.03998	 32.60	
 18.709	-174.675	  0.51942	 -0.08738	  0.57084	  0.12826	  0.25999	 -0.02958	  0.64002	702.02002	 32.50	
 18.700	180.000	  0.51857	 -0.08901	  0.57463	  0.15314	  0.23067	 -0.03133	  0.63884	702.06000	 32.50	
 20.400	180.000	  0.49415	 -0.12605	  0.59013	  0.13313	  0.21945	 -0.03387	  0.63948	702.09998	 32.50	
 20.401	-175.153	  0.49107	 -0.12426	  0.58327	  0.10374	  0.24857	 -0.03288	  0.63753	702.14001	 32.50	
 20.407	-170.264	  0.49585	 -0.11711	  0.57626	  0.07933	  0.28043	 -0.03311	  0.64005	702.09003	 32.50	
 20.410	-165.423	  0.49618	 -0.10679	  0.56063	  0.05270	  0.31659	 -0.03276	  0.63853	702.08002	 32.50	
 20.392	-160.496	  0.49276	 -0.10050	  0.54707	  0.02760	  0.34233	 -0.03114	  0.63677	702.00000	 32.60	
 20.401	-155.705	  0.49512	 -0.08942	  0.52836	  0.00912	  0.37353	 -0.03207	  0.63544	702.10999	 32.50	
 20.405	-150.835	  0.49796	 -0.08036	  0.51117	 -0.01598	  0.40863	 -0.03349	  0.64298	702.06000	 32.60	
 20.397	-145.903	  0.49532	 -0.06923	  0.48677	 -0.04005	  0.44003	 -0.03164	  0.64114	702.13000	 32.50	
 20.392	-141.062	  0.49513	 -0.04889	  0.45714	 -0.05411	  0.46583	 -0.03410	  0.63741	702.06000	 32.60	
 20.396	-136.227	  0.49758	 -0.03091	  0.43312	 -0.06724	  0.48839	 -0.03604	  0.63748	702.14001	 32.60	
 20.408	-131.372	  0.49537	 -0.00973	  0.39939	 -0.07908	  0.50969	 -0.03771	  0.63511	702.00000	 32.50	
 20.410	-126.511	  0.49628	  0.00706	  0.37418	 -0.09380	  0.53015	 -0.03561	  0.63785	702.03003	 32.60	
 20.400	-121.604	  0.49900	  0.02991	  0.34400	 -0.10460	  0.55161	 -0.03547	  0.64046	702.03003	 32.60	
 20.403	-116.741	  0.50201	  0.05645	  0.31360	 -0.11440	  0.56843	 -0.03981	  0.64306	702.03003	 32.50	
 20.413	-111.900	  0.50727	  0.08867	  0.28313	 -0.11352	  0.57826	 -0.03818	  0.64374	702.06000	 32.50	
 20.398	-107.004	  0.50365	  0.11510	  0.24733	 -0.11793	  0.58315	 -0.04039	  0.64058	702.08002	 32.50	
 20.394	-102.132	  0.50018	  0.14302	  0.21214	 -0.12111	  0.58426	 -0.04021	  0.63753	701.98999	 32.50	
 20.403	-97.332	  0.50125	  0.17494	  0.17901	 -0.12188	  0.58715	 -0.04023	  0.63595	702.03003	 32.60	
 20.392	-92.440	  0.50600	  0.20522	  0.15132	 -0.12433	  0.59161	 -0.03995	  0.64153	701.95001	 32.50	
 20.392	-87.560	  0.50573	  0.24006	  0.12239	 -0.11991	  0.58316	 -0.04117	  0.64049	701.98999	 32.50	
 20.403	-82.668	  0.50475	  0.26973	  0.08844	 -0.12018	  0.57754	 -0.04339	  0.64115	701.98999	 32.60	
 20.394	-77.868	  0.51021	  0.30489	  0.06909	 -0.10627	  0.56344	 -0.04189	  0.63933	701.94000	 32.60	
 20.398	-72.996	  0.51176	  0.33945	  0.04034	 -0.10192	  0.55482	 -0.04164	  0.64485	701.97998	 32.50	
 20.413	-68.100	  0.51087	  0.36640	  0.01821	 -0.09579	  0.53967	 -0.04114	  0.64345	702.02002	 32.50	
 20.403	-63.259	  0.51169	  0.40096	 -0.00662	 -0.08471	  0.51871	 -0.04105	  0.64476	701.96997	 32.50	
 20.400	-58.396	  0.51019	  0.42964	 -0.02922	 -0.07410	  0.49653	 -0.03909	  0.64358	702.03003	 32.50	
 20.410	-53.489	  0.51311	  0.45807	 -0.04082	 -0.05330	  0.46998	 -0.03761	  0.64301	702.15997	 32.60	
 20.408	-48.628	  0.51121	  0.47818	 -0.05619	 -0.03669	  0.44244	 -0.03833	  0.63782	702.01001	 32.60	
 20.396	-43.773	  0.51129	  0.50653	 -0.07594	 -0.01975	  0.41197	 -0.03412	  0.64348	701.96997	 32.50	
 20.392	-38.938	  0.50877	  0.52413	 -0.08684	  0.00057	  0.38196	 -0.03525	  0.63782	701.89001	 32.50	
 20.397	-34.097	  0.50845	  0.54215	 -0.09701	  0.02776	  0.34453	 -0.03511	  0.63499	701.96002	 32.50	
 20.405	-29.165	  0.51826	  0.56524	 -0.10859	  0.05288	  0.31658	 -0.03433	  0.64524	701.96997	 32.50	
 20.401	-24.295	  0.51166	  0.57755	 -0.12076	  0.07592	  0.28093	 -0.02988	  0.64375	701.97998	 32.50	
 20.392	-19.504	  0.51502	  0.58431	 -0.11983	  0.10042	  0.25539	 -0.02797	  0.64354	702.02002	 32.50	
 20.410	-14.577	  0.50922	  0.58713	 -0.12553	  0.13167	  0.21680	 -0.02806	  0.63711	701.96997	 32.50	
 20.407	 -9.736	  0.50792	  0.59411	 -0.13380	  0.16067	  0.18218	 -0.02570	  0.63959	701.95001	 32.50	
 20.401	 -4.847	  0.50570	  0.58828	 -0.12754	  0.18864	  0.15516	 -0.02372	  0.63346	702.02002	 32.50	
 20.400	  0.000	  0.50985	  0.58639	 -0.12218	  0.22487	  0.12392	 -0.02732	  0.63684	701.98999	 32.50	
 20.401	  4.847	  0.51687	  0.59170	 -0.12224	  0.25606	  0.10188	 -0.02497	  0.64753	702.03003	 32.50	
 20.407	  9.736	  0.51297	  0.57872	 -0.11908	  0.28829	  0.07097	 -0.02954	  0.64416	702.28003	 32.50	
 20.410	 14.577	  0.50855	  0.56510	 -0.11582	  0.32567	  0.03508	 -0.02846	  0.64419	702.00000	 32.50	
 20.392	 19.504	  0.50550	  0.54758	 -0.10786	  0.35618	  0.01246	 -0.02724	  0.63990	702.59998	 32.50	
 20.401	 24.295	  0.50364	  0.52997	 -0.09588	  0.38138	 -0.00706	 -0.02462	  0.63773	702.15997	 32.50	
 20.405	 29.165	  0.50622	  0.50887	 -0.08245	  0.41725	 -0.02875	 -0.02697	  0.64106	702.01001	 32.50	
 20.397	 34.097	  0.50360	  0.48323	 -0.06803	  0.44453	 -0.04927	 -0.02752	  0.63897	702.56000	 32.50	
 20.392	 38.938	  0.50561	  0.45949	 -0.05078	  0.47568	 -0.06647	 -0.02971	  0.64120	702.20001	 32.60	
 20.396	 43.773	  0.50435	  0.43171	 -0.03728	  0.50098	 -0.08354	 -0.03254	  0.64227	702.28998	 32.60	
 20.408	 48.628	  0.50317	  0.40040	 -0.01012	  0.51893	 -0.09163	 -0.03259	  0.63589	701.96002	 32.50	
 20.410	 53.489	  0.50164	  0.37078	  0.00541	  0.54072	 -0.10893	 -0.03243	  0.64022	702.01001	 32.50	
 20.400	 58.396	  0.50005	  0.34128	  0.02598	  0.55737	 -0.11759	 -0.03383	  0.64184	702.01001	 32.50	
 20.403	 63.259	  0.49887	  0.30612	  0.05740	  0.56721	 -0.12117	 -0.03100	  0.63532	701.89001	 32.60	
 20.413	 68.100	  0.50524	  0.28019	  0.08406	  0.58275	 -0.12558	 -0.03413	  0.64330	702.69000	 32.50	
 20.398	 72.996	  0.50530	  0.24313	  0.11588	  0.59198	 -0.12944	 -0.03205	  0.64367	702.28998	 32.50	
 20.394	 77.868	  0.49571	  0.20644	  0.13915	  0.59352	 -0.14052	 -0.03618	  0.63626	702.46997	 32.50	
 20.403	 82.668	  0.50198	  0.17884	  0.17458	  0.59401	 -0.13159	 -0.03432	  0.63921	701.96002	 32.50	
 20.392	 87.560	  0.50046	  0.14928	  0.20328	  0.59818	 -0.13588	 -0.03295	  0.64193	701.85999	 32.50	
 20.392	 92.440	  0.49952	  0.11689	  0.23792	  0.58955	 -0.13205	 -0.03606	  0.63820	702.60999	 32.50	
 20.403	 97.332	  0.49550	  0.08640	  0.26527	  0.58554	 -0.13214	 -0.03583	  0.63987	702.38000	 32.50	
 20.394	102.132	  0.50289	  0.06234	  0.30407	  0.57767	 -0.12235	 -0.03662	  0.64449	702.71997	 32.50	
 20.398	107.004	  0.49976	  0.03609	  0.33573	  0.56146	 -0.11570	 -0.03461	  0.64288	701.90997	 32.50	
 20.413	111.900	  0.49618	  0.00827	  0.37029	  0.54539	 -0.11114	 -0.03507	  0.64408	701.92999	 32.50	
 20.403	116.741	  0.49898	 -0.00822	  0.40010	  0.52012	 -0.08791	 -0.03377	  0.63843	701.85999	 32.50	
 20.400	121.604	  0.49724	 -0.03159	  0.42991	  0.50311	 -0.08221	 -0.03593	  0.64362	702.44000	 32.50	
 20.410	126.511	  0.49620	 -0.04541	  0.45335	  0.47275	 -0.05944	 -0.03512	  0.63655	702.57001	 32.50	
 20.408	131.372	  0.49438	 -0.05762	  0.47523	  0.44518	 -0.04338	 -0.03687	  0.63331	701.92999	 32.50	
 20.396	136.227	  0.49585	 -0.07559	  0.50437	  0.41975	 -0.02860	 -0.03326	  0.63948	702.47998	 32.50	
 20.392	141.062	  0.49652	 -0.08743	  0.52359	  0.38879	 -0.00297	 -0.03441	  0.63897	702.73999	 32.50	
 20.397	145.903	  0.49377	 -0.09936	  0.54496	  0.36042	  0.01100	 -0.03316	  0.63845	701.97998	 32.50	
 20.405	150.835	  0.49014	 -0.10663	  0.55231	  0.32614	  0.03797	 -0.03736	  0.63243	701.96997	 32.50	
 20.401	155.705	  0.49581	 -0.11411	  0.57375	  0.29713	  0.06366	 -0.03719	  0.64036	702.57001	 32.50	
 20.392	160.496	  0.49164	 -0.12297	  0.58483	  0.25880	  0.09180	 -0.03272	  0.63883	702.29999	 32.50	
 20.410	165.423	  0.49594	 -0.12033	  0.58840	  0.22970	  0.12303	 -0.03571	  0.63869	701.96002	 32.60	
 20.407	170.264	  0.49525	 -0.12251	  0.59023	  0.19897	  0.15085	 -0.03249	  0.63722	702.70001	 32.60	
 20.401	175.153	  0.49651	 -0.12503	  0.59397	  0.17027	  0.18058	 -0.03319	  0.63886	702.62000	 32.50	
  0.141	 45.000	  0.63985	  0.28719	  0.29160	  0.29360	  0.27613	  0.04835	  0.63884	702.75000	 32.60	
  4.001	128.691	  0.63609	  0.22964	  0.34178	  0.34090	  0.22454	  0.03924	  0.64035	702.65997	 32.60	
  4.002	 76.995	  0.63442	  0.28644	  0.27688	  0.36508	  0.20145	  0.04004	  0.63694	702.50000	 32.50	
  4.002	 25.892	  0.63885	  0.35015	  0.22412	  0.32936	  0.23274	  0.04352	  0.64286	702.79999	 32.60	
  4.002	-25.892	  0.64160	  0.36091	  0.21682	  0.26093	  0.30118	  0.04395	  0.64617	702.70001	 32.60	
  4.002	-76.995	  0.64064	  0.31171	  0.25971	  0.21853	  0.35239	  0.04191	  0.64410	702.59998	 32.60	
  4.001	-128.691	  0.63667	  0.24224	  0.32578	  0.22503	  0.34524	  0.04195	  0.63873	702.59998	 32.60	
  4.000	180.000	  0.63826	  0.21800	  0.36049	  0.27679	  0.28564	  0.04011	  0.64348	702.66998	 32.60	
  8.000	180.000	  0.61965	  0.12780	  0.43622	  0.24966	  0.28222	  0.02550	  0.63978	702.59003	 32.60	
  7.991	-152.370	  0.62393	  0.15146	  0.40821	  0.18638	  0.35698	  0.02485	  0.64416	701.91998	 32.60	
  7.997	-124.550	  0.62328	  0.19672	  0.34728	  0.14388	  0.41192	  0.02671	  0.64182	702.35999	 32.60	
  8.006	-96.837	  0.62623	  0.26958	  0.27141	  0.13047	  0.42904	  0.02628	  0.64181	701.91998	 32.60	
  7.988	-69.228	  0.63033	  0.34377	  0.20646	  0.14703	  0.40997	  0.02766	  0.64559	702.71002	 32.60	
  7.997	-41.563	  0.62086	  0.39984	  0.15180	  0.18192	  0.35393	  0.02902	  0.63638	702.71002	 32.60	
  8.008	-13.821	  0.62761	  0.43494	  0.12873	  0.25033	  0.28331	  0.03222	  0.64345	702.71997	 32.60	
  8.008	 13.821	  0.62115	  0.42311	  0.13057	  0.32671	  0.20411	  0.03318	  0.63732	702.67999	 32.60	
  7.997	 41.563	  0.62074	  0.37248	  0.17293	  0.39523	  0.14741	  0.03089	  0.63774	702.62000	 32.60	
  7.988	 69.228	  0.61574	  0.30680	  0.22792	  0.42732	  0.11827	  0.02774	  0.63471	702.66998	 32.60	
  8.006	 96.837	  0.62068	  0.23210	  0.30464	  0.43029	  0.12189	  0.02611	  0.63861	702.57001	 32.60	
  7.997	124.550	  0.62162	  0.16482	  0.38085	  0.39443	  0.15172	  0.02429	  0.64215	701.96997	 32.60	
  7.991	152.370	  0.61797	  0.13344	  0.42188	  0.32489	  0.20877	  0.02449	  0.63765	702.72998	 32.60	
 12.009	161.059	  0.59346	  0.04759	  0.49269	  0.29803	  0.19116	  0.00256	  0.64145	702.71002	 32.60	
 12.013	142.081	  0.59412	  0.06555	  0.46289	  0.37528	  0.12427	  0.00343	  0.64274	702.66998	 32.60	
 12.006	123.113	  0.59370	  0.10515	  0.40802	  0.43814	  0.07774	  0.00309	  0.64059	702.62000	 32.60	
 12.007	104.200	  0.58954	  0.15897	  0.33569	  0.48264	  0.04165	  0.00521	  0.63729	702.01001	 32.60	
 11.989	 85.301	  0.59059	  0.23395	  0.25351	  0.49984	  0.03007	  0.00715	  0.63549	702.53998	 32.60	
 12.013	 66.294	  0.59290	  0.31315	  0.18100	  0.48751	  0.03856	  0.01059	  0.63639	701.89001	 32.60	
 12.012	 47.388	  0.59976	  0.38343	  0.12781	  0.45201	  0.06602	  0.01170	  0.64086	702.65997	 32.60	
 11.990	 28.440	  0.59794	  0.44389	  0.07845	  0.39077	  0.11115	  0.01468	  0.63936	702.64001	 32.60	
 11.991	  9.464	  0.60130	  0.48283	  0.05450	  0.31814	  0.17375	  0.01426	  0.63922	702.34003	 32.60	
 11.991	 -9.464	  0.60158	  0.49902	  0.04106	  0.23526	  0.25152	  0.01558	  0.64404	702.65997	 32.60	
 11.990	-28.440	  0.60644	  0.47784	  0.05955	  0.16879	  0.33349	  0.01177	  0.64466	702.17999	 32.60	
 12.012	-47.388	  0.60022	  0.43297	  0.08857	  0.11126	  0.39797	  0.00999	  0.63963	702.20001	 32.60	
 12.013	-66.294	  0.60249	  0.36937	  0.14085	  0.06994	  0.45536	  0.00712	  0.64122	701.76001	 32.60	
 11.989	-85.301	  0.60042	  0.29231	  0.20672	  0.05036	  0.48479	  0.00391	  0.64047	702.60999	 32.60	
 12.007	-104.200	  0.59832	  0.21768	  0.28163	  0.04876	  0.48698	  0.00511	  0.64035	701.98999	 32.60	
 12.006	-123.113	  0.59808	  0.14662	  0.35988	  0.06246	  0.46660	  0.00486	  0.64199	702.60999	 32.60	
 12.013	-142.081	  0.59118	  0.09724	  0.42204	  0.09882	  0.40870	  0.00571	  0.63611	702.13000	 32.60	
 12.009	-161.059	  0.59543	  0.05953	  0.47383	  0.15246	  0.34511	  0.00583	  0.64124	701.81000	 32.60	
 16.000	180.000	  0.55312	 -0.03962	  0.55042	  0.18431	  0.24716	 -0.01569	  0.64043	702.62000	 32.60	
 15.990	-165.604	  0.55239	 -0.02681	  0.52660	  0.11949	  0.32100	 -0.01436	  0.63758	702.54999	 32.60	
 16.002	-151.165	  0.55305	  0.00204	  0.48402	  0.05798	  0.39773	 -0.01399	  0.63846	702.71002	 32.60	
 16.002	-136.836	  0.55569	  0.04438	  0.42550	  0.01403	  0.46240	 -0.01701	  0.64167	702.78998	 32.60	
 15.995	-122.439	  0.55643	  0.09550	  0.35766	 -0.01429	  0.50873	 -0.01556	  0.63841	702.62000	 32.60	
 15.993	-107.966	  0.55539	  0.15929	  0.27854	 -0.03256	  0.53759	 -0.01939	  0.63775	702.65002	 32.60	
 16.005	-93.629	  0.56371	  0.23684	  0.20652	 -0.03567	  0.54665	 -0.01968	  0.64398	702.70001	 32.60	
 15.992	-79.234	  0.56137	  0.31209	  0.13533	 -0.02484	  0.52580	 -0.01961	  0.64002	702.65002	 32.60	
 16.009	-64.774	  0.56149	  0.38845	  0.07291	 -0.00315	  0.48869	 -0.01642	  0.63948	702.66998	 32.60	
 15.997	-50.364	  0.56216	  0.44978	  0.02824	  0.03844	  0.43011	 -0.01642	  0.63562	702.67999	 32.60	
 15.997	-36.045	  0.56011	  0.50148	 -0.00872	  0.08344	  0.36352	 -0.01065	  0.63507	702.65002	 32.60	
 16.000	-21.597	  0.56531	  0.53847	 -0.02940	  0.14435	  0.29240	 -0.00856	  0.64172	702.66998	 32.60	
 16.003	 -7.169	  0.56262	  0.54606	 -0.03588	  0.21925	  0.21014	 -0.00240	  0.63784	702.65002	 32.60	
 16.003	  7.169	  0.56510	  0.53512	 -0.02688	  0.29582	  0.14075	 -0.00208	  0.64125	702.64001	 32.60	
 16.000	 21.597	  0.56416	  0.50505	 -0.00941	  0.37322	  0.07795	 -0.00458	  0.64088	702.58002	 32.60	
 15.997	 36.045	  0.56081	  0.45433	  0.02209	  0.44123	  0.02438	 -0.00819	  0.63898	702.59998	 32.60	
 15.997	 50.364	  0.55507	  0.38598	  0.06927	  0.49253	 -0.01371	 -0.01141	  0.63619	702.66998	 32.60	
 16.009	 64.774	  0.55782	  0.31187	  0.12810	  0.53489	 -0.03743	 -0.01174	  0.64017	702.57001	 32.60	
 15.992	 79.234	  0.55114	  0.23380	  0.19679	  0.54538	 -0.04726	 -0.01554	  0.63349	702.56000	 32.60	
 16.005	 93.629	  0.55164	  0.16310	  0.26869	  0.54767	 -0.04810	 -0.01623	  0.63731	702.04999	 32.60	
 15.993	107.966	  0.55048	  0.09783	  0.34730	  0.51861	 -0.02994	 -0.01512	  0.63556	702.58002	 32.60	
 15.995	122.439	  0.55496	  0.03965	  0.42530	  0.47396	  0.00542	 -0.01827	  0.64173	702.54999	 32.60	
 16.002	136.836	  0.55134	  0.00396	  0.47922	  0.40696	  0.04846	 -0.01644	  0.63821	702.56000	 32.60	
 16.002	151.165	  0.54928	 -0.02516	  0.52112	  0.33619	  0.10184	 -0.01520	  0.63717	702.60999	 32.60	
 15.990	165.604	  0.54990	 -0.03709	  0.54539	  0.25923	  0.16886	 -0.01445	  0.63786	702.60999	 32.60	
 20.003	168.362	  0.49739	 -0.11775	  0.58632	  0.21557	  0.13981	 -0.03346	  0.63646	702.47998	 32.60	
 20.008	156.764	  0.49745	 -0.10953	  0.57075	  0.28782	  0.07513	 -0.03088	  0.63852	702.65002	 32.60	
 20.000	145.147	  0.49629	 -0.09107	  0.53707	  0.36588	  0.01039	 -0.03478	  0.63827	702.53003	 32.60	
 19.995	133.545	  0.50228	 -0.05754	  0.48615	  0.43683	 -0.03099	 -0.03451	  0.63776	702.66998	 32.60	
 20.009	121.926	  0.50465	 -0.01975	  0.42892	  0.49655	 -0.06916	 -0.03478	  0.64285	702.66998	 32.60	
 20.005	110.327	  0.50371	  0.02931	  0.35656	  0.54471	 -0.09858	 -0.03255	  0.64046	702.59003	 32.60	
 19.989	 98.733	  0.50376	  0.09157	  0.27932	  0.57587	 -0.11877	 -0.03522	  0.63920	702.58002	 32.60	
 19.999	 87.075	  0.50256	  0.15511	  0.20390	  0.58850	 -0.12719	 -0.03367	  0.63520	702.51001	 32.60	
 19.992	 75.457	  0.50528	  0.22614	  0.13543	  0.58698	 -0.12564	 -0.03062	  0.63628	702.53998	 32.60	
 20.009	 63.844	  0.50841	  0.30732	  0.06359	  0.57042	 -0.11656	 -0.03540	  0.64177	702.48999	 32.60	
 19.989	 52.269	  0.50781	  0.38069	  0.00980	  0.53451	 -0.10011	 -0.03139	  0.64255	702.65002	 32.60	
 19.999	 40.602	  0.50946	  0.44585	 -0.03444	  0.47949	 -0.06478	 -0.02748	  0.63713	702.59003	 32.60	
 20.004	 29.051	  0.51014	  0.50595	 -0.07364	  0.41542	 -0.02400	 -0.02794	  0.63756	702.53003	 32.60	
 20.005	 17.433	  0.51363	  0.55503	 -0.10325	  0.34238	  0.02955	 -0.02321	  0.64509	702.56000	 32.60	
 20.006	  5.780	  0.50646	  0.57436	 -0.11589	  0.26020	  0.09385	 -0.02138	  0.63360	702.59998	 32.60	
 20.006	 -5.780	  0.51726	  0.59047	 -0.11758	  0.19098	  0.16495	 -0.02179	  0.64100	702.53998	 32.60	
 20.005	-17.433	  0.51491	  0.58228	 -0.11628	  0.11976	  0.23881	 -0.02624	  0.63917	702.52002	 32.60	
 20.004	-29.051	  0.51630	  0.55916	 -0.10111	  0.05412	  0.31893	 -0.02863	  0.64019	702.50000	 32.60	
 19.999	-40.602	  0.51299	  0.51594	 -0.07684	  0.00210	  0.38679	 -0.03279	  0.63784	702.57001	 32.60	
 19.989	-52.269	  0.51251	  0.45952	 -0.04106	 -0.03988	  0.45475	 -0.03538	  0.63654	702.53003	 32.60	
 20.009	-63.844	  0.51014	  0.39396	  0.00386	 -0.07232	  0.50729	 -0.03900	  0.63370	702.51001	 32.60	
 19.992	-75.457	  0.51447	  0.32098	  0.06133	 -0.09846	  0.55491	 -0.03882	  0.64068	702.60999	 32.60	
 19.999	-87.075	  0.51200	  0.24921	  0.12328	 -0.11138	  0.57776	 -0.03815	  0.64052	702.57001	 32.60	
 19.989	-98.733	  0.51209	  0.16782	  0.20232	 -0.10873	  0.58120	 -0.03854	  0.63604	702.62000	 32.60	
 20.005	-110.327	  0.51279	  0.10147	  0.27203	 -0.10785	  0.57724	 -0.03859	  0.64565	702.53998	 32.60	
 20.009	-121.926	  0.50395	  0.04042	  0.34303	 -0.09266	  0.54315	 -0.03302	  0.63697	702.58002	 32.60	
 19.995	-133.545	  0.50530	 -0.01076	  0.41827	 -0.06556	  0.49832	 -0.03132	  0.63796	702.57001	 32.60	
 20.000	-145.147	  0.50813	 -0.05474	  0.48528	 -0.02970	  0.44403	 -0.02976	  0.64502	702.50000	 32.60	
 20.008	-156.764	  0.50317	 -0.08379	  0.53294	  0.01774	  0.37020	 -0.02814	  0.64097	702.52002	 32.60	
 20.003	-168.362	  0.49667	 -0.10386	  0.56407	  0.07429	  0.29131	 -0.03117	  0.63226	702.57001	 32.60	
 20.000	180.000	  0.50186	 -0.12354	  0.59405	  0.13796	  0.21854	 -0.03497	  0.64688	702.57001	 32.60	
