FileType=PCF
NHL=14
Date=08/24/17	10:23:39
Facility=APL
Serial=16328-2
Customer=NASA
NP=6
Mach=0.100000
Calibration=1:1
CalPts=490
TstPts=95
PortNumbering=AP Standard
Units=Torr C m/s kg/m^3 deg mm 
Theta[deg]	Phi[deg]	P1[Torr]	P2[Torr]	P3[Torr]	P4[Torr]	P5[Torr]	P6[Torr]	Pt[Torr]	Ps[Abs,Torr]	Ts[C]	
  0.000	  0.000	  4.92535	  2.53931	  2.51655	  2.53589	  2.59317	  0.03710	  4.92344	704.39697	 24.20	
  1.691	128.401	  4.91923	  2.37961	  2.64160	  2.68699	  2.40721	  0.02826	  4.91873	704.46698	 24.20	
  1.692	 77.194	  4.91429	  2.57841	  2.43585	  2.72742	  2.36245	  0.03124	  4.91182	704.41101	 24.20	
  1.699	 26.182	  4.90789	  2.72646	  2.29437	  2.61288	  2.47495	  0.02940	  4.90506	704.55499	 24.20	
  1.699	-26.182	  4.90075	  2.71669	  2.29196	  2.40773	  2.66749	  0.02680	  4.89846	704.50000	 24.20	
  1.692	-77.194	  4.91488	  2.55708	  2.44875	  2.29628	  2.79727	  0.02540	  4.91287	704.59998	 24.20	
  1.691	-128.401	  4.92029	  2.36506	  2.65383	  2.35084	  2.74563	  0.02676	  4.91800	704.44397	 24.20	
  1.700	180.000	  4.91853	  2.30132	  2.73025	  2.51656	  2.58414	  0.02853	  4.91695	704.46698	 24.20	
  3.400	180.000	  4.91939	  2.01420	  2.98607	  2.48691	  2.53935	  0.01116	  4.92536	704.43799	 24.10	
  3.388	-152.325	  4.92588	  2.06201	  2.93205	  2.26253	  2.78075	  0.01320	  4.93081	704.53101	 24.20	
  3.397	-124.529	  4.92013	  2.20539	  2.76020	  2.09461	  2.96821	  0.00911	  4.92524	704.47803	 24.20	
  3.399	-96.763	  4.91875	  2.41960	  2.53054	  2.01912	  3.05828	  0.00980	  4.92616	704.46100	 24.20	
  3.394	-69.283	  4.93411	  2.66638	  2.30377	  2.04798	  3.03612	  0.00660	  4.94167	704.41602	 24.20	
  3.400	-41.398	  4.92226	  2.87301	  2.11188	  2.16729	  2.88647	  0.00872	  4.92985	704.53198	 24.10	
  3.401	-14.021	  4.91648	  2.99134	  2.00758	  2.35901	  2.66955	  0.01144	  4.92219	704.44397	 24.20	
  3.401	 14.021	  4.91159	  2.99412	  2.00213	  2.60008	  2.42371	  0.01412	  4.91809	704.50000	 24.10	
  3.400	 41.398	  4.93324	  2.89147	  2.11355	  2.82798	  2.23644	  0.01868	  4.94241	704.48297	 24.10	
  3.394	 69.283	  4.92842	  2.67677	  2.29648	  2.96643	  2.11452	  0.01479	  4.93446	704.54901	 24.10	
  3.399	 96.763	  4.92054	  2.44247	  2.51612	  2.99224	  2.08998	  0.01724	  4.92781	704.43903	 24.10	
  3.397	124.529	  4.91709	  2.22263	  2.74468	  2.90659	  2.15411	  0.01471	  4.92307	704.53400	 24.10	
  3.388	152.325	  4.92905	  2.08157	  2.92291	  2.72865	  2.31877	  0.01649	  4.93386	704.54797	 24.10	
  5.099	161.165	  4.89847	  1.77394	  3.18203	  2.70552	  2.26406	 -0.00316	  4.92385	704.46899	 24.10	
  5.109	142.013	  4.90341	  1.88753	  3.05272	  2.94255	  2.05366	  0.00041	  4.92855	704.40302	 24.10	
  5.095	123.033	  4.89279	  2.06584	  2.84481	  3.10876	  1.90531	  0.00296	  4.92052	704.52399	 24.10	
  5.105	104.191	  4.89441	  2.28597	  2.60706	  3.21861	  1.81527	 -0.00029	  4.92118	704.56299	 24.10	
  5.093	 85.207	  4.90197	  2.53819	  2.35802	  3.24268	  1.80177	  0.00129	  4.93255	704.43799	 24.10	
  5.104	 66.290	  4.91184	  2.79241	  2.13201	  3.18323	  1.86018	  0.00381	  4.94440	704.33698	 24.10	
  5.094	 47.331	  4.90033	  3.00512	  1.92852	  3.02840	  1.97911	 -0.00034	  4.93264	704.46997	 24.10	
  5.089	 28.397	  4.89025	  3.15813	  1.78497	  2.81700	  2.15249	 -0.00212	  4.92270	704.43103	 24.10	
  5.096	  9.576	  4.89672	  3.24801	  1.71430	  2.57484	  2.38843	 -0.00674	  4.92739	704.47601	 24.10	
  5.096	 -9.576	  4.89453	  3.24364	  1.71547	  2.31913	  2.64364	 -0.00675	  4.92717	704.47302	 24.10	
  5.089	-28.397	  4.89752	  3.15410	  1.79454	  2.09536	  2.88721	 -0.00972	  4.93257	704.50702	 24.10	
  5.094	-47.331	  4.89444	  2.98234	  1.93771	  1.90887	  3.09144	 -0.01153	  4.92731	704.65601	 24.10	
  5.104	-66.290	  4.90367	  2.76385	  2.13932	  1.78222	  3.24971	 -0.01341	  4.93763	704.54498	 24.10	
  5.093	-85.207	  4.90393	  2.51536	  2.37841	  1.72759	  3.31200	 -0.01084	  4.93285	704.45300	 24.10	
  5.105	-104.191	  4.89092	  2.25523	  2.62675	  1.74222	  3.28156	 -0.01057	  4.91822	704.57898	 24.10	
  5.095	-123.033	  4.88710	  2.03355	  2.86406	  1.83592	  3.16742	 -0.00622	  4.91798	704.41302	 24.10	
  5.109	-142.013	  4.90471	  1.86376	  3.06997	  2.00090	  2.99503	 -0.00491	  4.93425	704.43103	 24.10	
  5.099	-161.165	  4.89817	  1.76017	  3.19057	  2.21091	  2.75942	 -0.00446	  4.92525	704.48700	 24.00	
  5.100	180.000	  4.89950	  1.73210	  3.23249	  2.45559	  2.51156	 -0.00349	  4.92742	704.46100	 24.10	
  6.800	180.000	  4.85894	  1.43134	  3.46793	  2.41118	  2.46356	 -0.02742	  4.92532	704.49200	 24.10	
  6.796	-166.229	  4.86225	  1.45475	  3.44291	  2.17053	  2.71249	 -0.03061	  4.93335	704.44702	 24.00	
  6.808	-152.311	  4.86211	  1.52422	  3.35228	  1.94345	  2.95215	 -0.03671	  4.93421	704.57898	 24.10	
  6.795	-138.383	  4.86418	  1.65371	  3.20187	  1.75023	  3.17168	 -0.03484	  4.93723	704.48999	 24.00	
  6.792	-124.591	  4.85836	  1.82368	  3.00215	  1.59230	  3.34631	 -0.03790	  4.93226	704.58801	 24.00	
  6.787	-110.754	  4.86808	  2.03886	  2.77940	  1.49383	  3.47719	 -0.04356	  4.94246	704.51801	 24.00	
  6.800	-96.985	  4.85482	  2.26714	  2.52519	  1.43322	  3.53309	 -0.04686	  4.92995	704.46198	 24.00	
  6.800	-83.015	  4.84760	  2.51898	  2.26735	  1.43162	  3.52900	 -0.04616	  4.92421	704.49799	 24.00	
  6.787	-69.246	  4.86099	  2.77500	  2.03803	  1.48497	  3.47830	 -0.04709	  4.93556	704.56000	 24.00	
  6.792	-55.409	  4.85517	  3.00472	  1.82337	  1.58591	  3.35217	 -0.04608	  4.93124	704.58698	 24.00	
  6.795	-41.617	  4.85196	  3.20410	  1.64612	  1.73606	  3.17558	 -0.04081	  4.92991	704.48602	 24.00	
  6.808	-27.689	  4.85478	  3.36392	  1.51148	  1.93088	  2.95769	 -0.04180	  4.93134	704.54901	 24.00	
  6.796	-13.771	  4.85260	  3.45954	  1.43020	  2.15388	  2.71577	 -0.04157	  4.93049	704.36798	 24.00	
  6.800	  0.000	  4.87737	  3.51385	  1.40759	  2.40883	  2.47888	 -0.03915	  4.95546	704.46899	 24.00	
  6.796	 13.771	  4.85978	  3.47361	  1.42569	  2.64879	  2.22518	 -0.03475	  4.93747	704.57098	 24.00	
  6.808	 27.689	  4.85901	  3.38141	  1.50333	  2.89113	  2.00098	 -0.03704	  4.93713	704.66602	 24.00	
  6.795	 41.617	  4.87703	  3.24298	  1.63965	  3.11667	  1.82007	 -0.02986	  4.95352	704.52301	 24.00	
  6.792	 55.409	  4.86185	  3.03906	  1.80604	  3.28335	  1.66624	 -0.02558	  4.93800	704.55499	 24.00	
  6.787	 69.246	  4.85995	  2.80740	  2.01096	  3.40836	  1.55985	 -0.02738	  4.93332	704.45300	 24.00	
  6.800	 83.015	  4.85603	  2.55999	  2.24243	  3.47301	  1.50538	 -0.02914	  4.93013	704.51501	 24.00	
  6.800	 96.985	  4.87124	  2.31796	  2.49878	  3.48258	  1.51191	 -0.02725	  4.94477	704.57898	 24.00	
  6.787	110.754	  4.87572	  2.08226	  2.74930	  3.42074	  1.56581	 -0.03308	  4.94498	704.46899	 24.00	
  6.792	124.591	  4.87156	  1.86888	  2.97793	  3.29592	  1.66415	 -0.03166	  4.93778	704.36798	 23.90	
  6.795	138.383	  4.88390	  1.69519	  3.18785	  3.13056	  1.81795	 -0.02829	  4.95044	704.47498	 24.00	
  6.808	152.311	  4.86549	  1.55013	  3.33707	  2.90609	  1.99845	 -0.03162	  4.93299	704.39697	 23.90	
  6.796	166.229	  4.85946	  1.46835	  3.43073	  2.66248	  2.21996	 -0.03315	  4.92745	704.52100	 23.90	
  8.491	168.704	  4.80938	  1.16019	  3.66386	  2.62042	  2.15325	 -0.06816	  4.93952	704.51398	 23.90	
  8.502	157.493	  4.81062	  1.22951	  3.58032	  2.86522	  1.92311	 -0.07005	  4.93780	704.39099	 23.90	
  8.494	146.194	  4.80485	  1.34571	  3.43957	  3.09615	  1.71384	 -0.06022	  4.92862	704.32599	 23.90	
  8.495	135.039	  4.79501	  1.49204	  3.25723	  3.29867	  1.52835	 -0.06100	  4.92161	704.44702	 23.90	
  8.487	123.723	  4.79497	  1.67734	  3.04318	  3.47103	  1.38245	 -0.06842	  4.92154	704.46100	 23.90	
  8.492	112.575	  4.80882	  1.89568	  2.81758	  3.60669	  1.28560	 -0.07215	  4.93716	704.48700	 23.90	
  8.510	101.220	  4.80610	  2.13223	  2.56141	  3.68274	  1.21888	 -0.06670	  4.93565	704.53101	 23.90	
  8.500	 90.000	  4.79885	  2.38289	  2.30257	  3.70210	  1.20022	 -0.06245	  4.93287	704.46198	 23.90	
  8.510	 78.780	  4.80040	  2.64074	  2.05161	  3.67579	  1.21985	 -0.06526	  4.93754	704.49298	 23.90	
  8.492	 67.425	  4.80257	  2.89323	  1.81837	  3.59610	  1.28622	 -0.06491	  4.93884	704.44501	 23.90	
  8.487	 56.277	  4.79709	  3.12254	  1.61087	  3.46315	  1.39050	 -0.05942	  4.93633	704.45203	 23.90	
  8.495	 44.961	  4.78422	  3.32285	  1.42337	  3.28096	  1.53029	 -0.06036	  4.92545	704.53198	 23.90	
  8.494	 33.806	  4.80429	  3.50318	  1.28684	  3.08533	  1.71757	 -0.06907	  4.94442	704.47302	 23.80	
  8.502	 22.507	  4.79530	  3.62328	  1.17864	  2.84526	  1.92352	 -0.07575	  4.93666	704.40698	 23.80	
  8.491	 11.296	  4.78827	  3.69282	  1.11538	  2.59287	  2.15489	 -0.07133	  4.93055	704.50897	 23.80	
  8.500	  0.000	  4.79086	  3.71548	  1.09964	  2.33571	  2.40950	 -0.07646	  4.93398	704.45502	 23.80	
  8.491	-11.296	  4.79090	  3.68619	  1.12118	  2.08370	  2.66612	 -0.07860	  4.93273	704.44202	 23.80	
  8.502	-22.507	  4.78096	  3.59741	  1.18651	  1.84990	  2.90763	 -0.07939	  4.92080	704.46899	 23.80	
  8.494	-33.806	  4.78564	  3.46403	  1.30123	  1.63674	  3.14678	 -0.07595	  4.92684	704.50098	 23.80	
  8.495	-44.961	  4.79239	  3.29610	  1.44680	  1.45358	  3.36120	 -0.08090	  4.93363	704.37402	 23.80	
  8.487	-56.277	  4.78240	  3.07474	  1.63231	  1.31133	  3.52077	 -0.08851	  4.92107	704.40802	 23.80	
  8.492	-67.425	  4.78496	  2.84251	  1.84507	  1.20824	  3.64661	 -0.08950	  4.92317	704.45801	 23.80	
  8.510	-78.780	  4.78458	  2.58760	  2.08150	  1.13557	  3.73030	 -0.08781	  4.92392	704.51398	 23.80	
  8.500	-90.000	  4.79156	  2.32997	  2.34010	  1.12196	  3.75639	 -0.08909	  4.92799	704.52600	 23.80	
  8.510	-101.220	  4.79719	  2.08288	  2.59808	  1.14264	  3.73627	 -0.08581	  4.93586	704.67499	 23.80	
  8.492	-112.575	  4.78665	  1.84007	  2.84405	  1.21349	  3.64135	 -0.08256	  4.91831	704.57599	 23.80	
  8.487	-123.723	  4.79433	  1.63096	  3.08222	  1.32353	  3.51632	 -0.07416	  4.92767	704.41101	 23.80	
  8.495	-135.039	  4.79577	  1.44926	  3.29000	  1.46626	  3.35003	 -0.06675	  4.92536	704.45502	 23.80	
  8.494	-146.194	  4.80060	  1.31115	  3.46094	  1.65172	  3.14902	 -0.07096	  4.93242	704.45001	 23.80	
  8.502	-157.493	  4.80247	  1.20941	  3.59222	  1.86905	  2.91169	 -0.07483	  4.93554	704.47302	 23.80	
  8.491	-168.704	  4.80540	  1.15151	  3.66762	  2.10565	  2.66346	 -0.06744	  4.93532	704.47601	 23.80	
  8.500	180.000	  4.79123	  1.13110	  3.68136	  2.34921	  2.40118	 -0.06447	  4.92028	704.48102	 23.80	
 10.200	180.000	  4.71740	  0.82511	  3.89403	  2.28536	  2.32975	 -0.10243	  4.92767	704.46997	 23.80	
 10.191	-170.497	  4.72040	  0.84069	  3.87418	  2.03261	  2.58828	 -0.10430	  4.92971	704.43402	 23.80	
 10.210	-161.034	  4.71874	  0.88650	  3.81180	  1.78897	  2.84316	 -0.11009	  4.93217	704.38202	 23.80	
 10.194	-151.526	  4.73227	  0.97800	  3.70967	  1.56603	  3.09976	 -0.11147	  4.94509	704.54498	 23.80	
 10.190	-142.105	  4.72554	  1.09484	  3.55607	  1.36350	  3.31921	 -0.10676	  4.93605	704.51703	 23.80	
 10.215	-132.646	  4.71231	  1.24406	  3.36578	  1.18586	  3.51166	 -0.10084	  4.92803	704.40002	 23.70	
 10.203	-123.092	  4.72498	  1.43747	  3.15559	  1.04551	  3.69277	 -0.10644	  4.94100	704.57599	 23.70	
 10.192	-113.678	  4.70521	  1.64226	  2.90555	  0.92982	  3.80925	 -0.11995	  4.92046	704.43597	 23.70	
 10.208	-104.249	  4.70420	  1.87285	  2.65855	  0.85447	  3.90234	 -0.12598	  4.92529	704.56299	 23.70	
 10.210	-94.801	  4.71460	  2.12676	  2.40406	  0.81646	  3.96058	 -0.13115	  4.93658	704.59302	 23.70	
 10.210	-85.199	  4.69900	  2.38441	  2.13312	  0.81327	  3.94941	 -0.13035	  4.91943	704.51501	 23.70	
 10.208	-75.751	  4.70064	  2.63854	  1.88846	  0.84947	  3.90493	 -0.13315	  4.92232	704.42999	 23.70	
 10.192	-66.322	  4.70485	  2.89851	  1.65625	  0.92455	  3.82085	 -0.13109	  4.92857	704.44397	 23.70	
 10.203	-56.908	  4.70159	  3.13696	  1.44050	  1.03137	  3.68723	 -0.12656	  4.92327	704.41101	 23.70	
 10.215	-47.354	  4.68674	  3.34977	  1.24300	  1.16918	  3.50835	 -0.12131	  4.90768	704.45502	 23.70	
 10.190	-37.895	  4.71293	  3.55285	  1.09590	  1.34784	  3.32612	 -0.11446	  4.93379	704.46600	 23.70	
 10.194	-28.474	  4.69814	  3.69619	  0.96387	  1.53973	  3.09135	 -0.11584	  4.92092	704.48297	 23.70	
 10.210	-18.966	  4.70546	  3.82078	  0.86950	  1.76701	  2.85080	 -0.11782	  4.93026	704.44702	 23.70	
 10.191	 -9.503	  4.69928	  3.88577	  0.81351	  2.00464	  2.59203	 -0.11754	  4.92454	704.57898	 23.70	
 10.200	  0.000	  4.70494	  3.91997	  0.79033	  2.25735	  2.33850	 -0.11747	  4.92871	704.41302	 23.70	
 10.191	  9.503	  4.70465	  3.89939	  0.80866	  2.52020	  2.08156	 -0.11106	  4.92813	704.57703	 23.70	
 10.210	 18.966	  4.69648	  3.83207	  0.85435	  2.77036	  1.83650	 -0.11430	  4.92225	704.48297	 23.70	
 10.194	 28.474	  4.68256	  3.71142	  0.94203	  3.00686	  1.61281	 -0.11314	  4.90681	704.46698	 23.70	
 10.190	 37.895	  4.68116	  3.56608	  1.06150	  3.23236	  1.41248	 -0.10430	  4.90283	704.50598	 23.70	
 10.215	 47.354	  4.68370	  3.38506	  1.21397	  3.43980	  1.24164	 -0.09795	  4.90863	704.42798	 23.70	
 10.203	 56.908	  4.69882	  3.18179	  1.40163	  3.61474	  1.11091	 -0.09140	  4.92299	704.55402	 23.70	
 10.192	 66.322	  4.69204	  2.94459	  1.61068	  3.73881	  1.00722	 -0.09458	  4.91110	704.31201	 23.70	
 10.208	 75.751	  4.69177	  2.69589	  1.83631	  3.83310	  0.92979	 -0.10330	  4.91093	704.41101	 23.70	
 10.210	 85.199	  4.69814	  2.44214	  2.08347	  3.88662	  0.89295	 -0.10061	  4.91670	704.43903	 23.70	
 10.210	 94.801	  4.70275	  2.17752	  2.34732	  3.89244	  0.88903	 -0.10487	  4.91613	704.48999	 23.70	
 10.208	104.249	  4.69103	  1.92289	  2.60111	  3.83537	  0.92882	 -0.10798	  4.90383	704.50598	 23.70	
 10.192	113.678	  4.71731	  1.70209	  2.86566	  3.76521	  1.00635	 -0.11191	  4.92304	704.48401	 23.70	
 10.203	123.092	  4.70244	  1.48120	  3.09613	  3.62884	  1.10225	 -0.10852	  4.90867	704.57098	 23.70	
 10.215	132.646	  4.71252	  1.29166	  3.32302	  3.47239	  1.23825	 -0.10049	  4.92132	704.52100	 23.70	
 10.190	142.105	  4.70723	  1.13056	  3.50919	  3.26308	  1.41077	 -0.09376	  4.91056	704.46899	 23.70	
 10.194	151.526	  4.71268	  1.00341	  3.66834	  3.04315	  1.61000	 -0.09805	  4.91847	704.48102	 23.70	
 10.210	161.034	  4.71386	  0.90632	  3.78778	  2.79831	  1.83073	 -0.10512	  4.91913	704.59900	 23.70	
 10.191	170.497	  4.69471	  0.84177	  3.84710	  2.53716	  2.05954	 -0.10537	  4.90153	704.61298	 23.70	
 11.899	171.783	  4.60255	  0.54031	  4.03994	  2.45977	  1.97977	 -0.14372	  4.90657	704.62097	 23.70	
 11.890	163.610	  4.61652	  0.59396	  3.98820	  2.72369	  1.74367	 -0.14063	  4.92098	704.67499	 23.70	
 11.889	155.445	  4.60641	  0.67200	  3.87608	  2.96625	  1.51352	 -0.13640	  4.91004	704.45203	 23.70	
 11.909	147.299	  4.61400	  0.78456	  3.74356	  3.20594	  1.30634	 -0.13492	  4.91666	704.55701	 23.70	
 11.902	139.148	  4.60673	  0.92025	  3.56774	  3.42461	  1.11510	 -0.13140	  4.90999	704.72803	 23.70	
 11.894	130.867	  4.60555	  1.09191	  3.36592	  3.61491	  0.95695	 -0.14122	  4.90827	704.59998	 23.60	
 11.897	122.732	  4.61916	  1.28283	  3.15263	  3.78932	  0.82486	 -0.15183	  4.92389	704.47498	 23.70	
 11.903	114.597	  4.60415	  1.49535	  2.90030	  3.90895	  0.72006	 -0.15168	  4.91011	704.54498	 23.70	
 11.893	106.346	  4.60781	  1.73147	  2.64745	  4.00916	  0.64368	 -0.15465	  4.91534	704.39600	 23.60	
 11.892	 98.155	  4.61278	  1.98124	  2.39136	  4.07201	  0.60023	 -0.14770	  4.92422	704.57599	 23.60	
 11.900	 90.000	  4.61040	  2.23592	  2.13030	  4.08839	  0.58668	 -0.14453	  4.92633	704.57703	 23.70	
 11.892	 81.845	  4.60109	  2.49110	  1.87404	  4.05944	  0.60093	 -0.13981	  4.91903	704.52301	 23.60	
 11.893	 73.654	  4.60411	  2.75128	  1.63350	  4.00441	  0.64657	 -0.13663	  4.92359	704.54199	 23.60	
 11.903	 65.403	  4.58524	  2.99148	  1.39794	  3.88611	  0.72437	 -0.13044	  4.90797	704.49500	 23.60	
 11.897	 57.268	  4.59519	  3.23485	  1.19396	  3.76094	  0.83036	 -0.12765	  4.92020	704.51801	 23.60	
 11.894	 49.133	  4.60237	  3.45846	  1.01174	  3.60009	  0.96693	 -0.12706	  4.92732	704.63898	 23.60	
 11.902	 40.852	  4.58192	  3.63654	  0.84551	  3.38975	  1.12200	 -0.13729	  4.90948	704.49200	 23.60	
 11.909	 32.701	  4.58819	  3.80285	  0.71422	  3.17691	  1.30746	 -0.14638	  4.91610	704.61603	 23.60	
 11.889	 24.555	  4.59758	  3.93849	  0.61521	  2.93903	  1.52467	 -0.15150	  4.92487	704.60498	 23.60	
 11.890	 16.390	  4.59517	  4.02713	  0.54243	  2.68957	  1.75051	 -0.15176	  4.92344	704.51703	 23.60	
 11.899	  8.217	  4.59675	  4.08432	  0.50066	  2.43393	  1.99443	 -0.15168	  4.92505	704.50702	 23.60	
 11.900	  0.000	  4.59492	  4.09669	  0.48792	  2.16997	  2.25020	 -0.15085	  4.92089	704.49200	 23.60	
 11.899	 -8.217	  4.58346	  4.06044	  0.50653	  1.91167	  2.50162	 -0.15291	  4.90816	704.44202	 23.60	
 11.890	-16.390	  4.59542	  4.00863	  0.55359	  1.67342	  2.76475	 -0.14994	  4.91774	704.60400	 23.60	
 11.889	-24.555	  4.59337	  3.90630	  0.63611	  1.44560	  3.01352	 -0.15082	  4.91509	704.40802	 23.60	
 11.909	-32.701	  4.58725	  3.76426	  0.74373	  1.23577	  3.24507	 -0.14811	  4.91015	704.57098	 23.60	
 11.902	-40.852	  4.59641	  3.60181	  0.88549	  1.05557	  3.46503	 -0.14880	  4.91357	704.46198	 23.60	
 11.894	-49.133	  4.57278	  3.38478	  1.04501	  0.88304	  3.64801	 -0.15541	  4.89404	704.38501	 23.60	
 11.897	-57.268	  4.58019	  3.16965	  1.23258	  0.74744	  3.81829	 -0.15887	  4.89994	704.59302	 23.60	
 11.903	-65.403	  4.59938	  2.94245	  1.45116	  0.64255	  3.96711	 -0.16500	  4.92197	704.53699	 23.60	
 11.893	-73.654	  4.59634	  2.68302	  1.68576	  0.57106	  4.05652	 -0.16404	  4.91571	704.51801	 23.60	
 11.892	-81.845	  4.59141	  2.42069	  1.92552	  0.52528	  4.10462	 -0.16924	  4.90969	704.50098	 23.60	
 11.900	-90.000	  4.58778	  2.15674	  2.18030	  0.51215	  4.11916	 -0.17041	  4.90402	704.46198	 23.60	
 11.892	-98.155	  4.58518	  1.90340	  2.43668	  0.52868	  4.09306	 -0.16560	  4.90112	704.62799	 23.60	
 11.893	-106.346	  4.59623	  1.66115	  2.69986	  0.57356	  4.04650	 -0.16275	  4.90933	704.58502	 23.60	
 11.903	-114.597	  4.58874	  1.42886	  2.94761	  0.64880	  3.94489	 -0.15306	  4.90354	704.46198	 23.60	
 11.897	-122.732	  4.59785	  1.22200	  3.18915	  0.75929	  3.81785	 -0.14160	  4.91045	704.43597	 23.60	
 11.894	-130.867	  4.60493	  1.04102	  3.41073	  0.89923	  3.65681	 -0.13313	  4.91574	704.44202	 23.60	
 11.902	-139.148	  4.58927	  0.87617	  3.59577	  1.06588	  3.44705	 -0.13659	  4.89739	704.30103	 23.60	
 11.909	-147.299	  4.60272	  0.74336	  3.77149	  1.25577	  3.23888	 -0.14544	  4.91386	704.50598	 23.60	
 11.889	-155.445	  4.60392	  0.64540	  3.89860	  1.46761	  3.00268	 -0.14768	  4.91220	704.60400	 23.60	
 11.890	-163.610	  4.60330	  0.57320	  3.99275	  1.69977	  2.75151	 -0.14968	  4.91173	704.63599	 23.60	
 11.899	-171.783	  4.59608	  0.52984	  4.04310	  1.94053	  2.49164	 -0.14305	  4.90155	704.53998	 23.60	
 11.900	180.000	  4.60005	  0.52183	  4.06041	  2.19543	  2.23789	 -0.14276	  4.90536	704.63202	 23.60	
 13.600	180.000	  4.48060	  0.22020	  4.22886	  2.10313	  2.13778	 -0.18184	  4.90221	704.65002	 23.50	
 13.608	-172.853	  4.49546	  0.22627	  4.23051	  1.85717	  2.39829	 -0.18348	  4.91925	704.50702	 23.60	
 13.611	-165.583	  4.48381	  0.25970	  4.17309	  1.60563	  2.65197	 -0.19068	  4.91010	704.57898	 23.50	
 13.601	-158.353	  4.50028	  0.32550	  4.10062	  1.37278	  2.92079	 -0.19141	  4.92681	704.63202	 23.50	
 13.609	-151.210	  4.50069	  0.41152	  3.98765	  1.15480	  3.16412	 -0.18839	  4.93089	704.53998	 23.50	
 13.611	-143.999	  4.48578	  0.52105	  3.82949	  0.95351	  3.38122	 -0.18084	  4.91301	704.59601	 23.50	
 13.601	-136.825	  4.48304	  0.66061	  3.65139	  0.77094	  3.59439	 -0.17536	  4.91128	704.46600	 23.50	
 13.596	-129.640	  4.47919	  0.82387	  3.44650	  0.61473	  3.77953	 -0.17081	  4.90800	704.67499	 23.50	
 13.611	-122.431	  4.48189	  1.01017	  3.22644	  0.48117	  3.94737	 -0.17449	  4.90919	704.67200	 23.50	
 13.604	-115.211	  4.47401	  1.21453	  2.98482	  0.37655	  4.07190	 -0.18469	  4.90087	704.75897	 23.50	
 13.595	-108.042	  4.48130	  1.44317	  2.73987	  0.30045	  4.17783	 -0.19084	  4.91049	704.65900	 23.50	
 13.607	-100.793	  4.47985	  1.68509	  2.48230	  0.24401	  4.25114	 -0.19705	  4.91384	704.65601	 23.50	
 13.601	-93.617	  4.48010	  1.93135	  2.22449	  0.21647	  4.28564	 -0.19751	  4.91465	704.67200	 23.50	
 13.601	-86.383	  4.47223	  2.18901	  1.95957	  0.21433	  4.28107	 -0.19232	  4.90675	704.66400	 23.50	
 13.607	-79.207	  4.47222	  2.45135	  1.71053	  0.23874	  4.25284	 -0.19153	  4.91193	704.66699	 23.40	
 13.595	-71.958	  4.48527	  2.71813	  1.47367	  0.29452	  4.19293	 -0.18741	  4.92280	704.64697	 23.50	
 13.604	-64.789	  4.47941	  2.96899	  1.24382	  0.37026	  4.09349	 -0.18514	  4.91729	704.54797	 23.50	
 13.611	-57.569	  4.47985	  3.21531	  1.03120	  0.47140	  3.96184	 -0.18017	  4.92046	704.65900	 23.40	
 13.596	-50.360	  4.47203	  3.43330	  0.84073	  0.59923	  3.79435	 -0.17918	  4.91261	704.50000	 23.40	
 13.601	-43.175	  4.46622	  3.63312	  0.67294	  0.75293	  3.60170	 -0.17681	  4.90733	704.58301	 23.50	
 13.611	-36.001	  4.47588	  3.82499	  0.52868	  0.93151	  3.39784	 -0.17605	  4.91384	704.64899	 23.40	
 13.609	-28.790	  4.47166	  3.97414	  0.40917	  1.12694	  3.16649	 -0.17335	  4.91218	704.63599	 23.40	
 13.601	-21.647	  4.47041	  4.09238	  0.31672	  1.33889	  2.92456	 -0.17322	  4.91060	704.52100	 23.40	
 13.611	-14.417	  4.47033	  4.18285	  0.24491	  1.57265	  2.66982	 -0.17502	  4.91096	704.50098	 23.50	
 13.608	 -7.147	  4.46943	  4.23704	  0.20379	  1.81607	  2.41055	 -0.17418	  4.91279	704.54602	 23.50	
 13.600	  0.000	  4.45551	  4.24422	  0.18934	  2.06212	  2.14982	 -0.17471	  4.89713	704.63898	 23.40	
 13.608	  7.147	  4.46447	  4.24381	  0.19474	  2.32356	  1.89866	 -0.17313	  4.91001	704.58698	 23.40	
 13.611	 14.417	  4.47027	  4.20260	  0.23043	  2.58911	  1.65480	 -0.17971	  4.91737	704.59100	 23.40	
 13.601	 21.647	  4.46569	  4.11427	  0.29662	  2.84213	  1.41958	 -0.18054	  4.91234	704.58502	 23.50	
 13.609	 28.790	  4.46056	  4.00289	  0.37981	  3.08233	  1.20218	 -0.17637	  4.90636	704.62799	 23.40	
 13.611	 36.001	  4.47101	  3.86673	  0.49261	  3.32387	  1.00486	 -0.17037	  4.91846	704.45300	 23.40	
 13.601	 43.175	  4.46724	  3.68740	  0.63377	  3.52869	  0.83424	 -0.16697	  4.91242	704.51398	 23.40	
 13.596	 50.360	  4.47547	  3.49421	  0.79751	  3.72824	  0.68035	 -0.16185	  4.91827	704.69702	 23.40	
 13.611	 57.569	  4.45768	  3.26458	  0.97610	  3.88031	  0.54911	 -0.15627	  4.90095	704.67798	 23.40	
 13.604	 64.789	  4.48017	  3.04353	  1.18488	  4.03581	  0.44383	 -0.16359	  4.92201	704.54498	 23.40	
 13.595	 71.958	  4.47230	  2.78462	  1.40665	  4.13172	  0.36378	 -0.16920	  4.91050	704.54797	 23.40	
 13.607	 79.207	  4.48835	  2.53399	  1.65079	  4.21334	  0.31290	 -0.17810	  4.92504	704.59399	 23.40	
 13.601	 86.383	  4.49295	  2.27904	  1.90168	  4.25119	  0.28872	 -0.18213	  4.92820	704.56299	 23.40	
 13.601	 93.617	  4.48779	  2.01572	  2.15819	  4.24763	  0.28874	 -0.18591	  4.91786	704.49298	 23.40	
 13.607	100.793	  4.49737	  1.76325	  2.42346	  4.22769	  0.30722	 -0.19334	  4.92711	704.53400	 23.40	
 13.595	108.042	  4.48814	  1.51564	  2.67964	  4.14637	  0.36311	 -0.19712	  4.91261	704.55499	 23.40	
 13.604	115.211	  4.48935	  1.28960	  2.93075	  4.04932	  0.43899	 -0.19149	  4.91018	704.50098	 23.40	
 13.611	122.431	  4.49631	  1.08047	  3.17908	  3.92431	  0.54260	 -0.18753	  4.91703	704.64099	 23.40	
 13.596	129.640	  4.49106	  0.89170	  3.39815	  3.75235	  0.67576	 -0.17749	  4.90721	704.60498	 23.40	
 13.601	136.825	  4.50343	  0.71910	  3.61627	  3.57566	  0.82700	 -0.16900	  4.92131	704.56897	 23.40	
 13.611	143.999	  4.50734	  0.56398	  3.80546	  3.37113	  0.99513	 -0.17055	  4.92676	704.64899	 23.40	
 13.609	151.210	  4.50802	  0.45137	  3.95819	  3.13762	  1.19849	 -0.17205	  4.92510	704.45502	 23.40	
 13.601	158.353	  4.49764	  0.35412	  4.07235	  2.88744	  1.41246	 -0.17541	  4.91413	704.65198	 23.40	
 13.611	165.583	  4.51025	  0.28322	  4.17640	  2.63763	  1.64819	 -0.18137	  4.92934	704.55402	 23.40	
 13.608	172.853	  4.51066	  0.24036	  4.23424	  2.37931	  1.89613	 -0.18217	  4.93591	704.60400	 23.40	
 15.298	173.587	  4.37801	 -0.06104	  4.38994	  2.27820	  1.78676	 -0.21704	  4.93399	704.65198	 23.40	
 15.291	167.167	  4.35765	 -0.02254	  4.32011	  2.52581	  1.53571	 -0.21592	  4.91218	704.55200	 23.40	
 15.307	160.676	  4.36389	  0.03640	  4.24553	  2.78721	  1.29848	 -0.21607	  4.91666	704.51801	 23.40	
 15.300	154.261	  4.36578	  0.12363	  4.13464	  3.03944	  1.07996	 -0.21162	  4.92033	704.56897	 23.40	
 15.288	147.854	  4.35825	  0.23116	  3.98526	  3.26650	  0.87897	 -0.20664	  4.90963	704.55701	 23.40	
 15.293	141.428	  4.37068	  0.36563	  3.82670	  3.49374	  0.70425	 -0.20313	  4.91782	704.61102	 23.40	
 15.299	134.985	  4.37676	  0.51534	  3.64150	  3.70666	  0.53467	 -0.20813	  4.92540	704.53400	 23.40	
 15.305	128.583	  4.35803	  0.68287	  3.41612	  3.87763	  0.38673	 -0.21301	  4.90912	704.60400	 23.40	
 15.309	122.142	  4.35191	  0.87185	  3.18387	  4.03241	  0.26442	 -0.21996	  4.90383	704.43597	 23.40	
 15.304	115.711	  4.34416	  1.07456	  2.93952	  4.15432	  0.16422	 -0.22284	  4.89434	704.51801	 23.40	
 15.297	109.291	  4.35126	  1.29985	  2.69368	  4.26723	  0.08559	 -0.22472	  4.90716	704.58801	 23.40	
 15.293	102.897	  4.35046	  1.53340	  2.43827	  4.33991	  0.02941	 -0.22191	  4.90927	704.64099	 23.40	
 15.293	 96.458	  4.34172	  1.78519	  2.17334	  4.37611	  0.00275	 -0.21438	  4.90191	704.56299	 23.40	
 15.300	 90.000	  4.34381	  2.04097	  1.91538	  4.39492	 -0.01016	 -0.21059	  4.90551	704.62097	 23.40	
 15.293	 83.542	  4.33325	  2.29490	  1.65916	  4.36637	  0.00324	 -0.20762	  4.89824	704.54199	 23.40	
 15.293	 77.103	  4.34571	  2.56329	  1.41954	  4.33255	  0.03867	 -0.19987	  4.91488	704.49799	 23.40	
 15.297	 70.709	  4.33908	  2.81260	  1.18786	  4.24881	  0.09611	 -0.19549	  4.90886	704.58301	 23.40	
 15.304	 64.289	  4.33012	  3.05213	  0.96841	  4.13668	  0.17352	 -0.19130	  4.90611	704.62500	 23.40	
 15.309	 57.858	  4.32218	  3.28919	  0.76272	  3.99761	  0.27285	 -0.18723	  4.90437	704.46600	 23.40	
 15.305	 51.417	  4.32091	  3.50736	  0.58198	  3.83623	  0.39452	 -0.18636	  4.90247	704.57703	 23.40	
 15.299	 45.015	  4.32667	  3.71571	  0.42112	  3.65346	  0.54197	 -0.19106	  4.91071	704.52600	 23.40	
 15.293	 38.572	  4.31805	  3.88778	  0.28215	  3.43476	  0.71193	 -0.19366	  4.89588	704.49799	 23.40	
 15.288	 32.146	  4.32462	  4.04900	  0.16209	  3.21643	  0.89580	 -0.18791	  4.90500	704.56299	 23.40	
 15.300	 25.739	  4.31849	  4.17321	  0.06315	  2.97667	  1.09588	 -0.18577	  4.90299	704.66302	 23.40	
 15.307	 19.324	  4.33174	  4.28519	 -0.01134	  2.73592	  1.31787	 -0.19067	  4.91599	704.59302	 23.40	
 15.291	 12.833	  4.32677	  4.35018	 -0.06331	  2.47341	  1.55426	 -0.18529	  4.90599	704.64697	 23.40	
 15.298	  6.413	  4.32653	  4.39056	 -0.09567	  2.21473	  1.79718	 -0.18298	  4.90856	704.57599	 23.40	
 15.300	  0.000	  4.32799	  4.40221	 -0.10361	  1.95739	  2.05105	 -0.18325	  4.90862	704.49799	 23.40	
 15.298	 -6.413	  4.33027	  4.38502	 -0.08970	  1.70944	  2.30560	 -0.18458	  4.90810	704.64899	 23.40	
 15.291	-12.833	  4.33679	  4.33798	 -0.04720	  1.47505	  2.56178	 -0.18585	  4.91115	704.56201	 23.40	
 15.307	-19.324	  4.33486	  4.25875	  0.00826	  1.23389	  2.82070	 -0.18370	  4.90944	704.55200	 23.40	
 15.300	-25.739	  4.33565	  4.14756	  0.09223	  1.01738	  3.06613	 -0.18326	  4.91112	704.65802	 23.40	
 15.288	-32.146	  4.32469	  4.00122	  0.19358	  0.81520	  3.29042	 -0.18292	  4.89433	704.63300	 23.40	
 15.293	-38.572	  4.33544	  3.84726	  0.32457	  0.63602	  3.52042	 -0.18400	  4.90821	704.59998	 23.40	
 15.299	-45.015	  4.34429	  3.66524	  0.46968	  0.46543	  3.73454	 -0.18703	  4.91941	704.60797	 23.40	
 15.305	-51.417	  4.34510	  3.45582	  0.64095	  0.32194	  3.91538	 -0.18646	  4.91853	704.71997	 23.40	
 15.309	-57.858	  4.35136	  3.23120	  0.82865	  0.20017	  4.07855	 -0.18674	  4.92280	704.49799	 23.40	
 15.304	-64.289	  4.34663	  2.98289	  1.03873	  0.10128	  4.20463	 -0.18950	  4.91870	704.49200	 23.40	
 15.297	-70.709	  4.34340	  2.72911	  1.25749	  0.02158	  4.30478	 -0.18793	  4.91397	704.51703	 23.40	
 15.293	-77.103	  4.33079	  2.46611	  1.48789	 -0.03467	  4.36801	 -0.18585	  4.90052	704.52100	 23.40	
 15.293	-83.542	  4.35358	  2.21773	  1.74130	 -0.06829	  4.43511	 -0.19433	  4.92273	704.66998	 23.40	
 15.300	-90.000	  4.34563	  1.95370	  1.98999	 -0.08283	  4.44078	 -0.20139	  4.91687	704.53198	 23.40	
 15.293	-96.458	  4.34999	  1.69986	  2.25236	 -0.06758	  4.42423	 -0.20978	  4.91959	704.56500	 23.40	
 15.293	-102.897	  4.34476	  1.45249	  2.50766	 -0.03097	  4.37055	 -0.21137	  4.90731	704.64398	 23.40	
 15.297	-109.291	  4.34703	  1.22070	  2.76148	  0.02216	  4.29819	 -0.21145	  4.91137	704.69800	 23.40	
 15.304	-115.711	  4.34795	  1.00344	  3.01174	  0.10716	  4.19129	 -0.20835	  4.90955	704.62097	 23.40	
 15.309	-122.142	  4.32885	  0.79775	  3.23239	  0.21017	  4.03920	 -0.20138	  4.88621	704.60199	 23.40	
 15.305	-128.583	  4.33797	  0.61600	  3.46422	  0.33852	  3.88651	 -0.20034	  4.89675	704.50702	 23.40	
 15.299	-134.985	  4.34021	  0.44975	  3.67054	  0.48252	  3.70731	 -0.20443	  4.90129	704.55200	 23.40	
 15.293	-141.428	  4.34223	  0.30823	  3.85456	  0.65184	  3.50399	 -0.21374	  4.90059	704.76801	 23.40	
 15.288	-147.854	  4.34860	  0.19338	  4.01599	  0.84533	  3.28165	 -0.21977	  4.90695	704.61798	 23.40	
 15.300	-154.261	  4.34192	  0.09098	  4.14260	  1.04571	  3.04151	 -0.22472	  4.89870	704.62799	 23.40	
 15.307	-160.676	  4.34198	  0.01000	  4.24684	  1.26165	  2.79699	 -0.22903	  4.89897	704.60498	 23.40	
 15.291	-167.167	  4.34175	 -0.03835	  4.31907	  1.50539	  2.53633	 -0.22804	  4.89672	704.63300	 23.40	
 15.298	-173.587	  4.34291	 -0.06774	  4.36141	  1.75047	  2.27873	 -0.22261	  4.89673	704.58502	 23.40	
 15.300	180.000	  4.34730	 -0.07099	  4.37593	  2.00457	  2.02834	 -0.21787	  4.89909	704.53101	 23.40	
 17.000	180.000	  4.19459	 -0.35391	  4.50733	  1.89449	  1.91086	 -0.24479	  4.89584	704.51398	 23.30	
 16.990	-174.179	  4.18920	 -0.34713	  4.48866	  1.64256	  2.16273	 -0.25053	  4.89100	704.38800	 23.40	
 17.009	-168.383	  4.18435	 -0.32326	  4.45009	  1.39978	  2.41247	 -0.25090	  4.88793	704.59998	 23.40	
 17.000	-162.596	  4.19785	 -0.27625	  4.39817	  1.17068	  2.67376	 -0.24985	  4.90481	704.64398	 23.40	
 16.990	-156.759	  4.20145	 -0.20855	  4.30791	  0.95108	  2.92786	 -0.25020	  4.90894	704.63300	 23.30	
 16.995	-150.919	  4.20228	 -0.12293	  4.18845	  0.74080	  3.16835	 -0.25079	  4.90840	704.53101	 23.30	
 16.988	-145.161	  4.18947	 -0.01897	  4.03341	  0.54607	  3.38911	 -0.24547	  4.89270	704.62701	 23.30	
 17.014	-139.343	  4.19386	  0.10323	  3.87150	  0.36484	  3.61299	 -0.24206	  4.90105	704.57098	 23.30	
 17.007	-133.546	  4.19137	  0.24625	  3.68096	  0.21110	  3.80159	 -0.23423	  4.89728	704.60797	 23.30	
 17.001	-127.699	  4.19613	  0.41063	  3.47643	  0.06982	  3.99132	 -0.22791	  4.90303	704.45502	 23.30	
 17.006	-121.937	  4.18787	  0.59019	  3.24828	 -0.05181	  4.14138	 -0.22381	  4.89381	704.57098	 23.30	
 17.002	-116.134	  4.18269	  0.78653	  3.01120	 -0.14752	  4.26784	 -0.22294	  4.88957	704.51703	 23.30	
 17.001	-110.310	  4.19142	  1.00188	  2.77202	 -0.23060	  4.38778	 -0.22276	  4.90290	704.50702	 23.30	
 16.988	-104.517	  4.18885	  1.22671	  2.51948	 -0.28433	  4.46092	 -0.21656	  4.89610	704.52600	 23.30	
 17.008	-98.662	  4.18830	  1.46163	  2.26353	 -0.33192	  4.52113	 -0.20441	  4.90396	704.56799	 23.30	
 16.996	-92.909	  4.18699	  1.70692	  2.00959	 -0.35371	  4.54863	 -0.19816	  4.90517	704.50000	 23.30	
 16.996	-87.091	  4.18154	  1.95965	  1.75254	 -0.35247	  4.54510	 -0.18433	  4.89560	704.44501	 23.30	
 17.012	-81.253	  4.18419	  2.21848	  1.50725	 -0.33618	  4.52683	 -0.18552	  4.90281	704.47601	 23.30	
 16.988	-75.483	  4.18286	  2.47332	  1.27163	 -0.29561	  4.47152	 -0.18163	  4.90010	704.48102	 23.30	
 17.001	-69.690	  4.18025	  2.72662	  1.04249	 -0.23964	  4.39646	 -0.17360	  4.90285	704.38501	 23.30	
 17.002	-63.866	  4.18351	  2.97666	  0.82740	 -0.16212	  4.29102	 -0.17757	  4.90323	704.40503	 23.30	
 17.006	-58.063	  4.18402	  3.21926	  0.62234	 -0.06816	  4.16429	 -0.17814	  4.90556	704.53699	 23.30	
 17.001	-52.301	  4.19819	  3.45592	  0.44484	  0.05498	  4.01726	 -0.18325	  4.91830	704.58502	 23.30	
 17.007	-46.454	  4.18105	  3.66123	  0.27142	  0.18856	  3.82649	 -0.18083	  4.90365	704.62799	 23.30	
 17.014	-40.657	  4.15879	  3.83534	  0.12231	  0.33812	  3.61554	 -0.17876	  4.87816	704.50702	 23.30	
 16.988	-34.839	  4.17371	  4.01491	 -0.00128	  0.51965	  3.41149	 -0.18614	  4.88987	704.56000	 23.30	
 16.995	-29.081	  4.17552	  4.16886	 -0.11271	  0.70672	  3.18607	 -0.18487	  4.89508	704.57098	 23.30	
 16.990	-23.241	  4.19182	  4.31152	 -0.20663	  0.91289	  2.95813	 -0.18195	  4.91515	704.56500	 23.30	
 17.000	-17.404	  4.18930	  4.40879	 -0.28260	  1.12785	  2.70893	 -0.18009	  4.91223	704.49799	 23.30	
 17.009	-11.617	  4.18241	  4.47598	 -0.33267	  1.35924	  2.45235	 -0.17707	  4.90959	704.46997	 23.30	
 16.990	 -5.821	  4.17879	  4.51058	 -0.35776	  1.60278	  2.19695	 -0.18310	  4.90122	704.56799	 23.30	
 17.000	  0.000	  4.16906	  4.51985	 -0.37216	  1.84574	  1.93937	 -0.18644	  4.89508	704.47498	 23.30	
 16.990	  5.821	  4.17473	  4.51626	 -0.36424	  2.10508	  1.69132	 -0.18356	  4.90064	704.53400	 23.30	
 17.009	 11.617	  4.17583	  4.48571	 -0.34344	  2.35753	  1.45205	 -0.18576	  4.90445	704.56299	 23.30	
 17.000	 17.404	  4.17484	  4.42488	 -0.29743	  2.60649	  1.22388	 -0.18246	  4.90532	704.59998	 23.30	
 16.990	 23.241	  4.16983	  4.33054	 -0.23712	  2.85829	  0.99437	 -0.18190	  4.90154	704.55402	 23.30	
 16.995	 29.081	  4.16830	  4.21001	 -0.14865	  3.09983	  0.78957	 -0.19236	  4.89973	704.56000	 23.30	
 16.988	 34.839	  4.17811	  4.08076	 -0.04768	  3.33473	  0.60157	 -0.19424	  4.90787	704.45801	 23.30	
 17.014	 40.657	  4.18008	  3.92004	  0.07642	  3.56325	  0.42345	 -0.20520	  4.91389	704.44702	 23.30	
 17.007	 46.454	  4.17173	  3.72751	  0.21499	  3.75793	  0.26156	 -0.20633	  4.90671	704.42102	 23.30	
 17.001	 52.301	  4.17617	  3.52534	  0.37866	  3.93910	  0.12946	 -0.20961	  4.90733	704.42700	 23.30	
 17.006	 58.063	  4.17519	  3.30348	  0.55555	  4.09672	  0.00951	 -0.21171	  4.90253	704.42200	 23.30	
 17.002	 63.866	  4.17728	  3.06980	  0.74766	  4.23526	 -0.09249	 -0.21012	  4.90401	704.57703	 23.30	
 17.001	 69.690	  4.18279	  2.82652	  0.96374	  4.34854	 -0.17052	 -0.21537	  4.90939	704.65503	 23.30	
 16.988	 75.483	  4.18345	  2.57101	  1.18826	  4.43057	 -0.23076	 -0.21709	  4.90424	704.54498	 23.30	
 17.012	 81.253	  4.17108	  2.31007	  1.41753	  4.47728	 -0.27494	 -0.21989	  4.89117	704.51703	 23.30	
 16.996	 87.091	  4.17528	  2.05375	  1.66481	  4.50569	 -0.29306	 -0.21952	  4.88963	704.51398	 23.30	
 16.996	 92.909	  4.17476	  1.79764	  1.91835	  4.50631	 -0.29408	 -0.22108	  4.88433	704.44202	 23.30	
 17.008	 98.662	  4.18607	  1.55979	  2.17482	  4.49122	 -0.27642	 -0.22526	  4.89568	704.55701	 23.30	
 16.988	104.517	  4.19799	  1.32041	  2.43909	  4.44664	 -0.23643	 -0.22943	  4.90327	704.43402	 23.30	
 17.001	110.310	  4.20239	  1.08910	  2.69569	  4.37138	 -0.17996	 -0.23487	  4.90710	704.48401	 23.30	
 17.002	116.134	  4.19788	  0.87184	  2.94092	  4.25810	 -0.10016	 -0.23988	  4.89420	704.51801	 23.30	
 17.006	121.937	  4.19477	  0.66724	  3.18139	  4.12016	  0.00048	 -0.23857	  4.88879	704.52100	 23.30	
 17.001	127.699	  4.20152	  0.48481	  3.41156	  3.97323	  0.11573	 -0.23746	  4.89376	704.57098	 23.30	
 17.007	133.546	  4.20306	  0.31208	  3.62637	  3.79985	  0.24990	 -0.23548	  4.89679	704.55499	 23.30	
 17.014	139.343	  4.19924	  0.15618	  3.82171	  3.59899	  0.40027	 -0.23242	  4.89612	704.56000	 23.30	
 16.988	145.161	  4.20880	  0.03429	  3.99937	  3.38750	  0.58266	 -0.23421	  4.89913	704.66400	 23.30	
 16.995	150.919	  4.20335	 -0.08302	  4.14582	  3.15382	  0.76640	 -0.24002	  4.89471	704.61298	 23.30	
 16.990	156.759	  4.19980	 -0.17827	  4.27193	  2.91386	  0.96926	 -0.24341	  4.89363	704.56000	 23.30	
 17.000	162.596	  4.21349	 -0.25246	  4.38823	  2.66863	  1.19900	 -0.24730	  4.91086	704.39697	 23.30	
 17.009	168.383	  4.20066	 -0.30510	  4.44938	  2.40949	  1.42558	 -0.24473	  4.89944	704.46198	 23.30	
 16.990	174.179	  4.19605	 -0.33200	  4.48555	  2.15469	  1.66318	 -0.24194	  4.89228	704.53198	 23.30	
 18.709	174.675	  4.03034	 -0.61117	  4.60239	  2.03572	  1.53800	 -0.25754	  4.89318	704.42200	 23.30	
 18.703	169.441	  4.02503	 -0.58067	  4.55669	  2.28210	  1.30637	 -0.26247	  4.88574	704.45203	 23.30	
 18.691	164.085	  4.03335	 -0.52845	  4.49339	  2.53749	  1.07977	 -0.26390	  4.88880	704.46600	 23.30	
 18.706	158.818	  4.03756	 -0.47386	  4.41314	  2.79326	  0.85514	 -0.26657	  4.89921	704.55402	 23.30	
 18.695	153.537	  4.04004	 -0.38154	  4.29658	  3.03065	  0.65980	 -0.26534	  4.89488	704.48999	 23.20	
 18.704	148.255	  4.04627	 -0.28535	  4.16503	  3.27048	  0.46729	 -0.25845	  4.90180	704.49500	 23.30	
 18.698	142.952	  4.04962	 -0.16686	  4.00679	  3.50001	  0.28558	 -0.25543	  4.90771	704.45801	 23.20	
 18.699	137.625	  4.04614	 -0.03153	  3.82117	  3.70445	  0.12660	 -0.25465	  4.90124	704.47803	 23.30	
 18.705	132.343	  4.04594	  0.12315	  3.62203	  3.89202	 -0.01421	 -0.25378	  4.89870	704.35999	 23.30	
 18.713	127.067	  4.04178	  0.28612	  3.40747	  4.06361	 -0.14521	 -0.25307	  4.89646	704.29797	 23.20	
 18.700	121.794	  4.03777	  0.46576	  3.17486	  4.21222	 -0.25860	 -0.24204	  4.89174	704.30103	 23.30	
 18.698	116.504	  4.04304	  0.66638	  2.93979	  4.35213	 -0.35341	 -0.23635	  4.90523	704.41400	 23.20	
 18.707	111.165	  4.04659	  0.87660	  2.69820	  4.46827	 -0.43568	 -0.23081	  4.91520	704.47803	 23.20	
 18.690	105.863	  4.03208	  1.10053	  2.43779	  4.53073	 -0.48362	 -0.22598	  4.89785	704.45203	 23.30	
 18.696	100.583	  4.03010	  1.33059	  2.18047	  4.59220	 -0.53053	 -0.21564	  4.90134	704.50897	 23.20	
 18.700	 95.309	  4.02896	  1.57428	  1.93047	  4.62337	 -0.54868	 -0.21745	  4.90051	704.36798	 23.30	
 18.700	 90.000	  4.02276	  1.82242	  1.67529	  4.63004	 -0.55630	 -0.21634	  4.89959	704.52600	 23.20	
 18.700	 84.691	  4.01053	  2.06821	  1.42523	  4.60271	 -0.54606	 -0.22182	  4.88526	704.48602	 23.30	
 18.696	 79.417	  3.99964	  2.30937	  1.18782	  4.55828	 -0.52414	 -0.22071	  4.87698	704.38800	 23.30	
 18.690	 74.137	  4.00485	  2.56911	  0.96116	  4.49981	 -0.47471	 -0.22296	  4.88490	704.40302	 23.30	
 18.707	 68.835	  3.99455	  2.81177	  0.73878	  4.40938	 -0.42174	 -0.22268	  4.88111	704.53699	 23.20	
 18.698	 63.496	  3.98879	  3.05205	  0.53324	  4.29351	 -0.34125	 -0.22186	  4.87761	704.39001	 23.30	
 18.700	 58.206	  3.99525	  3.29042	  0.34425	  4.16721	 -0.24619	 -0.22129	  4.88697	704.48102	 23.30	
 18.713	 52.933	  3.98364	  3.50081	  0.16935	  3.99730	 -0.13313	 -0.21695	  4.87663	704.41400	 23.30	
 18.705	 47.657	  3.99907	  3.72158	  0.01641	  3.83505	  0.00231	 -0.21283	  4.89393	704.30298	 23.30	
 18.699	 42.375	  3.99152	  3.90109	 -0.12623	  3.63832	  0.14013	 -0.20891	  4.89023	704.39301	 23.30	
 18.698	 37.048	  4.00502	  4.08501	 -0.24911	  3.43496	  0.30991	 -0.19210	  4.90350	704.36200	 23.30	
 18.704	 31.745	  3.99864	  4.23072	 -0.36119	  3.20047	  0.48901	 -0.18589	  4.89764	704.42200	 23.30	
 18.695	 26.463	  4.01124	  4.36740	 -0.44441	  2.97582	  0.68765	 -0.17585	  4.90847	704.33197	 23.30	
 18.706	 21.182	  4.01323	  4.47589	 -0.52624	  2.73617	  0.88980	 -0.16864	  4.91569	704.31702	 23.30	
 18.691	 15.915	  4.00531	  4.54385	 -0.57562	  2.47848	  1.11195	 -0.16561	  4.90140	704.42700	 23.20	
 18.703	 10.559	  4.00496	  4.60139	 -0.61839	  2.22495	  1.34119	 -0.16780	  4.90287	704.36603	 23.30	
 18.709	  5.325	  4.00606	  4.63071	 -0.64465	  1.97738	  1.57316	 -0.17697	  4.90349	704.43103	 23.30	
 18.700	  0.000	  4.00067	  4.63197	 -0.64610	  1.71912	  1.82276	 -0.16621	  4.89381	704.32703	 23.30	
 18.709	 -5.325	  4.01190	  4.62766	 -0.63497	  1.48080	  2.07523	 -0.16564	  4.90480	704.35999	 23.30	
 18.703	-10.559	  4.01578	  4.59311	 -0.60591	  1.24993	  2.32486	 -0.17360	  4.90942	704.35699	 23.30	
 18.691	-15.915	  4.01133	  4.51631	 -0.55769	  1.01496	  2.57741	 -0.17452	  4.89907	704.31403	 23.30	
 18.706	-21.182	  4.01289	  4.43438	 -0.49804	  0.79992	  2.82222	 -0.17604	  4.90209	704.20599	 23.30	
 18.695	-26.463	  4.01784	  4.32416	 -0.41457	  0.59934	  3.06448	 -0.17755	  4.90596	704.41602	 23.30	
 18.704	-31.745	  4.01389	  4.18173	 -0.31954	  0.40253	  3.29754	 -0.18190	  4.90095	704.31403	 23.30	
 18.698	-37.048	  4.02887	  4.03821	 -0.20739	  0.22695	  3.52978	 -0.17831	  4.92019	704.44501	 23.30	
 18.699	-42.375	  4.02543	  3.85116	 -0.06912	  0.06947	  3.73000	 -0.18318	  4.91347	704.50098	 23.30	
 18.705	-47.657	  4.02778	  3.65814	  0.07669	 -0.07920	  3.92692	 -0.17312	  4.91663	704.37598	 23.30	
 18.713	-52.933	  4.01908	  3.43713	  0.23507	 -0.21473	  4.09332	 -0.16856	  4.90848	704.42401	 23.30	
 18.700	-58.206	  4.00829	  3.20073	  0.41540	 -0.32297	  4.23099	 -0.16709	  4.89388	704.47498	 23.30	
 18.698	-63.496	  4.00882	  2.96129	  0.61113	 -0.41327	  4.35697	 -0.16380	  4.88862	704.45801	 23.30	
 18.707	-68.835	  4.01165	  2.71633	  0.81886	 -0.49459	  4.46960	 -0.15922	  4.89725	704.39697	 23.30	
 18.690	-74.137	  4.01272	  2.46285	  1.04231	 -0.55200	  4.55009	 -0.16101	  4.89697	704.26501	 23.30	
 18.696	-79.417	  4.01435	  2.20841	  1.27479	 -0.59440	  4.60854	 -0.16450	  4.89483	704.37402	 23.30	
 18.700	-84.691	  4.01868	  1.95744	  1.51500	 -0.62296	  4.65076	 -0.17185	  4.90234	704.37598	 23.30	
 18.700	-90.000	  4.01287	  1.70155	  1.75810	 -0.62965	  4.64922	 -0.17638	  4.89330	704.40302	 23.30	
 18.700	-95.309	  4.01048	  1.45571	  2.00869	 -0.61996	  4.63384	 -0.18345	  4.88909	704.37402	 23.30	
 18.696	-100.583	  4.02547	  1.22326	  2.26716	 -0.59212	  4.61028	 -0.19620	  4.90372	704.34900	 23.30	
 18.690	-105.863	  4.01513	  0.99371	  2.51252	 -0.54391	  4.53549	 -0.20866	  4.88582	704.38501	 23.30	
 18.707	-111.165	  4.01537	  0.77306	  2.76249	 -0.48358	  4.45388	 -0.22311	  4.88717	704.39099	 23.30	
 18.698	-116.504	  4.01222	  0.56786	  2.99998	 -0.40479	  4.34083	 -0.23243	  4.88339	704.34003	 23.30	
 18.700	-121.794	  4.01918	  0.37582	  3.23846	 -0.31284	  4.21798	 -0.23854	  4.89396	704.31403	 23.30	
 18.713	-127.067	  4.03373	  0.20267	  3.47550	 -0.19680	  4.07550	 -0.24549	  4.90732	704.22699	 23.30	
 18.705	-132.343	  4.01281	  0.04082	  3.66395	 -0.06427	  3.88143	 -0.25658	  4.88271	704.30603	 23.30	
 18.699	-137.625	  4.02251	 -0.09538	  3.86169	  0.08923	  3.69421	 -0.25693	  4.89145	704.35999	 23.30	
 18.698	-142.952	  4.02489	 -0.22209	  4.03834	  0.25664	  3.48847	 -0.26346	  4.89500	704.35999	 23.30	
 18.704	-148.255	  4.02369	 -0.33954	  4.19645	  0.43561	  3.26226	 -0.25782	  4.89537	704.30402	 23.30	
 18.695	-153.537	  4.02277	 -0.42508	  4.32180	  0.63027	  3.02715	 -0.25705	  4.89244	704.39099	 23.30	
 18.706	-158.818	  4.02258	 -0.50355	  4.43069	  0.84035	  2.78480	 -0.25434	  4.89298	704.35999	 23.30	
 18.691	-164.085	  4.03096	 -0.56014	  4.52100	  1.05687	  2.54553	 -0.25538	  4.90337	704.20001	 23.30	
 18.703	-169.441	  4.03223	 -0.60094	  4.58187	  1.29506	  2.28666	 -0.26079	  4.90123	704.24799	 23.30	
 18.709	-174.675	  4.03075	 -0.61940	  4.61246	  1.53215	  2.04053	 -0.26057	  4.89869	704.09601	 23.20	
 18.700	180.000	  4.03674	 -0.62380	  4.62539	  1.78348	  1.79334	 -0.26154	  4.90403	704.13397	 23.30	
 20.400	180.000	  3.85438	 -0.91285	  4.72156	  1.64613	  1.65061	 -0.25554	  4.90420	704.14398	 23.20	
 20.401	-175.153	  3.84278	 -0.91549	  4.70748	  1.39810	  1.88781	 -0.25222	  4.89638	704.21399	 23.20	
 20.407	-170.264	  3.85225	 -0.90145	  4.68831	  1.16045	  2.14082	 -0.25415	  4.90704	704.33698	 23.20	
 20.410	-165.423	  3.83125	 -0.86112	  4.61303	  0.92222	  2.38272	 -0.24777	  4.88647	704.25000	 23.20	
 20.392	-160.496	  3.83966	 -0.80938	  4.54323	  0.70544	  2.63478	 -0.24580	  4.88986	704.27002	 23.20	
 20.401	-155.705	  3.83521	 -0.74791	  4.44534	  0.49867	  2.87210	 -0.24132	  4.88948	704.34497	 23.20	
 20.405	-150.835	  3.84500	 -0.67155	  4.33719	  0.29887	  3.11808	 -0.25056	  4.90358	704.30402	 23.20	
 20.397	-145.903	  3.84552	 -0.57259	  4.19560	  0.11276	  3.34891	 -0.25801	  4.90275	704.31403	 23.20	
 20.392	-141.062	  3.85085	 -0.45840	  4.03817	 -0.05460	  3.57174	 -0.25888	  4.90934	704.28101	 23.20	
 20.396	-136.227	  3.83169	 -0.33345	  3.83872	 -0.21221	  3.75383	 -0.26431	  4.88140	704.21399	 23.20	
 20.408	-131.372	  3.83823	 -0.19346	  3.64917	 -0.35876	  3.95451	 -0.25532	  4.89286	704.26202	 23.20	
 20.410	-126.511	  3.83332	 -0.03377	  3.43631	 -0.48308	  4.12250	 -0.24815	  4.88890	704.15399	 23.20	
 20.400	-121.604	  3.83757	  0.14161	  3.21320	 -0.58959	  4.27547	 -0.23584	  4.88963	704.25800	 23.20	
 20.403	-116.741	  3.83192	  0.32844	  2.97801	 -0.68168	  4.40128	 -0.22095	  4.88323	704.15698	 23.20	
 20.413	-111.900	  3.84170	  0.52652	  2.74622	 -0.76634	  4.52566	 -0.20908	  4.89887	704.19098	 23.20	
 20.398	-107.004	  3.83863	  0.73704	  2.49771	 -0.83243	  4.61537	 -0.19726	  4.90112	704.27802	 23.20	
 20.394	-102.132	  3.84435	  0.96137	  2.24724	 -0.88656	  4.69143	 -0.18473	  4.91425	704.30103	 23.20	
 20.403	-97.332	  3.82967	  1.18488	  1.99388	 -0.91385	  4.71894	 -0.16849	  4.89545	704.21899	 23.20	
 20.392	-92.440	  3.84113	  1.43303	  1.75097	 -0.92957	  4.75399	 -0.16102	  4.91021	704.23401	 23.20	
 20.392	-87.560	  3.83543	  1.67962	  1.50026	 -0.92713	  4.75011	 -0.15945	  4.90629	704.18298	 23.20	
 20.403	-82.668	  3.81944	  1.92290	  1.25016	 -0.91410	  4.71555	 -0.15590	  4.88865	704.22699	 23.20	
 20.394	-77.868	  3.81683	  2.16967	  1.02153	 -0.87877	  4.67111	 -0.15022	  4.88421	704.21698	 23.20	
 20.398	-72.996	  3.81845	  2.42399	  0.79358	 -0.83917	  4.61393	 -0.14732	  4.88710	704.21899	 23.20	
 20.413	-68.100	  3.82584	  2.68250	  0.58014	 -0.77674	  4.53573	 -0.15316	  4.89816	704.38300	 23.20	
 20.403	-63.259	  3.81552	  2.91778	  0.37552	 -0.70061	  4.41438	 -0.15231	  4.88412	704.43103	 23.20	
 20.400	-58.396	  3.82545	  3.16394	  0.18716	 -0.60665	  4.29550	 -0.15395	  4.89238	704.34302	 23.20	
 20.410	-53.489	  3.82236	  3.39460	  0.00262	 -0.50583	  4.14790	 -0.15511	  4.89532	704.25598	 23.20	
 20.408	-48.628	  3.80723	  3.59396	 -0.15447	 -0.38007	  3.96209	 -0.16028	  4.87304	704.39099	 23.20	
 20.396	-43.773	  3.82027	  3.80589	 -0.29842	 -0.24043	  3.78914	 -0.16331	  4.88777	704.25897	 23.20	
 20.392	-38.938	  3.82511	  3.99808	 -0.43297	 -0.09038	  3.59391	 -0.16243	  4.89727	704.37402	 23.20	
 20.397	-34.097	  3.82788	  4.16848	 -0.54955	  0.07550	  3.38296	 -0.16355	  4.90238	704.24103	 23.20	
 20.405	-29.165	  3.82323	  4.31453	 -0.65712	  0.25504	  3.15066	 -0.16200	  4.89858	704.29602	 23.20	
 20.401	-24.295	  3.82248	  4.43783	 -0.73879	  0.45470	  2.91237	 -0.16050	  4.89406	704.20801	 23.20	
 20.392	-19.504	  3.82014	  4.53179	 -0.80175	  0.65605	  2.67068	 -0.16679	  4.88628	704.33698	 23.20	
 20.410	-14.577	  3.82129	  4.62612	 -0.87019	  0.86731	  2.42780	 -0.16054	  4.89778	704.50598	 23.20	
 20.407	 -9.736	  3.82095	  4.68254	 -0.90673	  1.10007	  2.17428	 -0.15715	  4.89657	704.29303	 23.20	
 20.401	 -4.847	  3.82035	  4.72261	 -0.93792	  1.33354	  1.92744	 -0.15440	  4.90251	704.38800	 23.20	
 20.400	  0.000	  3.82133	  4.73480	 -0.94201	  1.57765	  1.68232	 -0.15820	  4.89954	704.33398	 23.20	
 20.401	  4.847	  3.80926	  4.71835	 -0.93706	  1.81632	  1.43738	 -0.15198	  4.89214	704.22400	 23.20	
 20.407	  9.736	  3.80322	  4.68694	 -0.92088	  2.06175	  1.19872	 -0.15357	  4.88908	704.21002	 23.20	
 20.410	 14.577	  3.81289	  4.64775	 -0.88308	  2.31990	  0.97508	 -0.15598	  4.89843	704.46698	 23.20	
 20.392	 19.504	  3.81166	  4.57433	 -0.83226	  2.57529	  0.75118	 -0.15497	  4.89809	704.27301	 23.20	
 20.401	 24.295	  3.81394	  4.48468	 -0.77060	  2.81501	  0.54807	 -0.15912	  4.90195	704.25598	 23.20	
 20.405	 29.165	  3.81052	  4.36451	 -0.68963	  3.05132	  0.35358	 -0.16167	  4.89763	704.18597	 23.20	
 20.397	 34.097	  3.80663	  4.22047	 -0.59164	  3.28485	  0.16529	 -0.16710	  4.89429	704.38501	 23.20	
 20.392	 38.938	  3.80171	  4.05509	 -0.47969	  3.50000	 -0.00212	 -0.18817	  4.88357	704.27301	 23.20	
 20.396	 43.773	  3.80242	  3.88286	 -0.35325	  3.70136	 -0.14902	 -0.19522	  4.87997	704.29498	 23.20	
 20.408	 48.628	  3.80109	  3.69375	 -0.21750	  3.89389	 -0.29297	 -0.21054	  4.88882	704.29498	 23.20	
 20.410	 53.489	  3.80558	  3.48885	 -0.06283	  4.07622	 -0.42219	 -0.20858	  4.88931	704.16803	 23.20	
 20.400	 58.396	  3.81372	  3.27152	  0.11096	  4.24161	 -0.53082	 -0.21363	  4.89828	704.14001	 23.20	
 20.403	 63.259	  3.81578	  3.04135	  0.29882	  4.37504	 -0.62167	 -0.22444	  4.89869	704.21399	 23.20	
 20.413	 68.100	  3.82067	  2.80443	  0.49596	  4.49214	 -0.69775	 -0.21794	  4.90068	704.20300	 23.20	
 20.398	 72.996	  3.82437	  2.55896	  0.70549	  4.58609	 -0.76104	 -0.21732	  4.90469	704.21600	 23.20	
 20.394	 77.868	  3.83163	  2.31029	  0.93553	  4.65290	 -0.79899	 -0.21749	  4.90257	704.25598	 23.20	
 20.403	 82.668	  3.83557	  2.06011	  1.16411	  4.70470	 -0.83713	 -0.21513	  4.90605	704.17102	 23.20	
 20.392	 87.560	  3.84005	  1.81062	  1.40499	  4.73021	 -0.85027	 -0.20395	  4.90977	704.28900	 23.20	
 20.392	 92.440	  3.84460	  1.56259	  1.65755	  4.73418	 -0.84998	 -0.19527	  4.90874	704.15399	 23.20	
 20.403	 97.332	  3.84976	  1.31940	  1.90891	  4.71791	 -0.83886	 -0.19022	  4.90922	704.10699	 23.20	
 20.394	102.132	  3.84279	  1.08996	  2.15603	  4.65977	 -0.80108	 -0.20015	  4.89227	704.13397	 23.20	
 20.398	107.004	  3.84416	  0.85638	  2.40830	  4.60065	 -0.76379	 -0.20006	  4.89234	704.26202	 23.20	
 20.413	111.900	  3.83691	  0.63865	  2.65290	  4.50484	 -0.69897	 -0.21054	  4.88057	704.19299	 23.20	
 20.403	116.741	  3.84271	  0.43516	  2.89852	  4.40318	 -0.62696	 -0.22023	  4.88317	704.15503	 23.20	
 20.400	121.604	  3.84846	  0.24082	  3.14013	  4.28225	 -0.54097	 -0.23224	  4.89272	704.19598	 23.20	
 20.410	126.511	  3.85424	  0.05795	  3.37482	  4.13728	 -0.43638	 -0.24184	  4.89613	704.23700	 23.20	
 20.408	131.372	  3.86522	 -0.10348	  3.59940	  3.97252	 -0.31095	 -0.25578	  4.90587	704.30603	 23.20	
 20.396	136.227	  3.86341	 -0.25014	  3.79750	  3.77992	 -0.16761	 -0.25784	  4.89886	704.39099	 23.20	
 20.392	141.062	  3.85440	 -0.38186	  3.97389	  3.57327	 -0.01813	 -0.25671	  4.88855	704.38800	 23.20	
 20.397	145.903	  3.85867	 -0.50449	  4.14715	  3.36389	  0.14441	 -0.26246	  4.89451	704.15198	 23.20	
 20.405	150.835	  3.86382	 -0.61526	  4.30503	  3.13590	  0.32409	 -0.26758	  4.90400	704.30402	 23.20	
 20.401	155.705	  3.84878	 -0.69721	  4.41424	  2.88666	  0.52143	 -0.27214	  4.88625	704.27301	 23.20	
 20.392	160.496	  3.84714	 -0.76625	  4.51569	  2.65015	  0.72260	 -0.26735	  4.88470	704.22198	 23.20	
 20.410	165.423	  3.83716	 -0.83248	  4.59326	  2.38895	  0.93943	 -0.26386	  4.87967	704.39301	 23.20	
 20.407	170.264	  3.84600	 -0.87527	  4.66235	  2.14591	  1.16742	 -0.26189	  4.89039	704.18799	 23.20	
 20.401	175.153	  3.85182	 -0.90292	  4.70263	  1.89430	  1.40422	 -0.25735	  4.89850	704.30402	 23.20	
  0.141	 45.000	  4.89541	  2.54117	  2.49017	  2.53731	  2.56794	  0.03462	  4.89099	704.24200	 23.20	
  4.001	128.691	  4.88728	  2.12428	  2.81204	  2.93834	  2.08447	  0.00807	  4.89588	704.31403	 23.20	
  4.002	 76.995	  4.87112	  2.60156	  2.29897	  3.04228	  1.98325	  0.01015	  4.88230	704.21899	 23.20	
  4.002	 25.892	  4.86850	  3.01336	  1.92927	  2.71370	  2.26229	  0.00773	  4.88136	704.19098	 23.20	
  4.002	-25.892	  4.87645	  3.01139	  1.93343	  2.20228	  2.78248	  0.00195	  4.89094	704.35101	 23.20	
  4.002	-76.995	  4.86612	  2.58136	  2.30615	  1.90862	  3.10675	  0.00027	  4.87873	704.25897	 23.20	
  4.001	-128.691	  4.88075	  2.09888	  2.82322	  2.02143	  2.99165	  0.00523	  4.88902	704.19098	 23.20	
  4.000	180.000	  4.86377	  1.90049	  3.04386	  2.45578	  2.50649	  0.00582	  4.87391	704.25598	 23.20	
  8.000	180.000	  4.77466	  1.20746	  3.59509	  2.35285	  2.40020	 -0.05459	  4.88388	704.30402	 23.20	
  7.991	-152.370	  4.78160	  1.32334	  3.45696	  1.80964	  2.97640	 -0.06052	  4.89152	704.19598	 23.20	
  7.997	-124.550	  4.78188	  1.67161	  3.05040	  1.40127	  3.44090	 -0.05985	  4.89535	704.32098	 23.20	
  8.006	-96.837	  4.77700	  2.18981	  2.48826	  1.21561	  3.65599	 -0.07357	  4.89087	704.30103	 23.20	
  7.988	-69.228	  4.76974	  2.77101	  1.91743	  1.27605	  3.58029	 -0.07520	  4.88658	704.19598	 23.20	
  7.997	-41.563	  4.75666	  3.27203	  1.45979	  1.56043	  3.22906	 -0.06577	  4.87326	704.18500	 23.20	
  8.008	-13.821	  4.75712	  3.57181	  1.20949	  2.04568	  2.69503	 -0.06870	  4.87722	704.23297	 23.20	
  8.008	 13.821	  4.76381	  3.59028	  1.20356	  2.62761	  2.11954	 -0.05880	  4.88251	704.26202	 23.20	
  7.997	 41.563	  4.76625	  3.31068	  1.43965	  3.16362	  1.63752	 -0.05101	  4.88660	704.24402	 23.20	
  7.988	 69.228	  4.77073	  2.81235	  1.88398	  3.52192	  1.34270	 -0.05378	  4.88685	704.30902	 23.20	
  8.006	 96.837	  4.78388	  2.23451	  2.45239	  3.61112	  1.28223	 -0.05728	  4.89841	704.22998	 23.20	
  7.997	124.550	  4.77742	  1.71122	  3.01033	  3.38645	  1.45989	 -0.05746	  4.88490	704.33197	 23.20	
  7.991	152.370	  4.78493	  1.35179	  3.43836	  2.93066	  1.86393	 -0.05292	  4.88874	704.22198	 23.20	
 12.009	161.059	  4.56454	  0.59234	  3.93137	  2.77641	  1.64615	 -0.13925	  4.87161	704.23102	 23.20	
 12.013	142.081	  4.57702	  0.84831	  3.62190	  3.33778	  1.15979	 -0.13054	  4.88535	704.28601	 23.20	
 12.006	123.113	  4.58346	  1.25711	  3.14768	  3.76940	  0.81143	 -0.15048	  4.89333	704.19397	 23.20	
 12.007	104.200	  4.58768	  1.78009	  2.57288	  4.03164	  0.60942	 -0.15672	  4.90365	704.26703	 23.20	
 11.989	 85.301	  4.58599	  2.37519	  1.97018	  4.07518	  0.57729	 -0.14265	  4.90649	704.38800	 23.20	
 12.013	 66.294	  4.56600	  2.95862	  1.40877	  3.90263	  0.69331	 -0.13514	  4.89450	704.11603	 23.20	
 12.012	 47.388	  4.54737	  3.46999	  0.95237	  3.53245	  0.97280	 -0.13162	  4.87955	704.21399	 23.20	
 11.990	 28.440	  4.54732	  3.85500	  0.63770	  3.03009	  1.39961	 -0.15304	  4.88049	704.27502	 23.20	
 11.991	  9.464	  4.54363	  4.04516	  0.48740	  2.44619	  1.93194	 -0.14928	  4.87066	704.20599	 23.20	
 11.991	 -9.464	  4.54146	  4.03461	  0.49252	  1.85356	  2.52256	 -0.15139	  4.86892	704.17999	 23.20	
 11.990	-28.440	  4.55695	  3.83080	  0.66415	  1.32285	  3.11339	 -0.14659	  4.88503	704.08502	 23.20	
 12.012	-47.388	  4.55804	  3.43159	  0.99018	  0.89955	  3.60891	 -0.15431	  4.88623	704.16803	 23.20	
 12.013	-66.294	  4.56043	  2.89681	  1.45529	  0.61454	  3.95869	 -0.16542	  4.88684	704.25000	 23.20	
 11.989	-85.301	  4.56154	  2.29428	  2.02062	  0.50394	  4.10450	 -0.17040	  4.88500	704.29602	 23.20	
 12.007	-104.200	  4.55714	  1.70654	  2.61487	  0.54264	  4.04657	 -0.16214	  4.87887	704.19598	 23.20	
 12.006	-123.113	  4.56665	  1.19453	  3.18728	  0.74900	  3.79767	 -0.14220	  4.88458	704.24103	 23.20	
 12.013	-142.081	  4.55888	  0.80175	  3.64797	  1.11279	  3.35676	 -0.14373	  4.87416	704.27502	 23.20	
 12.009	-161.059	  4.58106	  0.56651	  3.96942	  1.61250	  2.81771	 -0.15392	  4.89696	704.15503	 23.20	
 16.000	180.000	  4.28822	 -0.19081	  4.43622	  1.96171	  1.98273	 -0.23151	  4.90179	704.25800	 23.20	
 15.990	-165.604	  4.27838	 -0.13947	  4.35375	  1.38447	  2.57485	 -0.23643	  4.89212	704.16101	 23.20	
 16.002	-151.165	  4.26412	  0.02649	  4.11042	  0.86260	  3.14255	 -0.23232	  4.87816	704.20203	 23.20	
 16.002	-136.836	  4.26461	  0.30650	  3.74099	  0.43334	  3.65776	 -0.22237	  4.88288	704.14801	 23.20	
 15.995	-122.439	  4.26414	  0.69677	  3.25159	  0.11180	  4.06365	 -0.21476	  4.88138	704.11298	 23.20	
 15.993	-107.966	  4.26428	  1.19038	  2.68432	 -0.09840	  4.34178	 -0.21558	  4.88724	704.16302	 23.20	
 16.005	-93.629	  4.25716	  1.74396	  2.08876	 -0.18999	  4.45940	 -0.20139	  4.88639	704.13800	 23.20	
 15.992	-79.234	  4.24691	  2.33695	  1.49955	 -0.16482	  4.41658	 -0.18135	  4.87566	704.05798	 23.20	
 16.009	-64.774	  4.24809	  2.93413	  0.96767	 -0.02211	  4.23124	 -0.17981	  4.87813	704.06097	 23.20	
 15.997	-50.364	  4.25503	  3.48084	  0.52011	  0.24366	  3.89493	 -0.18493	  4.88354	704.09900	 23.20	
 15.997	-36.045	  4.24575	  3.92418	  0.16509	  0.60627	  3.43041	 -0.18381	  4.87338	704.16803	 23.20	
 16.000	-21.597	  4.23730	  4.23276	 -0.06950	  1.07258	  2.87840	 -0.18623	  4.86670	704.11798	 23.20	
 16.003	 -7.169	  4.24843	  4.41267	 -0.19653	  1.61931	  2.29200	 -0.18200	  4.88099	704.22998	 23.20	
 16.003	  7.169	  4.23286	  4.40946	 -0.20298	  2.19878	  1.70009	 -0.18188	  4.86922	704.20001	 23.20	
 16.000	 21.597	  4.23584	  4.26330	 -0.09420	  2.79218	  1.15845	 -0.18744	  4.87089	704.21100	 23.20	
 15.997	 36.045	  4.23992	  3.97382	  0.12721	  3.34905	  0.68969	 -0.19358	  4.88051	704.27502	 23.20	
 15.997	 50.364	  4.23864	  3.54415	  0.45498	  3.81995	  0.31146	 -0.19963	  4.87582	704.26703	 23.20	
 16.009	 64.774	  4.25161	  3.02292	  0.89691	  4.17925	  0.05213	 -0.19860	  4.88721	704.16803	 23.20	
 15.992	 79.234	  4.25331	  2.43557	  1.42509	  4.37756	 -0.09387	 -0.20818	  4.88298	704.18799	 23.20	
 16.005	 93.629	  4.25815	  1.83607	  2.00647	  4.42725	 -0.12944	 -0.22081	  4.88071	704.18799	 23.20	
 15.993	107.966	  4.26502	  1.27358	  2.60655	  4.31061	 -0.04222	 -0.22911	  4.87563	704.22699	 23.20	
 15.995	122.439	  4.26719	  0.77484	  3.18293	  4.04182	  0.16132	 -0.22942	  4.87363	704.19598	 23.20	
 16.002	136.836	  4.26874	  0.36350	  3.68690	  3.63770	  0.47447	 -0.21687	  4.87256	704.17999	 23.20	
 16.002	151.165	  4.27060	  0.06262	  4.08137	  3.13460	  0.88986	 -0.21843	  4.87769	704.17700	 23.20	
 15.990	165.604	  4.27291	 -0.11828	  4.33024	  2.55359	  1.40770	 -0.22628	  4.88149	704.13202	 23.20	
 20.003	168.362	  3.87725	 -0.78413	  4.60414	  2.25939	  1.12279	 -0.26753	  4.87393	704.20300	 23.20	
 20.008	156.764	  3.88384	 -0.64663	  4.41438	  2.84180	  0.61587	 -0.26991	  4.87916	704.21600	 23.20	
 20.000	145.147	  3.88469	 -0.42714	  4.09586	  3.38488	  0.17259	 -0.26128	  4.87832	704.25000	 23.20	
 19.995	133.545	  3.88940	 -0.10781	  3.66914	  3.86416	 -0.18224	 -0.25512	  4.87921	704.25000	 23.20	
 20.009	121.926	  3.89353	  0.28649	  3.16431	  4.26070	 -0.46703	 -0.23730	  4.89186	704.25500	 23.20	
 20.005	110.327	  3.89312	  0.75842	  2.59861	  4.52893	 -0.65139	 -0.21491	  4.89539	704.20801	 23.20	
 19.989	 98.733	  3.88923	  1.29043	  2.00814	  4.67407	 -0.75479	 -0.20129	  4.89514	704.12903	 23.20	
 19.999	 87.075	  3.86430	  1.85951	  1.41361	  4.67720	 -0.76718	 -0.20415	  4.87916	704.15503	 23.20	
 19.992	 75.457	  3.86557	  2.44516	  0.87507	  4.58721	 -0.70378	 -0.22102	  4.88708	704.05103	 23.20	
 20.009	 63.844	  3.85309	  3.01474	  0.37750	  4.36135	 -0.55749	 -0.21758	  4.88456	704.11798	 23.20	
 19.989	 52.269	  3.84555	  3.53391	 -0.03522	  4.01044	 -0.31675	 -0.20984	  4.87749	704.20001	 23.20	
 19.999	 40.602	  3.84615	  3.98910	 -0.37608	  3.56824	  0.00634	 -0.19645	  4.88165	704.22699	 23.20	
 20.004	 29.051	  3.83960	  4.33357	 -0.62019	  3.04219	  0.41439	 -0.16201	  4.87693	704.19897	 23.30	
 20.005	 17.433	  3.82885	  4.55596	 -0.78153	  2.46972	  0.88603	 -0.15697	  4.86127	704.20599	 23.20	
 20.006	  5.780	  3.84314	  4.67792	 -0.85912	  1.89108	  1.42720	 -0.15930	  4.87555	704.11200	 23.20	
 20.006	 -5.780	  3.84545	  4.67010	 -0.85401	  1.32093	  1.99528	 -0.15669	  4.87796	704.15198	 23.20	
 20.005	-17.433	  3.84419	  4.53330	 -0.76044	  0.78701	  2.57582	 -0.16238	  4.87181	704.11298	 23.20	
 20.004	-29.051	  3.85075	  4.28566	 -0.59062	  0.31396	  3.13940	 -0.16767	  4.87758	704.21899	 23.20	
 19.999	-40.602	  3.84847	  3.90714	 -0.32330	 -0.07842	  3.63982	 -0.16506	  4.86806	704.11200	 23.30	
 19.989	-52.269	  3.85993	  3.44327	  0.02798	 -0.40000	  4.08267	 -0.15972	  4.87978	704.09198	 23.30	
 20.009	-63.844	  3.85541	  2.90191	  0.45318	 -0.63353	  4.40551	 -0.15341	  4.87419	704.11798	 23.30	
 19.992	-75.457	  3.86347	  2.32560	  0.95508	 -0.77999	  4.61946	 -0.14940	  4.88160	704.11603	 23.30	
 19.999	-87.075	  3.85669	  1.73074	  1.50009	 -0.84801	  4.69663	 -0.15723	  4.87348	704.11298	 23.20	
 19.989	-98.733	  3.87158	  1.16170	  2.09340	 -0.82458	  4.67766	 -0.18422	  4.88623	704.10602	 23.20	
 20.005	-110.327	  3.87118	  0.64784	  2.67300	 -0.71435	  4.52244	 -0.20908	  4.88119	704.15503	 23.30	
 20.009	-121.926	  3.87152	  0.18988	  3.22619	 -0.50986	  4.24212	 -0.23684	  4.87665	704.19897	 23.30	
 19.995	-133.545	  3.86809	 -0.18796	  3.72111	 -0.22521	  3.84903	 -0.25816	  4.87086	704.14099	 23.30	
 20.000	-145.147	  3.86870	 -0.48330	  4.13345	  0.14570	  3.37012	 -0.25844	  4.87100	704.13202	 23.30	
 20.008	-156.764	  3.86884	 -0.68958	  4.43771	  0.59460	  2.82500	 -0.24896	  4.87338	704.05402	 23.30	
 20.003	-168.362	  3.87914	 -0.80611	  4.62402	  1.11283	  2.25731	 -0.25491	  4.88137	704.15997	 23.30	
 20.000	180.000	  3.88131	 -0.83993	  4.67994	  1.67496	  1.67896	 -0.25921	  4.88035	704.14899	 23.30	
