FileType=PCF
NHL=14
Date=08/24/17	09:46:52
Facility=APL
Serial=16328-2
Customer=NASA
NP=6
Mach=0.150000
Calibration=1:1
CalPts=490
TstPts=95
PortNumbering=AP Standard
Units=Torr C m/s kg/m^3 deg mm 
Theta[deg]	Phi[deg]	P1[Torr]	P2[Torr]	P3[Torr]	P4[Torr]	P5[Torr]	P6[Torr]	Pt[Torr]	Ps[Abs,Torr]	Ts[C]	
  0.000	  0.000	 11.06953	  5.63209	  5.58101	  5.61145	  5.75476	  0.09140	 11.06105	704.10699	 23.50	
  1.691	128.401	 11.07395	  5.28082	  5.91610	  6.03722	  5.30965	  0.08911	 11.06541	703.92603	 23.50	
  1.692	 77.194	 11.04364	  5.73894	  5.41848	  6.09634	  5.20593	  0.08977	 11.03371	704.14398	 23.50	
  1.699	 26.182	 11.03977	  6.11659	  5.05253	  5.83148	  5.48074	  0.08421	 11.03188	704.11200	 23.50	
  1.699	-26.182	 11.04424	  6.10825	  5.06230	  5.34037	  5.97096	  0.08488	 11.03793	704.04199	 23.50	
  1.692	-77.194	 11.06684	  5.71845	  5.45262	  5.06468	  6.27039	  0.07941	 11.05821	703.98297	 23.50	
  1.691	-128.401	 11.05840	  5.25759	  5.91919	  5.16371	  6.16794	  0.08182	 11.04650	703.96802	 23.50	
  1.700	180.000	 11.08182	  5.06469	  6.14381	  5.60505	  5.74933	  0.08856	 11.07012	704.04999	 23.50	
  3.400	180.000	 11.05737	  4.46687	  6.67641	  5.52354	  5.69411	  0.04394	 11.06365	704.05902	 23.50	
  3.388	-152.325	 11.03857	  4.56261	  6.53270	  5.01809	  6.19771	  0.04159	 11.04256	704.03900	 23.50	
  3.397	-124.529	 11.05574	  4.88968	  6.18026	  4.64369	  6.62520	  0.04438	 11.05966	704.07800	 23.50	
  3.399	-96.763	 11.03361	  5.38124	  5.62316	  4.44167	  6.82415	  0.03429	 11.03924	704.09900	 23.50	
  3.394	-69.283	 11.03834	  5.92149	  5.10132	  4.50285	  6.75784	  0.03338	 11.04545	703.83698	 23.50	
  3.400	-41.398	 11.03094	  6.41027	  4.66193	  4.79411	  6.42693	  0.04474	 11.04474	703.98901	 23.50	
  3.401	-14.021	 11.04337	  6.68572	  4.43688	  5.24748	  5.95325	  0.04623	 11.05553	704.02698	 23.50	
  3.401	 14.021	 11.04739	  6.69928	  4.43735	  5.80414	  5.40181	  0.05357	 11.05704	703.90601	 23.50	
  3.400	 41.398	 11.03957	  6.43259	  4.66893	  6.29026	  4.94760	  0.05497	 11.04767	704.07599	 23.50	
  3.394	 69.283	 11.03936	  5.98739	  5.06453	  6.59756	  4.67697	  0.05285	 11.04822	704.01599	 23.50	
  3.399	 96.763	 11.03184	  5.43369	  5.59920	  6.67696	  4.60055	  0.07007	 11.04085	703.95801	 23.50	
  3.397	124.529	 11.04994	  4.93598	  6.14844	  6.48176	  4.78750	  0.05396	 11.05691	703.97198	 23.50	
  3.388	152.325	 11.04492	  4.59524	  6.53213	  6.07104	  5.16548	  0.06652	 11.04906	703.94702	 23.50	
  5.099	161.165	 10.99998	  3.89288	  7.11871	  6.02564	  5.02194	  0.00461	 11.05489	703.91302	 23.50	
  5.109	142.013	 11.00892	  4.15746	  6.81867	  6.55684	  4.54179	  0.00901	 11.06479	703.89600	 23.50	
  5.095	123.033	 10.98804	  4.55681	  6.34690	  6.94058	  4.18952	  0.01141	 11.04297	704.10400	 23.50	
  5.105	104.191	 10.98985	  5.06353	  5.80355	  7.18542	  3.98756	  0.01483	 11.05054	704.03601	 23.50	
  5.093	 85.207	 10.99212	  5.64031	  5.22997	  7.23009	  3.95398	  0.01626	 11.05366	704.10400	 23.50	
  5.104	 66.290	 10.98180	  6.19910	  4.69509	  7.07441	  4.07466	  0.01864	 11.04589	703.99103	 23.50	
  5.094	 47.331	 11.00861	  6.71093	  4.25903	  6.76053	  4.36542	  0.01422	 11.07293	704.09198	 23.50	
  5.089	 28.397	 10.99932	  7.07117	  3.93652	  6.28731	  4.77682	  0.00769	 11.06216	704.06500	 23.50	
  5.096	  9.576	 10.98479	  7.25483	  3.76438	  5.72717	  5.29243	  0.00074	 11.05360	703.88702	 23.50	
  5.096	 -9.576	 10.99310	  7.25017	  3.77009	  5.14332	  5.88308	 -0.00377	 11.06277	704.01898	 23.50	
  5.089	-28.397	 10.98838	  7.03574	  3.94624	  4.62562	  6.42501	 -0.00939	 11.05429	704.09802	 23.50	
  5.094	-47.331	 10.98540	  6.65426	  4.26919	  4.19588	  6.90138	 -0.01544	 11.05213	704.19897	 23.50	
  5.104	-66.290	 10.99908	  6.15429	  4.72749	  3.90167	  7.25234	 -0.01946	 11.06541	704.06702	 23.50	
  5.093	-85.207	 10.97742	  5.56456	  5.26415	  3.76679	  7.38594	 -0.02264	 11.04061	704.04999	 23.50	
  5.105	-104.191	 10.98477	  4.99382	  5.85019	  3.80992	  7.34219	 -0.01518	 11.04773	704.15698	 23.50	
  5.095	-123.033	 10.98398	  4.49462	  6.39056	  4.02859	  7.08808	 -0.01032	 11.04314	704.12097	 23.50	
  5.109	-142.013	 10.99108	  4.10088	  6.84236	  4.39979	  6.67972	 -0.00262	 11.05077	703.99402	 23.50	
  5.099	-161.165	 10.98801	  3.86440	  7.12687	  4.88672	  6.14987	 -0.00085	 11.04412	704.01898	 23.50	
  5.100	180.000	 10.99660	  3.79627	  7.22628	  5.44656	  5.58422	  0.00795	 11.05151	704.03101	 23.50	
  6.800	180.000	 10.89633	  3.12788	  7.75105	  5.34345	  5.47831	 -0.05674	 11.04495	704.06500	 23.50	
  6.796	-166.229	 10.91213	  3.17542	  7.69757	  4.80197	  6.04545	 -0.06706	 11.06496	703.98901	 23.50	
  6.808	-152.311	 10.90464	  3.34079	  7.48453	  4.28628	  6.58664	 -0.07199	 11.05922	704.10602	 23.50	
  6.795	-138.383	 10.90773	  3.63175	  7.14233	  3.83702	  7.08478	 -0.06940	 11.06376	704.08099	 23.50	
  6.792	-124.591	 10.89932	  4.02005	  6.69380	  3.48168	  7.48100	 -0.07526	 11.05809	704.08197	 23.50	
  6.787	-110.754	 10.88750	  4.49224	  6.16683	  3.24098	  7.74920	 -0.09205	 11.04447	704.06702	 23.50	
  6.800	-96.985	 10.90879	  5.03543	  5.62145	  3.12406	  7.91134	 -0.09563	 11.07497	704.09302	 23.50	
  6.800	-83.015	 10.89145	  5.60638	  5.03779	  3.11768	  7.90098	 -0.10102	 11.05456	703.89801	 23.50	
  6.787	-69.246	 10.92338	  6.18570	  4.51702	  3.24798	  7.78134	 -0.10425	 11.08904	704.02002	 23.50	
  6.792	-55.409	 10.89602	  6.69949	  4.02422	  3.47468	  7.48680	 -0.09765	 11.06293	704.02698	 23.50	
  6.795	-41.617	 10.88357	  7.14553	  3.61913	  3.81744	  7.08002	 -0.08727	 11.05158	704.05298	 23.50	
  6.808	-27.689	 10.89846	  7.51202	  3.31799	  4.26475	  6.59477	 -0.07880	 11.06696	704.01898	 23.50	
  6.796	-13.771	 10.89568	  7.73119	  3.13659	  4.77443	  6.04777	 -0.07710	 11.06561	704.07300	 23.50	
  6.800	  0.000	 10.87890	  7.80250	  3.06680	  5.31657	  5.47685	 -0.07086	 11.04676	704.16803	 23.50	
  6.796	 13.771	 10.90427	  7.75495	  3.12932	  5.90093	  4.93006	 -0.06372	 11.07426	704.11499	 23.50	
  6.808	 27.689	 10.89341	  7.54757	  3.29339	  6.44151	  4.41553	 -0.06247	 11.06261	704.16901	 23.50	
  6.795	 41.617	 10.88863	  7.20015	  3.58936	  6.92038	  3.98598	 -0.05279	 11.05393	704.09601	 23.50	
  6.792	 55.409	 10.88715	  6.75864	  3.97644	  7.31363	  3.64936	 -0.04293	 11.05086	704.10699	 23.50	
  6.787	 69.246	 10.90040	  6.24780	  4.45095	  7.60419	  3.41819	 -0.04770	 11.06410	704.17200	 23.50	
  6.800	 83.015	 10.88722	  5.68716	  4.96706	  7.74705	  3.28877	 -0.05334	 11.05248	704.06201	 23.50	
  6.800	 96.985	 10.88814	  5.10991	  5.53744	  7.75180	  3.28231	 -0.05043	 11.04198	704.14600	 23.50	
  6.787	110.754	 10.90362	  4.58226	  6.10382	  7.61653	  3.40742	 -0.06343	 11.05708	704.08398	 23.50	
  6.792	124.591	 10.91758	  4.10616	  6.63786	  7.35004	  3.64334	 -0.05810	 11.06724	704.12598	 23.50	
  6.795	138.383	 10.92185	  3.70618	  7.09654	  6.95735	  3.98788	 -0.05243	 11.06585	704.00800	 23.50	
  6.808	152.311	 10.90711	  3.38992	  7.44862	  6.46640	  4.41253	 -0.05757	 11.05321	704.06097	 23.50	
  6.796	166.229	 10.90021	  3.19927	  7.67063	  5.91888	  4.91910	 -0.06409	 11.05009	704.19897	 23.50	
  8.491	168.704	 10.78284	  2.51347	  8.18995	  5.81827	  4.77455	 -0.14479	 11.06728	704.14099	 23.50	
  8.502	157.493	 10.76465	  2.65954	  7.98896	  6.36869	  4.23913	 -0.14145	 11.04979	704.12402	 23.50	
  8.494	146.194	 10.79320	  2.92698	  7.69992	  6.91223	  3.77489	 -0.12964	 11.06940	704.19098	 23.50	
  8.495	135.039	 10.78409	  3.26678	  7.29345	  7.37481	  3.36091	 -0.12970	 11.06336	704.16498	 23.50	
  8.487	123.723	 10.77089	  3.68797	  6.80004	  7.75324	  3.02898	 -0.14535	 11.05466	704.16302	 23.50	
  8.492	112.575	 10.77462	  4.17271	  6.27005	  8.04221	  2.79148	 -0.15293	 11.06005	704.05798	 23.50	
  8.510	101.220	 10.77456	  4.71362	  5.69541	  8.22232	  2.64124	 -0.14466	 11.06821	704.21100	 23.50	
  8.500	 90.000	 10.76407	  5.28322	  5.11054	  8.26781	  2.60040	 -0.13602	 11.06204	704.09198	 23.50	
  8.510	 78.780	 10.75933	  5.86627	  4.54252	  8.20528	  2.64651	 -0.13273	 11.06028	704.05402	 23.50	
  8.492	 67.425	 10.75065	  6.43012	  4.00755	  8.01195	  2.79788	 -0.12605	 11.06165	704.05298	 23.50	
  8.487	 56.277	 10.76162	  6.95918	  3.54288	  7.73387	  3.03437	 -0.11879	 11.07000	704.08099	 23.50	
  8.495	 44.961	 10.74182	  7.41828	  3.12060	  7.33049	  3.35465	 -0.12580	 11.05454	704.13800	 23.50	
  8.494	 33.806	 10.72838	  7.78663	  2.79741	  6.85103	  3.76147	 -0.14021	 11.03949	704.16803	 23.50	
  8.502	 22.507	 10.74155	  8.08476	  2.55767	  6.33003	  4.24338	 -0.14956	 11.06053	704.26703	 23.50	
  8.491	 11.296	 10.75406	  8.25897	  2.42419	  5.77271	  4.77796	 -0.15065	 11.06851	704.09003	 23.50	
  8.500	  0.000	 10.75211	  8.31047	  2.37844	  5.18430	  5.35292	 -0.15841	 11.06509	704.15698	 23.50	
  8.491	-11.296	 10.75180	  8.23835	  2.43525	  4.61594	  5.93186	 -0.16205	 11.06422	704.21399	 23.50	
  8.502	-22.507	 10.72482	  8.03270	  2.57934	  4.07558	  6.47792	 -0.16253	 11.03207	704.18298	 23.50	
  8.494	-33.806	 10.75860	  7.75404	  2.84274	  3.59976	  7.03512	 -0.16446	 11.06973	704.24701	 23.50	
  8.495	-44.961	 10.74839	  7.35217	  3.17549	  3.18193	  7.49889	 -0.17949	 11.06016	704.31403	 23.50	
  8.487	-56.277	 10.75712	  6.87436	  3.60618	  2.85918	  7.88670	 -0.19360	 11.06351	704.25598	 23.50	
  8.492	-67.425	 10.76340	  6.34308	  4.09009	  2.62128	  8.17700	 -0.20185	 11.06981	704.17499	 23.50	
  8.510	-78.780	 10.72750	  5.74430	  4.61768	  2.45656	  8.33584	 -0.20016	 11.03279	704.17102	 23.50	
  8.500	-90.000	 10.73798	  5.16678	  5.19457	  2.41803	  8.39605	 -0.19267	 11.04245	704.11798	 23.50	
  8.510	-101.220	 10.75418	  4.60051	  5.78398	  2.46555	  8.34832	 -0.18833	 11.05555	704.11798	 23.50	
  8.492	-112.575	 10.75270	  4.05947	  6.35315	  2.62496	  8.15819	 -0.17579	 11.04929	704.16803	 23.50	
  8.487	-123.723	 10.74144	  3.57992	  6.86923	  2.86784	  7.86049	 -0.15570	 11.03580	704.15399	 23.50	
  8.495	-135.039	 10.75992	  3.16672	  7.35237	  3.19941	  7.48969	 -0.14337	 11.05576	703.96301	 23.50	
  8.494	-146.194	 10.75644	  2.84894	  7.72978	  3.62109	  7.01931	 -0.15035	 11.04917	704.15399	 23.50	
  8.502	-157.493	 10.76492	  2.61444	  8.02381	  4.11816	  6.48447	 -0.15454	 11.05788	704.14600	 23.50	
  8.491	-168.704	 10.74058	  2.47922	  8.17619	  4.64360	  5.90796	 -0.14179	 11.02914	704.06201	 23.50	
  8.500	180.000	 10.77983	  2.44734	  8.26076	  5.22816	  5.35048	 -0.13626	 11.06746	704.05798	 23.50	
 10.200	180.000	 10.58785	  1.76439	  8.71378	  5.06627	  5.18196	 -0.22482	 11.05790	704.07300	 23.50	
 10.191	-170.497	 10.57438	  1.78924	  8.66139	  4.48568	  5.75655	 -0.22907	 11.04413	704.12903	 23.50	
 10.210	-161.034	 10.58733	  1.89599	  8.52649	  3.94018	  6.33900	 -0.24409	 11.05904	704.16803	 23.50	
 10.194	-151.526	 10.59007	  2.09006	  8.27689	  3.42255	  6.90593	 -0.24307	 11.06979	704.07300	 23.50	
 10.190	-142.105	 10.56693	  2.35587	  7.92635	  2.95681	  7.40058	 -0.23302	 11.04387	703.99402	 23.50	
 10.215	-132.646	 10.58615	  2.70620	  7.53069	  2.56557	  7.86640	 -0.22538	 11.06539	704.19397	 23.50	
 10.203	-123.092	 10.56398	  3.12338	  7.02865	  2.23101	  8.23572	 -0.23848	 11.04374	704.05298	 23.50	
 10.192	-113.678	 10.55273	  3.60299	  6.48592	  1.98252	  8.52216	 -0.26217	 11.03324	704.12402	 23.50	
 10.208	-104.249	 10.57885	  4.13940	  5.93609	  1.81502	  8.75516	 -0.28264	 11.06703	704.09802	 23.50	
 10.210	-94.801	 10.56830	  4.70136	  5.34560	  1.72621	  8.85437	 -0.29018	 11.05920	704.19897	 23.50	
 10.210	-85.199	 10.55067	  5.29194	  4.74120	  1.72111	  8.84581	 -0.29784	 11.04471	704.13000	 23.50	
 10.208	-75.751	 10.57270	  5.89366	  4.18470	  1.80678	  8.76524	 -0.30465	 11.06917	704.16498	 23.50	
 10.192	-66.322	 10.54968	  6.45478	  3.64757	  1.97068	  8.53975	 -0.29722	 11.04141	704.09198	 23.50	
 10.203	-56.908	 10.55468	  7.00551	  3.15795	  2.21510	  8.24770	 -0.28945	 11.05171	704.14099	 23.50	
 10.215	-47.354	 10.54948	  7.50180	  2.71973	  2.53725	  7.86155	 -0.27104	 11.04511	704.18500	 23.60	
 10.190	-37.895	 10.54631	  7.92015	  2.36390	  2.92634	  7.41033	 -0.25555	 11.04061	704.06799	 23.50	
 10.194	-28.474	 10.57356	  8.28951	  2.08128	  3.38476	  6.92219	 -0.25430	 11.07378	704.10400	 23.50	
 10.210	-18.966	 10.54830	  8.53555	  1.85731	  3.88786	  6.34733	 -0.25167	 11.05209	704.11298	 23.50	
 10.191	 -9.503	 10.54890	  8.69043	  1.73531	  4.43391	  5.77422	 -0.25169	 11.04550	704.07300	 23.50	
 10.200	  0.000	 10.54117	  8.74832	  1.68439	  5.00394	  5.18745	 -0.25063	 11.04551	704.01398	 23.60	
 10.191	  9.503	 10.55743	  8.72245	  1.71953	  5.60480	  4.61110	 -0.24814	 11.06261	704.20300	 23.60	
 10.210	 18.966	 10.55587	  8.58254	  1.82855	  6.18292	  4.06054	 -0.24997	 11.05979	704.13397	 23.60	
 10.194	 28.474	 10.53893	  8.32241	  2.03445	  6.72592	  3.55531	 -0.24379	 11.04149	704.12598	 23.60	
 10.190	 37.895	 10.56487	  8.01260	  2.30973	  7.26042	  3.10838	 -0.22537	 11.06983	704.07599	 23.60	
 10.215	 47.354	 10.55490	  7.59555	  2.64651	  7.71311	  2.70893	 -0.20630	 11.06039	703.96802	 23.60	
 10.203	 56.908	 10.56056	  7.11485	  3.07172	  8.09530	  2.40067	 -0.19868	 11.05877	704.16498	 23.60	
 10.192	 66.322	 10.53838	  6.56342	  3.54482	  8.36585	  2.16418	 -0.20569	 11.03025	704.12097	 23.50	
 10.208	 75.751	 10.57098	  6.01865	  4.07291	  8.60026	  2.00028	 -0.21890	 11.05905	704.05402	 23.60	
 10.210	 85.199	 10.56216	  5.42746	  4.62724	  8.70131	  1.91012	 -0.22826	 11.04166	704.04700	 23.60	
 10.210	 94.801	 10.56702	  4.83066	  5.22209	  8.70594	  1.90883	 -0.23484	 11.04218	704.15198	 23.50	
 10.208	104.249	 10.60064	  4.27773	  5.82628	  8.63142	  1.99821	 -0.24706	 11.07089	704.04199	 23.60	
 10.192	113.678	 10.58823	  3.74425	  6.38819	  8.41609	  2.16327	 -0.24501	 11.05289	704.17200	 23.50	
 10.203	123.092	 10.60957	  3.25624	  6.94847	  8.14722	  2.39887	 -0.24228	 11.07302	704.12097	 23.50	
 10.215	132.646	 10.58847	  2.80933	  7.43510	  7.76014	  2.70122	 -0.22335	 11.04997	704.14801	 23.50	
 10.190	142.105	 10.59729	  2.45000	  7.87121	  7.30915	  3.09916	 -0.21071	 11.05838	704.25500	 23.50	
 10.194	151.526	 10.60440	  2.16174	  8.22926	  6.80095	  3.55386	 -0.21599	 11.06432	704.19397	 23.50	
 10.210	161.034	 10.60459	  1.94462	  8.50046	  6.24864	  4.05632	 -0.22511	 11.06769	704.13202	 23.50	
 10.191	170.497	 10.58853	  1.81950	  8.64701	  5.66482	  4.59719	 -0.23053	 11.05150	704.17902	 23.50	
 11.899	171.783	 10.36918	  1.12311	  9.08462	  5.48733	  4.40302	 -0.32299	 11.05573	704.01099	 23.50	
 11.890	163.610	 10.35678	  1.23750	  8.92706	  6.05760	  3.85034	 -0.31024	 11.04135	703.95099	 23.50	
 11.889	155.445	 10.39922	  1.42470	  8.72872	  6.64798	  3.34849	 -0.30576	 11.08274	704.05798	 23.50	
 11.909	147.299	 10.37239	  1.65945	  8.39730	  7.17650	  2.85438	 -0.29717	 11.05633	704.07599	 23.50	
 11.902	139.148	 10.35512	  1.97643	  7.99347	  7.65495	  2.42782	 -0.29996	 11.03492	704.10602	 23.50	
 11.894	130.867	 10.38321	  2.36986	  7.55523	  8.10791	  2.07329	 -0.32213	 11.06349	704.08398	 23.50	
 11.897	122.732	 10.37584	  2.79883	  7.04716	  8.47536	  1.76412	 -0.33884	 11.06065	704.03003	 23.50	
 11.903	114.597	 10.34957	  3.27455	  6.48554	  8.75648	  1.51362	 -0.35143	 11.03582	704.20801	 23.50	
 11.893	106.346	 10.35012	  3.81160	  5.90506	  8.97441	  1.34487	 -0.35312	 11.04040	704.08099	 23.50	
 11.892	 98.155	 10.35525	  4.37906	  5.31753	  9.10718	  1.24598	 -0.34314	 11.05652	704.04999	 23.50	
 11.900	 90.000	 10.33468	  4.94628	  4.72266	  9.13509	  1.20948	 -0.33507	 11.04029	704.06097	 23.50	
 11.892	 81.845	 10.34166	  5.54482	  4.14854	  9.09105	  1.25277	 -0.31620	 11.05140	704.05298	 23.50	
 11.893	 73.654	 10.33368	  6.12645	  3.59637	  8.95024	  1.35867	 -0.30456	 11.05252	704.05402	 23.50	
 11.903	 65.403	 10.33047	  6.69976	  3.07252	  8.72473	  1.53411	 -0.28722	 11.05260	704.07501	 23.50	
 11.897	 57.268	 10.32772	  7.23614	  2.60330	  8.42013	  1.77716	 -0.27975	 11.05693	703.90399	 23.50	
 11.894	 49.133	 10.31986	  7.71627	  2.18522	  8.03561	  2.08417	 -0.28089	 11.04441	703.95502	 23.50	
 11.902	 40.852	 10.31131	  8.15038	  1.81357	  7.59269	  2.43933	 -0.30145	 11.04665	704.14801	 23.50	
 11.909	 32.701	 10.31894	  8.52140	  1.51956	  7.10268	  2.86416	 -0.32587	 11.05545	704.10699	 23.50	
 11.889	 24.555	 10.32477	  8.81368	  1.29167	  6.55902	  3.35487	 -0.33952	 11.05404	704.14600	 23.50	
 11.890	 16.390	 10.29544	  8.99522	  1.12324	  5.97523	  3.86334	 -0.34578	 11.02715	704.09302	 23.60	
 11.899	  8.217	 10.29593	  9.11986	  1.02403	  5.39760	  4.40782	 -0.33788	 11.02633	704.00500	 23.60	
 11.900	  0.000	 10.31988	  9.17375	  1.00070	  4.81393	  5.00520	 -0.33663	 11.05219	704.14899	 23.60	
 11.899	 -8.217	 10.32973	  9.12832	  1.04042	  4.24187	  5.59653	 -0.33730	 11.05933	704.15198	 23.60	
 11.890	-16.390	 10.35578	  9.00764	  1.15887	  3.70184	  6.18965	 -0.33981	 11.08794	704.11200	 23.60	
 11.889	-24.555	 10.32742	  8.75834	  1.33265	  3.16489	  6.74620	 -0.33673	 11.05414	704.12903	 23.60	
 11.909	-32.701	 10.32351	  8.45169	  1.57603	  2.68724	  7.27785	 -0.33856	 11.05149	704.16803	 23.50	
 11.902	-40.852	 10.33133	  8.07472	  1.89376	  2.27111	  7.76456	 -0.34195	 11.05404	704.25598	 23.50	
 11.894	-49.133	 10.33313	  7.61586	  2.27717	  1.89505	  8.20776	 -0.35665	 11.05065	704.17200	 23.50	
 11.897	-57.268	 10.33426	  7.11555	  2.70776	  1.58520	  8.58505	 -0.37032	 11.05671	704.16101	 23.50	
 11.903	-65.403	 10.31551	  6.55663	  3.18679	  1.34102	  8.87413	 -0.38536	 11.04159	704.03699	 23.50	
 11.893	-73.654	 10.31340	  5.97158	  3.71866	  1.17947	  9.08306	 -0.38922	 11.03610	704.24799	 23.50	
 11.892	-81.845	 10.32680	  5.38725	  4.27883	  1.08346	  9.21705	 -0.39121	 11.04322	704.03003	 23.50	
 11.900	-90.000	 10.34369	  4.80292	  4.86655	  1.05082	  9.27252	 -0.38957	 11.06016	704.10901	 23.50	
 11.892	-98.155	 10.35627	  4.22615	  5.46097	  1.08961	  9.23036	 -0.38395	 11.06802	704.07300	 23.50	
 11.893	-106.346	 10.34109	  3.66128	  6.03781	  1.18944	  9.08696	 -0.36735	 11.04996	704.09900	 23.50	
 11.903	-114.597	 10.33192	  3.12580	  6.60948	  1.35426	  8.86213	 -0.34809	 11.04068	704.16302	 23.50	
 11.897	-122.732	 10.34497	  2.65632	  7.15109	  1.59928	  8.56838	 -0.32660	 11.04960	704.16803	 23.60	
 11.894	-130.867	 10.33026	  2.23504	  7.62863	  1.91629	  8.17772	 -0.31013	 11.02903	704.11200	 23.50	
 11.902	-139.148	 10.33895	  1.86932	  8.07855	  2.30183	  7.73583	 -0.31648	 11.03443	704.14099	 23.50	
 11.909	-147.299	 10.35421	  1.56981	  8.45944	  2.72899	  7.26206	 -0.32963	 11.05249	704.00299	 23.50	
 11.889	-155.445	 10.36022	  1.35699	  8.75151	  3.21702	  6.72638	 -0.33816	 11.05474	704.03699	 23.50	
 11.890	-163.610	 10.37238	  1.20093	  8.97309	  3.75516	  6.15927	 -0.33420	 11.06840	704.01398	 23.50	
 11.899	-171.783	 10.38359	  1.10525	  9.11563	  4.31508	  5.58360	 -0.32715	 11.07797	704.09802	 23.50	
 11.900	180.000	 10.35953	  1.07857	  9.13132	  4.88349	  4.98575	 -0.31842	 11.05210	704.07800	 23.50	
 13.600	180.000	 10.07821	  0.37889	  9.50010	  4.66446	  4.75633	 -0.41612	 11.03087	704.07800	 23.60	
 13.608	-172.853	 10.09370	  0.39282	  9.48707	  4.10082	  5.33971	 -0.42050	 11.05106	704.05798	 23.60	
 13.611	-165.583	 10.09743	  0.46850	  9.37834	  3.53456	  5.93090	 -0.42708	 11.06008	704.17102	 23.60	
 13.601	-158.353	 10.08662	  0.61405	  9.17716	  2.99210	  6.51083	 -0.42763	 11.04975	704.15997	 23.60	
 13.609	-151.210	 10.08944	  0.80808	  8.92470	  2.49748	  7.06285	 -0.42626	 11.05451	704.13397	 23.60	
 13.611	-143.999	 10.07781	  1.06430	  8.58294	  2.03822	  7.57500	 -0.40566	 11.04504	704.09302	 23.60	
 13.601	-136.825	 10.08787	  1.38486	  8.19324	  1.63251	  8.06227	 -0.38839	 11.05283	704.12598	 23.60	
 13.596	-129.640	 10.07936	  1.75565	  7.73174	  1.26775	  8.48982	 -0.38159	 11.04207	704.10101	 23.60	
 13.611	-122.431	 10.07433	  2.17238	  7.22961	  0.96508	  8.85532	 -0.39448	 11.04330	704.08502	 23.60	
 13.604	-115.211	 10.06516	  2.64506	  6.68763	  0.72993	  9.14682	 -0.41715	 11.03772	704.14398	 23.60	
 13.595	-108.042	 10.08979	  3.16340	  6.13500	  0.55410	  9.39707	 -0.43801	 11.05896	704.06799	 23.60	
 13.607	-100.793	 10.06410	  3.70499	  5.53365	  0.42424	  9.53886	 -0.44710	 11.03681	703.97101	 23.50	
 13.601	-93.617	 10.07563	  4.27997	  4.95047	  0.36157	  9.63235	 -0.44754	 11.05794	704.00800	 23.60	
 13.601	-86.383	 10.06301	  4.86752	  4.35466	  0.36139	  9.62756	 -0.43867	 11.04694	704.08502	 23.50	
 13.607	-79.207	 10.06028	  5.46001	  3.78516	  0.41699	  9.55478	 -0.43236	 11.04884	704.13800	 23.50	
 13.595	-71.958	 10.04816	  6.04499	  3.23519	  0.54103	  9.38972	 -0.42393	 11.03676	704.06799	 23.50	
 13.604	-64.789	 10.05239	  6.62484	  2.71981	  0.71251	  9.16970	 -0.42168	 11.03912	703.98901	 23.50	
 13.611	-57.569	 10.05406	  7.17659	  2.23945	  0.94538	  8.87546	 -0.41504	 11.04293	704.05298	 23.50	
 13.596	-50.360	 10.06019	  7.69136	  1.80786	  1.23564	  8.51753	 -0.41217	 11.05314	704.10901	 23.50	
 13.601	-43.175	 10.06222	  8.15755	  1.42781	  1.59270	  8.09270	 -0.40331	 11.05492	704.03400	 23.50	
 13.611	-36.001	 10.03975	  8.55238	  1.09276	  1.99185	  7.60008	 -0.39738	 11.03286	704.09601	 23.50	
 13.609	-28.790	 10.07896	  8.92974	  0.82103	  2.44200	  7.11205	 -0.39932	 11.07688	704.02802	 23.50	
 13.601	-21.647	 10.06630	  9.19066	  0.60928	  2.92842	  6.55566	 -0.40110	 11.06159	703.98798	 23.50	
 13.611	-14.417	 10.05347	  9.38585	  0.44465	  3.45803	  5.96627	 -0.39813	 11.05250	704.04999	 23.50	
 13.608	 -7.147	 10.04505	  9.50313	  0.35091	  4.01561	  5.37333	 -0.39203	 11.04087	703.98602	 23.60	
 13.600	  0.000	 10.06249	  9.56544	  0.32241	  4.59264	  4.80711	 -0.40053	 11.06050	704.06702	 23.60	
 13.608	  7.147	 10.04999	  9.53226	  0.33484	  5.17373	  4.22038	 -0.40433	 11.05186	704.06097	 23.60	
 13.611	 14.417	 10.03091	  9.40894	  0.41864	  5.75319	  3.65295	 -0.40841	 11.03344	704.03101	 23.60	
 13.601	 21.647	 10.04599	  9.23880	  0.56443	  6.34129	  3.13207	 -0.40924	 11.05339	703.94299	 23.60	
 13.609	 28.790	 10.05046	  8.99091	  0.75856	  6.90535	  2.63533	 -0.40373	 11.05925	703.89600	 23.60	
 13.611	 36.001	 10.04019	  8.65479	  1.01284	  7.42201	  2.17976	 -0.38684	 11.04819	703.94397	 23.60	
 13.601	 43.175	 10.05295	  8.26996	  1.32915	  7.90546	  1.78941	 -0.36865	 11.05730	703.97803	 23.60	
 13.596	 50.360	 10.03605	  7.80765	  1.69012	  8.32794	  1.43165	 -0.35538	 11.03370	704.03400	 23.60	
 13.611	 57.569	 10.04266	  7.31756	  2.10384	  8.71481	  1.12717	 -0.35460	 11.04350	704.01398	 23.60	
 13.604	 64.789	 10.05099	  6.78267	  2.57388	  9.02556	  0.89107	 -0.36104	 11.04598	704.20203	 23.50	
 13.595	 71.958	 10.05515	  6.21578	  3.08664	  9.25620	  0.71883	 -0.37403	 11.04410	704.08099	 23.50	
 13.607	 79.207	 10.07125	  5.63782	  3.63400	  9.43073	  0.59591	 -0.39398	 11.05478	704.13800	 23.60	
 13.601	 86.383	 10.07250	  5.04695	  4.19951	  9.50650	  0.53520	 -0.41409	 11.04777	704.09900	 23.60	
 13.601	 93.617	 10.09490	  4.46648	  4.79904	  9.52805	  0.53696	 -0.43244	 11.06388	704.01300	 23.60	
 13.607	100.793	 10.09147	  3.88780	  5.38835	  9.45143	  0.59052	 -0.44152	 11.05124	704.06702	 23.60	
 13.595	108.042	 10.08795	  3.33451	  5.97315	  9.28963	  0.71306	 -0.43556	 11.03314	704.10699	 23.60	
 13.604	115.211	 10.09082	  2.81043	  6.55041	  9.07185	  0.87790	 -0.44234	 11.04189	704.09003	 23.60	
 13.611	122.431	 10.12293	  2.33401	  7.12091	  8.80102	  1.11601	 -0.43632	 11.07191	704.11200	 23.60	
 13.596	129.640	 10.11123	  1.90331	  7.62343	  8.41239	  1.42261	 -0.41306	 11.04578	704.02002	 23.60	
 13.601	136.825	 10.10766	  1.51348	  8.09122	  7.98120	  1.77260	 -0.38968	 11.04143	704.06702	 23.50	
 13.611	143.999	 10.10689	  1.17426	  8.50676	  7.51434	  2.15927	 -0.38044	 11.04453	704.00000	 23.50	
 13.609	151.210	 10.10244	  0.89584	  8.85207	  6.98979	  2.60644	 -0.38152	 11.04083	704.03601	 23.60	
 13.601	158.353	 10.09846	  0.68016	  9.13040	  6.43314	  3.09827	 -0.39393	 11.03928	704.02698	 23.60	
 13.611	165.583	 10.09980	  0.51631	  9.34291	  5.85832	  3.62650	 -0.40237	 11.04760	703.99701	 23.50	
 13.608	172.853	 10.10074	  0.41530	  9.47367	  5.26882	  4.18522	 -0.41239	 11.05168	703.97400	 23.50	
 15.298	173.587	  9.81978	 -0.25462	  9.83621	  5.04512	  3.94928	 -0.49525	 11.07130	703.90100	 23.50	
 15.291	167.167	  9.79392	 -0.17194	  9.69677	  5.61100	  3.38587	 -0.48831	 11.04023	703.89502	 23.50	
 15.307	160.676	  9.80192	 -0.03214	  9.51739	  6.20129	  2.85485	 -0.48254	 11.04095	704.14398	 23.50	
 15.300	154.261	  9.81521	  0.16060	  9.27456	  6.77813	  2.35437	 -0.47172	 11.05162	704.08899	 23.60	
 15.288	147.854	  9.84000	  0.40556	  8.97580	  7.32738	  1.90269	 -0.46236	 11.07925	703.94897	 23.60	
 15.293	141.428	  9.82346	  0.69830	  8.58461	  7.81549	  1.48380	 -0.46440	 11.05711	703.96802	 23.60	
 15.299	134.985	  9.81596	  1.03965	  8.14744	  8.28055	  1.09951	 -0.47435	 11.05345	704.13000	 23.60	
 15.305	128.583	  9.80241	  1.42581	  7.65571	  8.68790	  0.76463	 -0.49325	 11.04206	704.10101	 23.60	
 15.309	122.142	  9.80489	  1.85707	  7.14263	  9.05170	  0.48461	 -0.50161	 11.05017	704.13702	 23.60	
 15.304	115.711	  9.79538	  2.33184	  6.58679	  9.33767	  0.26053	 -0.50750	 11.03955	704.04199	 23.60	
 15.297	109.291	  9.79120	  2.83973	  6.01616	  9.56567	  0.08505	 -0.50186	 11.03913	704.03400	 23.60	
 15.293	102.897	  9.79211	  3.38059	  5.43274	  9.74145	 -0.04511	 -0.49653	 11.05147	704.08398	 23.60	
 15.293	 96.458	  9.78635	  3.94364	  4.84050	  9.83649	 -0.11657	 -0.49138	 11.04777	704.03900	 23.60	
 15.300	 90.000	  9.78553	  4.52430	  4.25201	  9.87271	 -0.14364	 -0.48402	 11.05873	704.08502	 23.60	
 15.293	 83.542	  9.75160	  5.10428	  3.66128	  9.79990	 -0.10816	 -0.47004	 11.02513	704.09900	 23.60	
 15.293	 77.103	  9.76529	  5.70085	  3.11231	  9.70877	 -0.03235	 -0.45162	 11.04756	703.98901	 23.60	
 15.297	 70.709	  9.75300	  6.27316	  2.58537	  9.52209	  0.10627	 -0.43495	 11.03783	704.01599	 23.60	
 15.304	 64.289	  9.74446	  6.83258	  2.08275	  9.27572	  0.28158	 -0.42475	 11.04193	703.97198	 23.60	
 15.309	 57.858	  9.74526	  7.37453	  1.62335	  8.98135	  0.50105	 -0.41451	 11.05363	703.98798	 23.60	
 15.305	 51.417	  9.73516	  7.87134	  1.20508	  8.60596	  0.78307	 -0.41214	 11.04616	703.96802	 23.60	
 15.299	 45.015	  9.73084	  8.32476	  0.84197	  8.17893	  1.11907	 -0.42605	 11.04330	704.09900	 23.60	
 15.293	 38.572	  9.74095	  8.74204	  0.52573	  7.70767	  1.51222	 -0.43272	 11.04910	703.98901	 23.60	
 15.288	 32.146	  9.74766	  9.10007	  0.25843	  7.20276	  1.93803	 -0.43640	 11.05873	704.06097	 23.60	
 15.300	 25.739	  9.73885	  9.38767	  0.03229	  6.66504	  2.39054	 -0.44240	 11.05385	704.00598	 23.60	
 15.307	 19.324	  9.75763	  9.63498	 -0.14082	  6.10476	  2.89933	 -0.43972	 11.07472	704.01398	 23.60	
 15.291	 12.833	  9.73839	  9.76882	 -0.25372	  5.50645	  3.43385	 -0.43340	 11.04218	703.96002	 23.60	
 15.298	  6.413	  9.73764	  9.86296	 -0.32593	  4.92459	  3.98545	 -0.42442	 11.04395	703.98901	 23.60	
 15.300	  0.000	  9.75104	  9.90047	 -0.34675	  4.34424	  4.56680	 -0.42257	 11.05862	704.00500	 23.60	
 15.298	 -6.413	  9.74674	  9.85264	 -0.31746	  3.77113	  5.14325	 -0.41636	 11.04945	704.00500	 23.60	
 15.291	-12.833	  9.74302	  9.73644	 -0.22947	  3.21928	  5.72047	 -0.42060	 11.04253	704.05103	 23.60	
 15.307	-19.324	  9.75342	  9.56313	 -0.09612	  2.67794	  6.31680	 -0.42531	 11.05128	703.99902	 23.60	
 15.300	-25.739	  9.75909	  9.32189	  0.09256	  2.18927	  6.87377	 -0.42844	 11.05686	703.94397	 23.60	
 15.288	-32.146	  9.76102	  9.00987	  0.33583	  1.73472	  7.40501	 -0.42629	 11.05607	704.03101	 23.60	
 15.293	-38.572	  9.74361	  8.62297	  0.61892	  1.30292	  7.89914	 -0.42058	 11.03949	704.09601	 23.60	
 15.299	-45.015	  9.74403	  8.19742	  0.95447	  0.92066	  8.36360	 -0.41943	 11.03814	704.05902	 23.60	
 15.305	-51.417	  9.75238	  7.72884	  1.33975	  0.59964	  8.77520	 -0.41865	 11.04474	704.11298	 23.60	
 15.309	-57.858	  9.76265	  7.22127	  1.76859	  0.32246	  9.13900	 -0.41684	 11.05872	704.11603	 23.60	
 15.304	-64.289	  9.76542	  6.67113	  2.23807	  0.09210	  9.43829	 -0.41966	 11.06026	704.05798	 23.60	
 15.297	-70.709	  9.74648	  6.08095	  2.73822	 -0.08739	  9.65675	 -0.41670	 11.03734	704.05298	 23.60	
 15.293	-77.103	  9.77136	  5.51260	  3.27793	 -0.21813	  9.85324	 -0.42681	 11.06726	704.20203	 23.60	
 15.293	-83.542	  9.75039	  4.90690	  3.82753	 -0.29342	  9.92800	 -0.43596	 11.03491	704.07001	 23.60	
 15.300	-90.000	  9.75155	  4.31345	  4.40529	 -0.32033	  9.96099	 -0.45910	 11.03713	704.13000	 23.60	
 15.293	-96.458	  9.76324	  3.73947	  5.00148	 -0.29124	  9.92822	 -0.47786	 11.04617	704.09900	 23.60	
 15.293	-102.897	  9.77651	  3.18550	  5.59794	 -0.21107	  9.83586	 -0.48775	 11.05644	704.07300	 23.60	
 15.297	-109.291	  9.76014	  2.64805	  6.16542	 -0.08021	  9.64322	 -0.48564	 11.03593	704.04401	 23.60	
 15.304	-115.711	  9.77002	  2.15120	  6.73486	  0.10227	  9.41244	 -0.47222	 11.04494	703.95697	 23.60	
 15.309	-122.142	  9.76779	  1.68737	  7.27122	  0.33955	  9.10443	 -0.45677	 11.03545	703.91803	 23.60	
 15.305	-128.583	  9.77603	  1.27066	  7.78222	  0.63013	  8.74376	 -0.45023	 11.03942	704.06702	 23.60	
 15.299	-134.985	  9.78659	  0.89446	  8.25579	  0.95861	  8.34336	 -0.45734	 11.05629	704.05298	 23.60	
 15.293	-141.428	  9.78354	  0.57358	  8.66804	  1.35563	  7.86461	 -0.48464	 11.04815	704.09003	 23.60	
 15.288	-147.854	  9.79899	  0.30274	  9.03894	  1.79149	  7.36504	 -0.50729	 11.06234	703.92902	 23.60	
 15.300	-154.261	  9.78708	  0.07770	  9.32796	  2.25543	  6.82093	 -0.51174	 11.05028	703.76300	 23.60	
 15.307	-160.676	  9.79069	 -0.09487	  9.56524	  2.75849	  6.26650	 -0.51532	 11.05485	703.84198	 23.60	
 15.291	-167.167	  9.78884	 -0.20731	  9.72172	  3.30858	  5.67356	 -0.50681	 11.04170	703.82501	 23.60	
 15.298	-173.587	  9.77363	 -0.27390	  9.80633	  3.86028	  5.08299	 -0.49817	 11.02554	703.97400	 23.60	
 15.300	180.000	  9.81621	 -0.29149	  9.87783	  4.45000	  4.52599	 -0.49106	 11.06978	703.91199	 23.60	
 17.000	180.000	  9.46135	 -0.94158	 10.16735	  4.18698	  4.24757	 -0.55909	 11.05644	703.93701	 23.60	
 16.990	-174.179	  9.46563	 -0.92755	 10.14469	  3.61980	  4.82306	 -0.55451	 11.05982	703.91602	 23.60	
 17.009	-168.383	  9.44982	 -0.88016	 10.04845	  3.05695	  5.39413	 -0.55850	 11.04966	703.80298	 23.60	
 17.000	-162.596	  9.43570	 -0.77442	  9.88530	  2.51317	  5.97034	 -0.56152	 11.03312	703.90997	 23.60	
 16.990	-156.759	  9.44887	 -0.62701	  9.68716	  2.01095	  6.54241	 -0.56709	 11.04892	703.89001	 23.60	
 16.995	-150.919	  9.43758	 -0.43022	  9.40541	  1.52935	  7.08632	 -0.56327	 11.04210	704.04498	 23.60	
 16.988	-145.161	  9.42688	 -0.18959	  9.06982	  1.08607	  7.60452	 -0.55021	 11.02710	703.97101	 23.60	
 17.014	-139.343	  9.43679	  0.08634	  8.70259	  0.67628	  8.11014	 -0.52897	 11.04057	703.78497	 23.60	
 17.007	-133.546	  9.43666	  0.41537	  8.27059	  0.32057	  8.55483	 -0.51368	 11.04065	703.88501	 23.60	
 17.001	-127.699	  9.44928	  0.78713	  7.80606	 -0.00041	  8.97712	 -0.50704	 11.05496	704.11798	 23.60	
 17.006	-121.937	  9.43560	  1.19730	  7.28784	 -0.27900	  9.32820	 -0.50222	 11.04278	703.99902	 23.60	
 17.002	-116.134	  9.42883	  1.64775	  6.74795	 -0.50666	  9.63040	 -0.50752	 11.04387	703.91602	 23.60	
 17.001	-110.310	  9.42292	  2.13419	  6.18674	 -0.68980	  9.87459	 -0.50509	 11.04133	703.96399	 23.60	
 16.988	-104.517	  9.43357	  2.65979	  5.61977	 -0.81385	 10.05927	 -0.49373	 11.05101	703.96399	 23.60	
 17.008	-98.662	  9.44861	  3.20601	  5.04052	 -0.91745	 10.21089	 -0.46642	 11.07625	703.92700	 23.60	
 16.996	-92.909	  9.42276	  3.75645	  4.45068	 -0.95103	 10.24317	 -0.43726	 11.04570	704.03900	 23.60	
 16.996	-87.091	  9.41050	  4.33300	  3.86410	 -0.95044	 10.23842	 -0.40781	 11.03794	704.03400	 23.60	
 17.012	-81.253	  9.40925	  4.91891	  3.29635	 -0.91614	 10.19124	 -0.39292	 11.04625	704.04498	 23.60	
 16.988	-75.483	  9.42582	  5.51048	  2.76637	 -0.82817	 10.08743	 -0.38413	 11.06160	704.07599	 23.60	
 17.001	-69.690	  9.41230	  6.08666	  2.24108	 -0.70305	  9.90186	 -0.38022	 11.05036	704.01300	 23.60	
 17.002	-63.866	  9.41159	  6.65877	  1.74935	 -0.52530	  9.66359	 -0.38234	 11.05438	704.03003	 23.60	
 17.006	-58.063	  9.40600	  7.19896	  1.29462	 -0.30224	  9.35689	 -0.39466	 11.04230	704.13202	 23.60	
 17.001	-52.301	  9.41400	  7.72352	  0.87797	 -0.03411	  9.01304	 -0.40265	 11.05029	704.08197	 23.60	
 17.007	-46.454	  9.39996	  8.19904	  0.49359	  0.27275	  8.59755	 -0.40565	 11.03279	704.07001	 23.60	
 17.014	-40.657	  9.39516	  8.63795	  0.15282	  0.61705	  8.15717	 -0.40737	 11.03277	704.16901	 23.60	
 16.988	-34.839	  9.39907	  9.03145	 -0.13684	  1.02224	  7.66647	 -0.41765	 11.03499	704.10602	 23.60	
 16.995	-29.081	  9.41884	  9.38860	 -0.38781	  1.45856	  7.16204	 -0.42013	 11.05233	704.20801	 23.60	
 16.990	-23.241	  9.41001	  9.66574	 -0.59637	  1.92688	  6.60780	 -0.42090	 11.04490	704.17902	 23.60	
 17.000	-17.404	  9.38721	  9.86785	 -0.76106	  2.41838	  6.03345	 -0.42007	 11.02247	704.12903	 23.60	
 17.009	-11.617	  9.40579	 10.05319	 -0.88428	  2.95432	  5.46424	 -0.40811	 11.05054	704.25897	 23.60	
 16.990	 -5.821	  9.40676	 10.14793	 -0.94365	  3.50825	  4.89094	 -0.40448	 11.04702	704.22498	 23.60	
 17.000	  0.000	  9.40385	 10.18961	 -0.97714	  4.06984	  4.31471	 -0.40651	 11.04933	704.08502	 23.60	
 16.990	  5.821	  9.40146	 10.16692	 -0.96581	  4.65731	  3.73798	 -0.40978	 11.05149	704.10400	 23.60	
 17.009	 11.617	  9.37833	 10.07340	 -0.91127	  5.22055	  3.18433	 -0.40650	 11.03172	704.25098	 23.60	
 17.000	 17.404	  9.37461	  9.92748	 -0.80433	  5.79526	  2.65577	 -0.41430	 11.02484	704.10400	 23.60	
 16.990	 23.241	  9.38921	  9.73674	 -0.65787	  6.38056	  2.15229	 -0.42375	 11.04502	704.17999	 23.60	
 16.995	 29.081	  9.38554	  9.46748	 -0.46487	  6.93037	  1.67866	 -0.43938	 11.03802	704.30103	 23.60	
 16.988	 34.839	  9.40199	  9.16275	 -0.22935	  7.46391	  1.25147	 -0.44716	 11.05395	704.11298	 23.60	
 17.014	 40.657	  9.37361	  8.77296	  0.03379	  7.95162	  0.83125	 -0.45331	 11.03476	704.13000	 23.60	
 17.007	 46.454	  9.38015	  8.35140	  0.35766	  8.41395	  0.46938	 -0.45781	 11.03982	704.03601	 23.60	
 17.001	 52.301	  9.38150	  7.88115	  0.72719	  8.82546	  0.15638	 -0.45694	 11.02930	704.00800	 23.60	
 17.006	 58.063	  9.40489	  7.39726	  1.13242	  9.20938	 -0.11497	 -0.46720	 11.05859	704.14398	 23.60	
 17.002	 63.866	  9.39460	  6.85815	  1.57198	  9.50586	 -0.34119	 -0.47328	 11.04190	704.15997	 23.60	
 17.001	 69.690	  9.41183	  6.31112	  2.05693	  9.77747	 -0.52666	 -0.48247	 11.06389	704.17902	 23.60	
 16.988	 75.483	  9.41828	  5.73353	  2.58146	  9.96006	 -0.65352	 -0.49394	 11.05381	704.08502	 23.60	
 17.012	 81.253	  9.42024	  5.15766	  3.11166	 10.09178	 -0.74895	 -0.49547	 11.05344	704.05902	 23.60	
 16.996	 87.091	  9.41215	  4.55930	  3.67393	 10.14158	 -0.79244	 -0.49210	 11.03036	704.20300	 23.60	
 16.996	 92.909	  9.43124	  3.98099	  4.26119	 10.16123	 -0.79422	 -0.49690	 11.04271	704.02698	 23.60	
 17.008	 98.662	  9.44571	  3.41862	  4.84337	 10.12276	 -0.76470	 -0.49802	 11.05925	704.18500	 23.60	
 16.988	104.517	  9.44964	  2.86763	  5.43283	  9.99139	 -0.66752	 -0.50891	 11.04805	704.02301	 23.60	
 17.001	110.310	  9.45396	  2.34079	  6.01700	  9.81301	 -0.53741	 -0.52194	 11.04039	704.15503	 23.60	
 17.002	116.134	  9.45575	  1.84641	  6.58667	  9.56694	 -0.35254	 -0.53775	 11.03524	704.07300	 23.60	
 17.006	121.937	  9.48032	  1.38509	  7.15101	  9.28965	 -0.13051	 -0.54248	 11.05642	703.91901	 23.60	
 17.001	127.699	  9.46713	  0.95804	  7.66076	  8.92544	  0.12973	 -0.54078	 11.03856	704.01099	 23.60	
 17.007	133.546	  9.46850	  0.56780	  8.15073	  8.52684	  0.43820	 -0.53603	 11.04411	704.07001	 23.60	
 17.014	139.343	  9.48307	  0.22177	  8.60680	  8.08776	  0.79165	 -0.53348	 11.05768	704.04401	 23.60	
 16.988	145.161	  9.48315	 -0.06875	  8.99849	  7.58508	  1.20216	 -0.53160	 11.04768	704.13702	 23.60	
 16.995	150.919	  9.46865	 -0.32533	  9.33038	  7.06277	  1.62512	 -0.53868	 11.03794	703.96002	 23.60	
 16.990	156.759	  9.47658	 -0.54134	  9.63079	  6.52108	  2.09115	 -0.55065	 11.05127	704.03900	 23.60	
 17.000	162.596	  9.47689	 -0.71024	  9.86521	  5.94392	  2.60118	 -0.55652	 11.05648	703.94397	 23.60	
 17.009	168.383	  9.45832	 -0.83708	 10.01904	  5.35530	  3.12328	 -0.55850	 11.04393	704.20203	 23.60	
 16.990	174.179	  9.45177	 -0.90311	 10.11040	  4.77383	  3.66833	 -0.55951	 11.03623	704.15997	 23.60	
 18.709	174.675	  9.08573	 -1.53136	 10.38501	  4.49491	  3.38526	 -0.58910	 11.05026	704.14899	 23.60	
 18.703	169.441	  9.07794	 -1.46110	 10.28110	  5.06068	  2.85288	 -0.59304	 11.02990	704.23700	 23.60	
 18.691	164.085	  9.10390	 -1.35511	 10.15172	  5.65788	  2.33487	 -0.59881	 11.05094	704.13202	 23.60	
 18.706	158.818	  9.09526	 -1.21333	  9.93994	  6.22459	  1.82193	 -0.59670	 11.04537	704.12598	 23.60	
 18.695	153.537	  9.10748	 -1.02171	  9.68290	  6.77863	  1.36533	 -0.60288	 11.04742	704.19397	 23.60	
 18.704	148.255	  9.09596	 -0.80163	  9.35766	  7.30273	  0.92316	 -0.58801	 11.03568	704.01599	 23.60	
 18.698	142.952	  9.09991	 -0.53895	  8.99368	  7.81927	  0.50973	 -0.58514	 11.03992	704.02698	 23.60	
 18.699	137.625	  9.09984	 -0.23079	  8.57819	  8.29884	  0.14240	 -0.57984	 11.03613	704.02197	 23.60	
 18.705	132.343	  9.09428	  0.10762	  8.12456	  8.72126	 -0.18414	 -0.56394	 11.02919	704.21002	 23.60	
 18.713	127.067	  9.10252	  0.48519	  7.64389	  9.13105	 -0.48498	 -0.55850	 11.04854	704.25000	 23.60	
 18.700	121.794	  9.10470	  0.90646	  7.12341	  9.48138	 -0.73297	 -0.54663	 11.05130	704.13702	 23.60	
 18.698	116.504	  9.08241	  1.35000	  6.56346	  9.76052	 -0.94933	 -0.51649	 11.03066	704.29797	 23.60	
 18.707	111.165	  9.08542	  1.83443	  6.00160	 10.01761	 -1.12439	 -0.49711	 11.05079	704.12299	 23.60	
 18.690	105.863	  9.08376	  2.34855	  5.42524	 10.19990	 -1.24933	 -0.48245	 11.04850	704.17200	 23.60	
 18.696	100.583	  9.06745	  2.88271	  4.83584	 10.32016	 -1.33555	 -0.46900	 11.03588	704.20300	 23.60	
 18.700	 95.309	  9.05100	  3.43398	  4.25345	 10.38046	 -1.38682	 -0.45859	 11.02281	704.26398	 23.60	
 18.700	 90.000	  9.05707	  4.01018	  3.68233	 10.41448	 -1.40066	 -0.47256	 11.03927	704.11499	 23.60	
 18.700	 84.691	  9.05410	  4.59077	  3.12220	 10.38523	 -1.37850	 -0.49063	 11.04557	704.23700	 23.60	
 18.696	 79.417	  9.04834	  5.16616	  2.57735	 10.29623	 -1.32074	 -0.49395	 11.04365	704.17700	 23.60	
 18.690	 74.137	  9.03088	  5.72921	  2.05828	 10.14232	 -1.22290	 -0.49688	 11.03528	704.18298	 23.60	
 18.707	 68.835	  9.03548	  6.30329	  1.55112	  9.95979	 -1.09723	 -0.50361	 11.05557	704.32703	 23.60	
 18.698	 63.496	  9.01782	  6.84623	  1.08161	  9.68764	 -0.91715	 -0.49169	 11.03736	704.25098	 23.60	
 18.700	 58.206	  9.00125	  7.36571	  0.64742	  9.36705	 -0.70714	 -0.49187	 11.02708	704.30603	 23.60	
 18.713	 52.933	  9.01356	  7.88643	  0.24644	  9.02053	 -0.44874	 -0.48265	 11.04677	704.21899	 23.60	
 18.705	 47.657	  9.00063	  8.34248	 -0.10290	  8.60086	 -0.13997	 -0.46952	 11.02979	704.22198	 23.70	
 18.699	 42.375	  8.99890	  8.77180	 -0.42489	  8.15691	  0.19275	 -0.45092	 11.02767	704.11298	 23.60	
 18.698	 37.048	  9.01624	  9.17575	 -0.70422	  7.68969	  0.57107	 -0.42986	 11.05116	704.17102	 23.60	
 18.704	 31.745	  9.00597	  9.51222	 -0.94540	  7.16191	  0.98710	 -0.40700	 11.03638	704.28699	 23.70	
 18.695	 26.463	  9.01090	  9.80179	 -1.14186	  6.62690	  1.43333	 -0.38985	 11.03904	704.17999	 23.60	
 18.706	 21.182	  9.01483	 10.04908	 -1.31697	  6.07830	  1.89563	 -0.38522	 11.05369	704.23102	 23.70	
 18.691	 15.915	  9.01034	 10.21708	 -1.43375	  5.50431	  2.40266	 -0.37680	 11.03769	704.19897	 23.70	
 18.703	 10.559	  8.98924	 10.32330	 -1.52529	  4.91004	  2.92185	 -0.37276	 11.01163	704.23901	 23.70	
 18.709	  5.325	  9.01251	 10.41743	 -1.57741	  4.35694	  3.46484	 -0.37569	 11.03842	704.17200	 23.70	
 18.700	  0.000	  9.02511	 10.44407	 -1.58490	  3.78147	  4.03792	 -0.36813	 11.04598	704.28101	 23.70	
 18.709	 -5.325	  9.02159	 10.40281	 -1.56037	  3.22079	  4.60431	 -0.36915	 11.04006	704.24799	 23.70	
 18.703	-10.559	  9.00790	 10.29649	 -1.49605	  2.68130	  5.15953	 -0.37796	 11.01706	704.24701	 23.70	
 18.691	-15.915	  9.02792	 10.16642	 -1.39367	  2.15155	  5.75530	 -0.38507	 11.03703	704.39301	 23.70	
 18.706	-21.182	  9.04573	  9.98828	 -1.25915	  1.66154	  6.31972	 -0.39328	 11.05871	704.27502	 23.70	
 18.695	-26.463	  9.05180	  9.73100	 -1.07098	  1.19393	  6.86983	 -0.39521	 11.06168	704.24200	 23.70	
 18.704	-31.745	  9.03409	  9.40656	 -0.85985	  0.74934	  7.39650	 -0.39293	 11.04917	704.26703	 23.70	
 18.698	-37.048	  9.03040	  9.03165	 -0.59158	  0.34789	  7.89505	 -0.38250	 11.03694	704.28699	 23.70	
 18.699	-42.375	  9.04103	  8.63181	 -0.29315	 -0.02018	  8.37454	 -0.38669	 11.04712	704.20599	 23.70	
 18.705	-47.657	  9.02481	  8.16899	  0.03740	 -0.35485	  8.79625	 -0.36854	 11.03374	704.36499	 23.70	
 18.713	-52.933	  9.04072	  7.69707	  0.40945	 -0.64639	  9.20675	 -0.35408	 11.05496	704.26501	 23.70	
 18.700	-58.206	  9.05696	  7.18820	  0.81613	 -0.89640	  9.56425	 -0.34778	 11.07075	704.09900	 23.70	
 18.698	-63.496	  9.02754	  6.62204	  1.26045	 -1.09147	  9.81551	 -0.32988	 11.02724	704.14801	 23.70	
 18.707	-68.835	  9.03955	  6.06550	  1.73843	 -1.26642	 10.07174	 -0.32514	 11.04181	704.04700	 23.70	
 18.690	-74.137	  9.05376	  5.49088	  2.25024	 -1.40054	 10.27147	 -0.32724	 11.05703	704.09198	 23.70	
 18.696	-79.417	  9.03518	  4.89929	  2.76742	 -1.49790	 10.38788	 -0.33258	 11.03863	704.12903	 23.70	
 18.700	-84.691	  9.03191	  4.31950	  3.31083	 -1.55076	 10.45797	 -0.34457	 11.02956	704.02698	 23.70	
 18.700	-90.000	  9.03368	  3.74185	  3.87950	 -1.56634	 10.48038	 -0.36844	 11.02903	704.13800	 23.70	
 18.700	-95.309	  9.05101	  3.18491	  4.45876	 -1.55164	 10.46605	 -0.39424	 11.04643	704.12598	 23.70	
 18.696	-100.583	  9.03783	  2.64485	  5.02571	 -1.48796	 10.36291	 -0.42385	 11.01935	704.00299	 23.70	
 18.690	-105.863	  9.04554	  2.12577	  5.60504	 -1.38809	 10.22898	 -0.46028	 11.02725	704.12097	 23.70	
 18.707	-111.165	  9.06103	  1.62546	  6.18273	 -1.26097	 10.05854	 -0.49499	 11.04612	704.03101	 23.70	
 18.698	-116.504	  9.05462	  1.14973	  6.73253	 -1.07994	  9.79432	 -0.51121	 11.03115	704.13202	 23.70	
 18.700	-121.794	  9.04996	  0.71348	  7.25983	 -0.86771	  9.49061	 -0.53004	 11.02486	704.16901	 23.70	
 18.713	-127.067	  9.08231	  0.30645	  7.79711	 -0.61233	  9.17000	 -0.53888	 11.06632	704.13702	 23.70	
 18.705	-132.343	  9.06836	 -0.05033	  8.25819	 -0.30548	  8.75211	 -0.54740	 11.04141	704.00299	 23.70	
 18.699	-137.625	  9.07229	 -0.37442	  8.69812	  0.03745	  8.31323	 -0.56293	 11.04397	704.17999	 23.70	
 18.698	-142.952	  9.07802	 -0.66535	  9.10296	  0.40847	  7.84146	 -0.57315	 11.05389	704.27802	 23.70	
 18.704	-148.255	  9.05665	 -0.90991	  9.43297	  0.82179	  7.31570	 -0.56790	 11.03050	704.25598	 23.70	
 18.695	-153.537	  9.08244	 -1.11645	  9.75422	  1.28375	  6.79279	 -0.57484	 11.05542	704.09003	 23.70	
 18.706	-158.818	  9.08213	 -1.29222	 10.00327	  1.75564	  6.23925	 -0.56919	 11.05361	704.12903	 23.70	
 18.691	-164.085	  9.05762	 -1.40664	 10.15856	  2.25744	  5.66284	 -0.56917	 11.02075	704.31201	 23.70	
 18.703	-169.441	  9.06583	 -1.49943	 10.30375	  2.79691	  5.08047	 -0.57123	 11.02924	704.10101	 23.70	
 18.709	-174.675	  9.07250	 -1.54552	 10.38650	  3.34046	  4.51784	 -0.57467	 11.03678	704.15698	 23.70	
 18.700	180.000	  9.07469	 -1.55024	 10.40473	  3.90723	  3.94968	 -0.57984	 11.03023	704.18298	 23.70	
 20.400	180.000	  8.68010	 -2.14613	 10.63028	  3.61616	  3.64096	 -0.56725	 11.04613	704.08197	 23.70	
 20.401	-175.153	  8.66283	 -2.15070	 10.60564	  3.05642	  4.18524	 -0.55644	 11.03693	704.05298	 23.70	
 20.407	-170.264	  8.66135	 -2.11102	 10.53702	  2.51349	  4.75368	 -0.54030	 11.03698	704.17700	 23.70	
 20.410	-165.423	  8.65521	 -2.03025	 10.41081	  1.98058	  5.32440	 -0.52695	 11.03067	704.34900	 23.70	
 20.392	-160.496	  8.68028	 -1.91981	 10.26087	  1.48754	  5.90801	 -0.53253	 11.06039	704.26703	 23.70	
 20.401	-155.705	  8.66277	 -1.78012	 10.02705	  1.01626	  6.44334	 -0.52949	 11.04029	704.32703	 23.70	
 20.405	-150.835	  8.66179	 -1.60485	  9.75732	  0.55437	  6.99503	 -0.54433	 11.04788	704.27899	 23.70	
 20.397	-145.903	  8.65887	 -1.38214	  9.42692	  0.13722	  7.51398	 -0.55640	 11.03950	704.28998	 23.70	
 20.392	-141.062	  8.64964	 -1.12914	  9.04844	 -0.24552	  7.99423	 -0.56275	 11.02333	704.22400	 23.70	
 20.396	-136.227	  8.66288	 -0.84526	  8.65336	 -0.59814	  8.47339	 -0.56701	 11.04161	704.32001	 23.70	
 20.408	-131.372	  8.65177	 -0.53477	  8.20023	 -0.92743	  8.89770	 -0.55550	 11.03443	704.19897	 23.70	
 20.410	-126.511	  8.65801	 -0.17741	  7.72775	 -1.20674	  9.29051	 -0.54460	 11.03870	704.28998	 23.70	
 20.400	-121.604	  8.64660	  0.21834	  7.20609	 -1.44542	  9.62432	 -0.52350	 11.02310	704.36798	 23.70	
 20.403	-116.741	  8.65214	  0.64551	  6.68111	 -1.65842	  9.93784	 -0.49976	 11.03744	704.27899	 23.70	
 20.413	-111.900	  8.63466	  1.08877	  6.12492	 -1.83694	 10.18023	 -0.46335	 11.02715	704.13702	 23.70	
 20.398	-107.004	  8.63624	  1.57120	  5.56634	 -1.97548	 10.38496	 -0.43090	 11.03205	704.21399	 23.70	
 20.394	-102.132	  8.62235	  2.07470	  4.99183	 -2.07481	 10.51957	 -0.39234	 11.01883	704.19397	 23.70	
 20.403	-97.332	  8.62720	  2.59338	  4.43177	 -2.14483	 10.62883	 -0.36669	 11.03459	704.17902	 23.70	
 20.392	-92.440	  8.61966	  3.13586	  3.86006	 -2.17398	 10.66940	 -0.34797	 11.02497	704.19397	 23.70	
 20.392	-87.560	  8.60948	  3.69118	  3.29129	 -2.17559	 10.66608	 -0.33182	 11.01771	704.30298	 23.70	
 20.403	-82.668	  8.60321	  4.25867	  2.74254	 -2.15164	 10.62543	 -0.31830	 11.01503	704.22699	 23.70	
 20.394	-77.868	  8.60454	  4.82514	  2.22148	 -2.08676	 10.53675	 -0.31328	 11.01461	704.02197	 23.70	
 20.398	-72.996	  8.60556	  5.40727	  1.70882	 -1.98539	 10.39798	 -0.31265	 11.02525	704.21399	 23.70	
 20.413	-68.100	  8.62153	  5.99152	  1.22567	 -1.85305	 10.22133	 -0.31853	 11.04046	704.04498	 23.70	
 20.403	-63.259	  8.61264	  6.54112	  0.76480	 -1.67896	  9.96045	 -0.32631	 11.02212	704.12903	 23.70	
 20.400	-58.396	  8.64433	  7.10598	  0.33893	 -1.48453	  9.70321	 -0.32640	 11.06602	704.17700	 23.70	
 20.410	-53.489	  8.63464	  7.62807	 -0.06952	 -1.25207	  9.35565	 -0.34321	 11.05400	704.11603	 23.80	
 20.408	-48.628	  8.60576	  8.09140	 -0.42831	 -0.97215	  8.94661	 -0.35217	 11.01980	704.17700	 23.80	
 20.396	-43.773	  8.60368	  8.54144	 -0.74940	 -0.65481	  8.51608	 -0.35640	 11.00915	704.27002	 23.80	
 20.392	-38.938	  8.61473	  8.97256	 -1.04389	 -0.31545	  8.06907	 -0.36625	 11.02647	704.14099	 23.80	
 20.397	-34.097	  8.62122	  9.35817	 -1.30954	  0.05152	  7.59180	 -0.35085	 11.03651	704.21600	 23.70	
 20.405	-29.165	  8.61768	  9.70019	 -1.54518	  0.46289	  7.07201	 -0.36946	 11.03408	704.24103	 23.70	
 20.401	-24.295	  8.61089	  9.97690	 -1.73350	  0.90600	  6.52114	 -0.36044	 11.02202	704.25598	 23.70	
 20.392	-19.504	  8.63967	 10.23695	 -1.88005	  1.37567	  5.99960	 -0.36353	 11.05725	704.06702	 23.80	
 20.410	-14.577	  8.62898	 10.42497	 -2.01905	  1.86626	  5.43222	 -0.36076	 11.05610	704.18597	 23.80	
 20.407	 -9.736	  8.60861	 10.53212	 -2.10170	  2.38600	  4.84709	 -0.34280	 11.03006	704.10101	 23.80	
 20.401	 -4.847	  8.61483	 10.62528	 -2.16064	  2.92361	  4.29173	 -0.34628	 11.04865	704.25098	 23.80	
 20.400	  0.000	  8.59759	 10.63531	 -2.17523	  3.46291	  3.72735	 -0.34489	 11.02871	704.26703	 23.80	
 20.401	  4.847	  8.60227	 10.63550	 -2.17123	  4.03144	  3.17482	 -0.33650	 11.03565	704.10699	 23.80	
 20.407	  9.736	  8.57922	 10.55483	 -2.13387	  4.58479	  2.63177	 -0.33291	 11.01698	704.24799	 23.80	
 20.410	 14.577	  8.59373	 10.46342	 -2.05741	  5.16011	  2.12624	 -0.33376	 11.03627	704.14001	 23.80	
 20.392	 19.504	  8.57779	 10.26851	 -1.93400	  5.72909	  1.62100	 -0.34581	 11.01092	704.20801	 23.80	
 20.401	 24.295	  8.57694	 10.06398	 -1.79933	  6.27248	  1.16354	 -0.34936	 11.01674	704.09198	 23.80	
 20.405	 29.165	  8.60066	  9.83006	 -1.63276	  6.83781	  0.71476	 -0.35998	 11.04881	704.10101	 23.80	
 20.397	 34.097	  8.58676	  9.49436	 -1.41704	  7.36218	  0.28529	 -0.37999	 11.02969	704.04700	 23.80	
 20.392	 38.938	  8.59162	  9.14051	 -1.16926	  7.86259	 -0.08978	 -0.40810	 11.03677	704.09802	 23.80	
 20.396	 43.773	  8.58619	  8.73589	 -0.89554	  8.31851	 -0.43992	 -0.43616	 11.02596	704.13702	 23.80	
 20.408	 48.628	  8.59815	  8.31599	 -0.58523	  8.77334	 -0.75908	 -0.46153	 11.04524	704.12598	 23.80	
 20.410	 53.489	  8.58367	  7.82618	 -0.23393	  9.16373	 -1.04866	 -0.48293	 11.02834	704.15698	 23.80	
 20.400	 58.396	  8.60205	  7.33014	  0.15776	  9.53416	 -1.28867	 -0.48865	 11.04147	704.14398	 23.80	
 20.403	 63.259	  8.60514	  6.80228	  0.57872	  9.83812	 -1.48778	 -0.49633	 11.04041	704.38800	 23.80	
 20.413	 68.100	  8.60864	  6.26044	  1.01981	 10.09887	 -1.66611	 -0.48566	 11.04136	704.25897	 23.80	
 20.398	 72.996	  8.59644	  5.68839	  1.50505	 10.27983	 -1.79045	 -0.48956	 11.01468	704.24103	 23.80	
 20.394	 77.868	  8.62690	  5.13721	  2.01972	 10.45896	 -1.88716	 -0.47094	 11.03691	704.24402	 23.80	
 20.403	 82.668	  8.63977	  4.58249	  2.53651	 10.57057	 -1.95663	 -0.45714	 11.04596	704.19299	 23.80	
 20.392	 87.560	  8.65207	  4.01160	  3.08728	 10.62930	 -1.98912	 -0.44265	 11.04806	704.14001	 23.80	
 20.392	 92.440	  8.64566	  3.43696	  3.64913	 10.61759	 -1.98536	 -0.41882	 11.02872	704.19397	 23.80	
 20.403	 97.332	  8.65072	  2.87946	  4.22260	 10.57811	 -1.96364	 -0.41418	 11.03006	704.32397	 23.80	
 20.394	102.132	  8.66789	  2.35099	  4.79570	 10.49459	 -1.89909	 -0.42175	 11.03774	704.20599	 23.80	
 20.398	107.004	  8.66768	  1.82686	  5.36996	 10.34347	 -1.80472	 -0.43164	 11.02566	704.27802	 23.80	
 20.413	111.900	  8.67264	  1.33194	  5.94267	 10.15271	 -1.67619	 -0.44216	 11.02569	704.18500	 23.80	
 20.403	116.741	  8.68758	  0.87437	  6.50517	  9.92264	 -1.51339	 -0.46887	 11.03766	704.12299	 23.80	
 20.400	121.604	  8.68411	  0.43022	  7.04219	  9.62453	 -1.31792	 -0.49813	 11.03126	704.24103	 23.80	
 20.410	126.511	  8.70126	  0.01717	  7.58106	  9.29944	 -1.08125	 -0.53346	 11.04766	704.34302	 23.80	
 20.408	131.372	  8.72039	 -0.35152	  8.08948	  8.92847	 -0.80603	 -0.56394	 11.06526	704.24200	 23.80	
 20.396	136.227	  8.71878	 -0.68496	  8.54799	  8.49194	 -0.48829	 -0.57358	 11.05564	704.27301	 23.80	
 20.392	141.062	  8.70506	 -0.98586	  8.95524	  8.02497	 -0.15024	 -0.59952	 11.03897	704.39301	 23.80	
 20.397	145.903	  8.68357	 -1.25051	  9.31666	  7.51972	  0.22395	 -0.60901	 11.01672	704.28101	 23.80	
 20.405	150.835	  8.68000	 -1.48882	  9.65809	  6.98866	  0.63708	 -0.60755	 11.01983	704.29797	 23.80	
 20.401	155.705	  8.67581	 -1.68498	  9.94412	  6.44432	  1.07654	 -0.60319	 11.01375	704.32898	 23.80	
 20.392	160.496	  8.68029	 -1.84298	 10.18408	  5.90884	  1.53247	 -0.59947	 11.02413	704.20203	 23.80	
 20.410	165.423	  8.68315	 -1.97862	 10.38510	  5.33221	  2.03350	 -0.59174	 11.03684	704.21600	 23.80	
 20.407	170.264	  8.67897	 -2.06508	 10.51504	  4.75897	  2.54974	 -0.58692	 11.03883	704.17200	 23.80	
 20.401	175.153	  8.66831	 -2.12204	 10.58504	  4.18232	  3.08104	 -0.58205	 11.02696	704.09302	 23.80	
  0.141	 45.000	 11.02281	  5.64215	  5.52950	  5.61815	  5.70479	  0.09088	 11.00725	704.16302	 23.80	
  4.001	128.691	 11.02295	  4.71477	  6.31724	  6.57440	  4.64028	  0.04352	 11.03644	704.21899	 23.80	
  4.002	 76.995	 11.01153	  5.84372	  5.13653	  6.83016	  4.39896	  0.04732	 11.02889	704.12299	 23.80	
  4.002	 25.892	 11.01597	  6.77889	  4.29333	  6.09257	  5.05460	  0.03757	 11.03860	704.17102	 23.80	
  4.002	-25.892	 10.99262	  6.74687	  4.28961	  4.89868	  6.22015	  0.02367	 11.01557	704.12903	 23.80	
  4.002	-76.995	 10.99223	  5.77688	  5.14479	  4.21701	  6.98388	  0.01908	 11.01488	704.21698	 23.80	
  4.001	-128.691	 11.02763	  4.66901	  6.33669	  4.48018	  6.71935	  0.02486	 11.04468	704.13800	 23.80	
  4.000	180.000	 11.02877	  4.22761	  6.86624	  5.49853	  5.64191	  0.03543	 11.04147	704.28198	 23.80	
  8.000	180.000	 10.81040	  2.64692	  8.10912	  5.26318	  5.38735	 -0.11128	 11.05262	704.24200	 23.80	
  7.991	-152.370	 10.80442	  2.90045	  7.78022	  4.01050	  6.68654	 -0.12950	 11.04906	704.19098	 23.80	
  7.997	-124.550	 10.79910	  3.68837	  6.85190	  3.06542	  7.73978	 -0.12847	 11.04682	704.04401	 23.80	
  8.006	-96.837	 10.77328	  4.87393	  5.56351	  2.63277	  8.22702	 -0.16407	 11.02980	704.17999	 23.80	
  7.988	-69.228	 10.76575	  6.20762	  4.26038	  2.77378	  8.05681	 -0.17350	 11.02471	704.24701	 23.80	
  7.997	-41.563	 10.77088	  7.37375	  3.22398	  3.44309	  7.27460	 -0.14802	 11.03429	704.27899	 23.80	
  8.008	-13.821	 10.76132	  8.04745	  2.64776	  4.56196	  6.04114	 -0.13712	 11.02527	704.17700	 23.80	
  8.008	 13.821	 10.77911	  8.08319	  2.63983	  5.89492	  4.72805	 -0.12149	 11.05053	704.21399	 23.80	
  7.997	 41.563	 10.78417	  7.44581	  3.18089	  7.11479	  3.62378	 -0.10290	 11.04932	704.21002	 23.80	
  7.988	 69.228	 10.77297	  6.30665	  4.18352	  7.90770	  2.94754	 -0.10151	 11.03073	704.21899	 23.80	
  8.006	 96.837	 10.81597	  4.99656	  5.48984	  8.11931	  2.81097	 -0.11087	 11.06792	704.29303	 23.80	
  7.997	124.550	 10.79980	  3.78627	  6.76935	  7.61463	  3.21648	 -0.11619	 11.04099	704.30603	 23.80	
  7.991	152.370	 10.79018	  2.95331	  7.72515	  6.55990	  4.13283	 -0.10805	 11.02222	704.34900	 23.80	
 12.009	161.059	 10.33099	  1.24362	  8.87637	  6.22841	  3.66053	 -0.31236	 11.02164	704.32703	 23.80	
 12.013	142.081	 10.34158	  1.81852	  8.15661	  7.49731	  2.53905	 -0.29902	 11.03181	704.25098	 23.80	
 12.006	123.113	 10.35263	  2.74946	  7.07000	  8.47342	  1.73900	 -0.34091	 11.04864	704.30103	 23.80	
 12.007	104.200	 10.32079	  3.93275	  5.73911	  9.03210	  1.26565	 -0.35685	 11.03226	704.29303	 23.80	
 11.989	 85.301	 10.31418	  5.27802	  4.36919	  9.13295	  1.18668	 -0.32907	 11.03374	704.35199	 23.80	
 12.013	 66.294	 10.29288	  6.62924	  3.09510	  8.75446	  1.47245	 -0.29376	 11.02363	704.28101	 23.80	
 12.012	 47.388	 10.29615	  7.82185	  2.07030	  7.95059	  2.12501	 -0.28785	 11.03980	704.27002	 23.80	
 11.990	 28.440	 10.29102	  8.68972	  1.35642	  6.81682	  3.08764	 -0.33602	 11.03975	704.20801	 23.80	
 11.991	  9.464	 10.27928	  9.12618	  0.99985	  5.48014	  4.30501	 -0.34062	 11.01941	704.27197	 23.80	
 11.991	 -9.464	 10.30548	  9.12260	  1.01638	  4.13481	  5.67463	 -0.34114	 11.04751	704.18799	 23.80	
 11.990	-28.440	 10.30894	  8.63484	  1.40716	  2.90383	  7.00868	 -0.34010	 11.04667	704.24799	 23.80	
 12.012	-47.388	 10.31460	  7.73326	  2.15335	  1.93051	  8.13545	 -0.35805	 11.05375	704.34900	 23.80	
 12.013	-66.294	 10.29820	  6.49711	  3.21422	  1.28382	  8.91642	 -0.38409	 11.03652	704.28101	 23.80	
 11.989	-85.301	 10.32512	  5.13787	  4.51178	  1.02841	  9.27297	 -0.39023	 11.05219	704.37402	 23.80	
 12.007	-104.200	 10.32200	  3.78326	  5.87941	  1.11667	  9.14863	 -0.37545	 11.04213	704.25098	 23.80	
 12.006	-123.113	 10.31045	  2.60352	  7.16720	  1.57200	  8.55448	 -0.32369	 11.02884	704.32599	 23.80	
 12.013	-142.081	 10.31671	  1.71925	  8.22865	  2.41617	  7.57179	 -0.32407	 11.03009	704.39001	 23.80	
 12.009	-161.059	 10.34607	  1.19811	  8.93258	  3.55530	  6.33723	 -0.33632	 11.05773	704.31000	 23.80	
 16.000	180.000	  9.64213	 -0.55658	  9.96752	  4.32878	  4.40129	 -0.52265	 11.02442	704.33197	 23.80	
 15.990	-165.604	  9.66815	 -0.45586	  9.83183	  3.02581	  5.76921	 -0.53497	 11.06251	704.24701	 23.80	
 16.002	-151.165	  9.64350	 -0.07780	  9.28804	  1.83026	  7.07594	 -0.53795	 11.04215	704.24103	 23.80	
 16.002	-136.836	  9.64059	  0.56158	  8.43628	  0.84107	  8.25050	 -0.49013	 11.04096	704.31799	 23.90	
 15.995	-122.439	  9.64555	  1.46487	  7.32288	  0.10802	  9.18187	 -0.47733	 11.04588	704.24799	 23.90	
 15.993	-107.966	  9.62653	  2.58781	  6.01398	 -0.37664	  9.80334	 -0.49827	 11.03535	704.40802	 23.90	
 16.005	-93.629	  9.60648	  3.85568	  4.64565	 -0.58251	 10.06692	 -0.44746	 11.02608	704.28699	 23.90	
 15.992	-79.234	  9.60234	  5.22370	  3.30921	 -0.52374	  9.98983	 -0.40518	 11.03421	704.35498	 23.90	
 16.009	-64.774	  9.61355	  6.59502	  2.08789	 -0.20289	  9.57048	 -0.39723	 11.04804	704.41302	 23.90	
 15.997	-50.364	  9.61623	  7.83906	  1.06305	  0.40356	  8.79351	 -0.41627	 11.04387	704.42200	 23.90	
 15.997	-36.045	  9.61527	  8.86383	  0.25700	  1.24313	  7.74827	 -0.41580	 11.04476	704.42102	 23.90	
 16.000	-21.597	  9.61068	  9.58685	 -0.28796	  2.31429	  6.49566	 -0.42780	 11.04416	704.44397	 23.90	
 16.003	 -7.169	  9.59762	  9.95619	 -0.57159	  3.56516	  5.13090	 -0.41746	 11.03588	704.28198	 23.90	
 16.003	  7.169	  9.59241	  9.97776	 -0.58920	  4.90792	  3.78619	 -0.41432	 11.03508	704.44202	 23.90	
 16.000	 21.597	  9.58192	  9.63575	 -0.34179	  6.25918	  2.53652	 -0.43372	 11.02957	704.35498	 23.90	
 15.997	 36.045	  9.59293	  8.96463	  0.16547	  7.52955	  1.46037	 -0.44640	 11.03774	704.28101	 23.90	
 15.997	 50.364	  9.59210	  7.98912	  0.91755	  8.61004	  0.59051	 -0.43766	 11.04016	704.53699	 23.90	
 16.009	 64.774	  9.59801	  6.78274	  1.91475	  9.40833	 -0.01213	 -0.44316	 11.03819	704.42401	 23.90	
 15.992	 79.234	  9.63243	  5.45376	  3.13636	  9.89302	 -0.34525	 -0.47589	 11.05888	704.45898	 23.90	
 16.005	 93.629	  9.61626	  4.07212	  4.46500	  9.96863	 -0.41518	 -0.49760	 11.01982	704.38000	 23.90	
 15.993	107.966	  9.65594	  2.78771	  5.84969	  9.73112	 -0.21735	 -0.51099	 11.03924	704.38501	 23.90	
 15.995	122.439	  9.65685	  1.63612	  7.16414	  9.11094	  0.24706	 -0.52694	 11.02735	704.43103	 23.90	
 16.002	136.836	  9.67331	  0.70347	  8.32720	  8.20432	  0.96755	 -0.49792	 11.04016	704.33502	 23.90	
 16.002	151.165	  9.67332	  0.01877	  9.22044	  7.04654	  1.92293	 -0.49864	 11.04623	704.41302	 23.90	
 15.990	165.604	  9.66837	 -0.40268	  9.78504	  5.70867	  3.10337	 -0.51733	 11.04200	704.28900	 23.90	
 20.003	168.362	  8.76862	 -1.88754	 10.40859	  5.02432	  2.44875	 -0.59210	 11.02030	704.39099	 23.90	
 20.008	156.764	  8.79089	 -1.59470	  9.98365	  6.36540	  1.28692	 -0.61358	 11.04110	704.32703	 23.90	
 20.000	145.147	  8.80118	 -1.08766	  9.25740	  7.61942	  0.28173	 -0.60755	 11.04592	704.32898	 23.90	
 19.995	133.545	  8.80004	 -0.37237	  8.27220	  8.69802	 -0.52871	 -0.58019	 11.03720	704.22198	 23.90	
 20.009	121.926	  8.79638	  0.51452	  7.10519	  9.59479	 -1.17719	 -0.51001	 11.05075	704.17499	 23.90	
 20.005	110.327	  8.78236	  1.59442	  5.80798	 10.19503	 -1.58705	 -0.45796	 11.04589	704.33398	 23.90	
 19.989	 98.733	  8.77356	  2.81456	  4.45975	 10.52912	 -1.81124	 -0.42384	 11.04791	704.37201	 23.90	
 19.999	 87.075	  8.73594	  4.12046	  3.11760	 10.55786	 -1.83993	 -0.43332	 11.02686	704.36798	 23.90	
 19.992	 75.457	  8.74138	  5.46984	  1.87864	 10.34709	 -1.68663	 -0.48815	 11.05093	704.34497	 23.90	
 20.009	 63.844	  8.71381	  6.76082	  0.75604	  9.83580	 -1.36586	 -0.49443	 11.04155	704.29498	 23.90	
 19.989	 52.269	  8.71547	  7.96812	 -0.18616	  9.06297	 -0.83099	 -0.47742	 11.05208	704.42700	 23.90	
 19.999	 40.602	  8.69069	  8.98687	 -0.94498	  8.02343	 -0.08667	 -0.42153	 11.03548	704.29498	 23.90	
 20.004	 29.051	  8.71458	  9.81375	 -1.49604	  6.84960	  0.85201	 -0.36196	 11.06162	704.33502	 23.90	
 20.005	 17.433	  8.68281	 10.31110	 -1.84882	  5.53402	  1.93082	 -0.34408	 11.01846	704.42700	 23.90	
 20.006	  5.780	  8.70240	 10.58493	 -2.02603	  4.20955	  3.15591	 -0.34429	 11.04373	704.39899	 23.90	
 20.006	 -5.780	  8.71185	 10.56336	 -2.00417	  2.90673	  4.46079	 -0.35114	 11.03952	704.36902	 23.90	
 20.005	-17.433	  8.71443	 10.26122	 -1.80477	  1.67414	  5.79307	 -0.36696	 11.03475	704.35199	 23.90	
 20.004	-29.051	  8.72235	  9.68174	 -1.41115	  0.59486	  7.07960	 -0.36507	 11.03800	704.49500	 23.90	
 19.999	-40.602	  8.75277	  8.85590	 -0.81613	 -0.30589	  8.25947	 -0.36585	 11.07141	704.43597	 23.90	
 19.989	-52.269	  8.72886	  7.74976	 -0.03099	 -1.03787	  9.23095	 -0.34066	 11.04020	704.39697	 23.90	
 20.009	-63.844	  8.73451	  6.52365	  0.93643	 -1.55611	  9.97777	 -0.31548	 11.04449	704.48401	 23.90	
 19.992	-75.457	  8.72061	  5.18212	  2.07234	 -1.87000	 10.42468	 -0.31195	 11.02453	704.47601	 23.90	
 19.999	-87.075	  8.74317	  3.84402	  3.32886	 -2.02593	 10.65105	 -0.34372	 11.05263	704.32703	 23.90	
 19.989	-98.733	  8.73423	  2.54136	  4.65184	 -1.97530	 10.56021	 -0.38769	 11.03029	704.30603	 23.90	
 20.005	-110.327	  8.73230	  1.35736	  5.97924	 -1.73646	 10.20508	 -0.46549	 11.01866	704.38000	 23.90	
 20.009	-121.926	  8.75100	  0.31193	  7.25306	 -1.30133	  9.58559	 -0.52612	 11.03146	704.37402	 23.90	
 19.995	-133.545	  8.76645	 -0.54242	  8.40653	 -0.65144	  8.70870	 -0.56601	 11.04836	704.39001	 23.90	
 20.000	-145.147	  8.74965	 -1.20828	  9.33449	  0.19372	  7.59538	 -0.55919	 11.02825	704.37402	 23.90	
 20.008	-156.764	  8.77452	 -1.68051	 10.05708	  1.22266	  6.36737	 -0.54855	 11.06030	704.45898	 23.90	
 20.003	-168.362	  8.77290	 -1.94348	 10.45846	  2.39597	  5.03980	 -0.54611	 11.04692	704.44397	 23.90	
 20.000	180.000	  8.76214	 -2.00581	 10.56766	  3.68375	  3.70639	 -0.56365	 11.02700	704.33502	 23.90	
