FileType=PCF
NHL=14
Date=08/22/17	14:43:03
Facility=APL
Serial=16328-2
Customer=NASA
NP=6
Mach=0.200000
Calibration=1:1
CalPts=490
TstPts=95
PortNumbering=AP Standard
Units=Torr C m/s kg/m^3 deg mm 
Theta[deg]	Phi[deg]	P1[Torr]	P2[Torr]	P3[Torr]	P4[Torr]	P5[Torr]	P6[Torr]	Pt[Torr]	Ps[Abs,Torr]	Ts[C]	
  0.000	  0.000	 19.60535	 10.08541	  9.79742	  9.99965	 10.06853	  0.15813	 19.58182	706.31598	 23.70	
  1.691	128.401	 19.65759	  9.47870	 10.40259	 10.85197	  9.32460	  0.15394	 19.63516	706.73700	 23.60	
  1.692	 77.194	 19.59864	 10.28558	  9.51531	 11.00962	  9.10991	  0.14194	 19.57969	706.71503	 23.60	
  1.699	 26.182	 19.63595	 10.95203	  8.87502	 10.45611	  9.63730	  0.14586	 19.61608	706.33899	 23.60	
  1.699	-26.182	 19.63182	 10.92649	  8.91100	  9.58913	 10.51832	  0.12901	 19.60863	706.70502	 23.60	
  1.692	-77.194	 19.61426	 10.16033	  9.55242	  9.07472	 10.99592	  0.11746	 19.58702	706.78497	 23.60	
  1.691	-128.401	 19.59266	  9.39867	 10.39461	  9.24447	 10.78311	  0.12335	 19.56053	706.72998	 23.60	
  1.700	180.000	 19.58361	  9.03172	 10.78646	 10.01073	 10.03621	  0.12757	 19.55448	706.71600	 23.60	
  3.400	180.000	 19.60975	  8.01538	 11.78314	  9.97163	  9.99886	  0.06251	 19.60334	706.70502	 23.60	
  3.388	-152.325	 19.61871	  8.21713	 11.56397	  9.09186	 10.87181	  0.06975	 19.61325	706.19800	 23.60	
  3.397	-124.529	 19.58716	  8.80429	 10.88776	  8.37445	 11.63524	  0.08627	 19.58506	706.14899	 23.60	
  3.399	-96.763	 19.59869	  9.69757	  9.90928	  8.04918	 12.00344	  0.07812	 19.60554	704.93103	 23.60	
  3.394	-69.283	 19.58467	 10.64145	  9.03297	  8.14742	 11.86820	  0.06276	 19.58661	706.23700	 23.60	
  3.400	-41.398	 19.56665	 11.47820	  8.22540	  8.64032	 11.28282	  0.07981	 19.57823	706.77197	 23.60	
  3.401	-14.021	 19.56547	 11.96101	  7.78867	  9.45405	 10.47021	  0.08911	 19.58104	706.73297	 23.60	
  3.401	 14.021	 19.59516	 11.99155	  7.75319	 10.43073	  9.53648	  0.09052	 19.61558	706.43701	 23.60	
  3.400	 41.398	 19.55446	 11.51789	  8.14271	 11.28640	  8.70200	  0.09907	 19.57433	706.71301	 23.60	
  3.394	 69.283	 19.55787	 10.66296	  8.91879	 11.84605	  8.18451	  0.09074	 19.57611	705.00403	 23.60	
  3.399	 96.763	 19.53845	  9.74038	  9.84814	 11.96422	  8.06920	  0.10510	 19.54275	705.27502	 23.60	
  3.397	124.529	 19.39623	  8.77497	 10.72635	 11.53724	  8.29521	  0.09598	 19.39830	706.86200	 23.60	
  3.388	152.325	 19.52623	  8.21240	 11.48899	 10.86639	  9.05291	  0.09114	 19.52439	706.27600	 23.60	
  5.099	161.165	 19.42926	  6.99113	 12.46095	 10.77146	  8.87162	  0.00091	 19.51419	706.68500	 23.60	
  5.109	142.013	 19.42304	  7.44105	 11.94431	 11.68512	  8.02034	 -0.02066	 19.51419	705.12903	 23.70	
  5.095	123.033	 19.42628	  8.23182	 11.15415	 12.36587	  7.37561	 -0.02191	 19.51742	705.00500	 23.70	
  5.105	104.191	 19.42338	  9.12903	 10.13541	 12.79856	  6.98843	 -0.02391	 19.52817	706.25403	 23.70	
  5.093	 85.207	 19.39745	 10.09137	  9.16013	 12.85307	  6.92322	 -0.01566	 19.50893	705.09399	 23.70	
  5.104	 66.290	 19.38203	 11.02722	  8.23155	 12.58437	  7.12399	 -0.02456	 19.50594	706.29102	 23.70	
  5.094	 47.331	 19.37065	 11.89316	  7.43075	 12.00928	  7.66001	 -0.03266	 19.49615	706.51300	 23.70	
  5.089	 28.397	 19.39168	 12.51980	  6.83581	 11.19753	  8.41601	 -0.03608	 19.50888	705.03900	 23.70	
  5.096	  9.576	 19.38701	 12.84977	  6.55230	 10.19764	  9.29509	 -0.01917	 19.50651	705.05200	 23.70	
  5.096	 -9.576	 19.38452	 12.82476	  6.56676	  9.24372	 10.27300	 -0.05261	 19.49958	705.07202	 23.70	
  5.089	-28.397	 19.36583	 12.45901	  6.89568	  8.35102	 11.16268	 -0.06556	 19.47797	705.96997	 23.70	
  5.094	-47.331	 19.38015	 11.82309	  7.51595	  7.59494	 12.00211	 -0.08474	 19.48351	706.77502	 23.70	
  5.104	-66.290	 19.39739	 10.91292	  8.34048	  7.05975	 12.60578	 -0.09292	 19.48761	706.58801	 23.70	
  5.093	-85.207	 19.40741	  9.98665	  9.16913	  6.84932	 12.87768	 -0.06507	 19.49021	706.47101	 23.70	
  5.105	-104.191	 19.41365	  8.99901	 10.22226	  6.91260	 12.81183	 -0.03543	 19.49079	705.13898	 23.70	
  5.095	-123.033	 19.39211	  8.10432	 11.20455	  7.31512	 12.34659	 -0.06992	 19.47161	705.54498	 23.70	
  5.109	-142.013	 19.42217	  7.36439	 11.99537	  7.97878	 11.66176	 -0.06403	 19.49969	706.82599	 23.70	
  5.099	-161.165	 19.41385	  6.92751	 12.47320	  8.83910	 10.70587	 -0.06231	 19.48424	705.12000	 23.70	
  5.100	180.000	 19.40536	  6.80964	 12.63507	  9.77184	  9.80036	 -0.05718	 19.48230	705.15698	 23.70	
  6.800	180.000	 19.26258	  5.67793	 13.57721	  9.59283	  9.63770	 -0.16999	 19.49748	705.03900	 23.70	
  6.796	-166.229	 19.25107	  5.70796	 13.46925	  8.66174	 10.54098	 -0.18542	 19.48826	705.13599	 23.70	
  6.808	-152.311	 19.25192	  5.99991	 13.09713	  7.76443	 11.47948	 -0.19106	 19.49091	705.07202	 23.70	
  6.795	-138.383	 19.28997	  6.52636	 12.50414	  6.96554	 12.36182	 -0.18923	 19.53273	705.12598	 23.70	
  6.792	-124.591	 19.26834	  7.23663	 11.72022	  6.27225	 13.06298	 -0.19989	 19.51082	705.30298	 23.70	
  6.787	-110.754	 19.26497	  8.13960	 10.78911	  5.84987	 13.55204	 -0.21564	 19.51475	706.87097	 23.70	
  6.800	-96.985	 19.25234	  9.04835	  9.73909	  5.64477	 13.79451	 -0.22927	 19.50225	705.03497	 23.70	
  6.800	-83.015	 19.25493	 10.02565	  8.75778	  5.66958	 13.79560	 -0.24131	 19.51155	706.70898	 23.70	
  6.787	-69.246	 19.25064	 10.93924	  7.94026	  5.84477	 13.54050	 -0.24355	 19.51561	705.12799	 23.70	
  6.792	-55.409	 19.22610	 11.87209	  7.00483	  6.26525	 13.02232	 -0.22800	 19.50731	705.04401	 23.70	
  6.795	-41.617	 19.19539	 12.62664	  6.30114	  6.91137	 12.30311	 -0.21246	 19.48017	705.12000	 23.70	
  6.808	-27.689	 19.20840	 13.27903	  5.78361	  7.72210	 11.45683	 -0.19375	 19.51031	705.13702	 23.70	
  6.796	-13.771	 19.22985	 13.68558	  5.46778	  8.61922	 10.49836	 -0.17668	 19.53433	706.76099	 23.70	
  6.800	  0.000	 19.23877	 13.83323	  5.38402	  9.55582	  9.54599	 -0.17525	 19.54757	705.19598	 23.70	
  6.796	 13.771	 19.18914	 13.69623	  5.41708	 10.45410	  8.65574	 -0.16587	 19.50526	705.11102	 23.70	
  6.808	 27.689	 19.19252	 13.33624	  5.70180	 11.43339	  7.75792	 -0.17566	 19.50768	705.10303	 23.70	
  6.795	 41.617	 19.18488	 12.72279	  6.21112	 12.27244	  6.96942	 -0.15823	 19.49941	705.11499	 23.70	
  6.792	 55.409	 19.17094	 11.95986	  6.92221	 12.96726	  6.26588	 -0.15015	 19.48716	705.05701	 23.70	
  6.787	 69.246	 19.20096	 11.05676	  7.79123	 13.49656	  5.85969	 -0.16473	 19.50611	705.09100	 23.70	
  6.800	 83.015	 19.24350	 10.14770	  8.73098	 13.78573	  5.68377	 -0.16675	 19.53798	705.09100	 23.70	
  6.800	 96.985	 19.23089	  9.18885	  9.64592	 13.77398	  5.68879	 -0.16337	 19.51329	705.18201	 23.70	
  6.787	110.754	 19.22386	  8.24632	 10.63560	 13.51508	  5.88136	 -0.17013	 19.49585	705.19098	 23.80	
  6.792	124.591	 19.25880	  7.32813	 11.59940	 13.03641	  6.31525	 -0.16366	 19.52155	705.10303	 23.80	
  6.795	138.383	 19.27619	  6.64360	 12.39186	 12.34639	  7.01433	 -0.15516	 19.52955	705.21802	 23.80	
  6.808	152.311	 19.28313	  6.10978	 13.04301	 11.51940	  7.81115	 -0.16767	 19.53104	705.23297	 23.80	
  6.796	166.229	 19.25990	  5.78077	 13.43265	 10.53651	  8.70274	 -0.16973	 19.49904	706.87000	 23.80	
  8.491	168.704	 19.02933	  4.54156	 14.33731	 10.31786	  8.44133	 -0.31820	 19.50510	705.13397	 23.80	
  8.502	157.493	 19.02118	  4.79470	 14.00212	 11.33149	  7.49874	 -0.31180	 19.50951	705.07501	 23.80	
  8.494	146.194	 19.02114	  5.24968	 13.45548	 12.23960	  6.54403	 -0.28631	 19.51784	705.14301	 23.80	
  8.495	135.039	 18.97001	  5.84767	 12.69884	 13.04224	  5.80299	 -0.29370	 19.47241	705.09497	 23.80	
  8.487	123.723	 18.99474	  6.61973	 11.85089	 13.75126	  5.23058	 -0.31935	 19.50202	705.09802	 23.80	
  8.492	112.575	 19.00131	  7.45121	 10.92705	 14.26761	  4.78801	 -0.32599	 19.52387	705.06702	 23.80	
  8.510	101.220	 18.96415	  8.45359	  9.87023	 14.55810	  4.51498	 -0.32320	 19.49615	705.12598	 23.80	
  8.500	 90.000	 18.93741	  9.41656	  8.90656	 14.63327	  4.43621	 -0.31522	 19.48812	705.06403	 23.80	
  8.510	 78.780	 18.92923	 10.36612	  7.94909	 14.53301	  4.47280	 -0.31379	 19.49070	705.15002	 23.80	
  8.492	 67.425	 18.94503	 11.36142	  6.93868	 14.22291	  4.75810	 -0.30720	 19.51681	705.19000	 23.80	
  8.487	 56.277	 18.93457	 12.27627	  6.14911	 13.69511	  5.17857	 -0.29059	 19.51871	704.97900	 23.80	
  8.495	 44.961	 18.89493	 13.08002	  5.39820	 12.96169	  5.77626	 -0.29386	 19.48268	704.96997	 23.80	
  8.494	 33.806	 18.90860	 13.76950	  4.81780	 12.13227	  6.51220	 -0.32083	 19.49424	705.00800	 23.80	
  8.502	 22.507	 18.88702	 14.26329	  4.39074	 11.20033	  7.33022	 -0.32422	 19.47316	705.01001	 23.80	
  8.491	 11.296	 18.92195	 14.58967	  4.18768	 10.20149	  8.38622	 -0.31602	 19.50381	705.02899	 23.80	
  8.500	  0.000	 18.94748	 14.68947	  4.15358	  9.29792	  9.28858	 -0.32849	 19.52185	705.10498	 23.80	
  8.491	-11.296	 18.94190	 14.56991	  4.21321	  8.33787	 10.26634	 -0.32767	 19.51633	705.15399	 23.80	
  8.502	-22.507	 18.92136	 14.22986	  4.46115	  7.37938	 11.25935	 -0.34009	 19.48980	705.26001	 23.80	
  8.494	-33.806	 18.92437	 13.68400	  4.92402	  6.46975	 12.20029	 -0.34760	 19.47628	705.16803	 23.80	
  8.495	-44.961	 18.95776	 12.99982	  5.53509	  5.75251	 13.04934	 -0.38444	 19.50964	705.00201	 23.80	
  8.487	-56.277	 18.94463	 12.14312	  6.28830	  5.19034	 13.71692	 -0.39771	 19.47974	705.24902	 23.80	
  8.492	-67.425	 18.97908	 11.21617	  7.07888	  4.77869	 14.24966	 -0.41784	 19.50194	705.16199	 23.80	
  8.510	-78.780	 18.97512	 10.23125	  8.01446	  4.50202	 14.58448	 -0.42159	 19.49473	705.18500	 23.80	
  8.500	-90.000	 18.98685	  9.26940	  8.99882	  4.42640	 14.69262	 -0.40754	 19.49194	705.25403	 23.80	
  8.510	-101.220	 18.98287	  8.30100	 10.01191	  4.46999	 14.59829	 -0.38373	 19.48974	705.22900	 23.80	
  8.492	-112.575	 18.97744	  7.29572	 11.07657	  4.74616	 14.26276	 -0.35740	 19.47545	705.19299	 23.80	
  8.487	-123.723	 18.97619	  6.45427	 11.99474	  5.19325	 13.74451	 -0.33783	 19.47115	705.19800	 23.80	
  8.495	-135.039	 18.98076	  5.71429	 12.84377	  5.78461	 13.06913	 -0.32303	 19.47433	705.14203	 23.80	
  8.494	-146.194	 19.01822	  5.13139	 13.54562	  6.52492	 12.23835	 -0.33506	 19.50656	705.22400	 23.80	
  8.502	-157.493	 19.00004	  4.67724	 14.05471	  7.46514	 11.29200	 -0.33295	 19.49229	705.18103	 23.80	
  8.491	-168.704	 19.00026	  4.47670	 14.35094	  8.41405	 10.34234	 -0.33476	 19.48308	705.29901	 23.80	
  8.500	180.000	 18.99910	  4.45452	 14.44105	  9.37348	  9.42204	 -0.32543	 19.47949	705.19000	 23.80	
 10.200	180.000	 18.67042	  3.16253	 15.24739	  9.10021	  9.12075	 -0.48514	 19.46757	705.21198	 23.80	
 10.191	-170.497	 18.65841	  3.20195	 15.15869	  8.11518	 10.04555	 -0.48880	 19.45367	705.24402	 23.80	
 10.210	-161.034	 18.67469	  3.38120	 14.92466	  7.11502	 11.01239	 -0.49901	 19.47623	705.26801	 23.80	
 10.194	-151.526	 18.68933	  3.71614	 14.49809	  6.18948	 12.00433	 -0.49890	 19.49766	705.25500	 23.80	
 10.190	-142.105	 18.67941	  4.22136	 13.88816	  5.36201	 12.92800	 -0.47389	 19.48805	705.22302	 23.80	
 10.215	-132.646	 18.67769	  4.87786	 13.16483	  4.64866	 13.73872	 -0.46167	 19.49278	705.28802	 23.80	
 10.203	-123.092	 18.66224	  5.64966	 12.27329	  4.04935	 14.41417	 -0.48504	 19.47767	705.22601	 23.80	
 10.192	-113.678	 18.64452	  6.47730	 11.30308	  3.58334	 14.93220	 -0.51700	 19.46921	705.28302	 23.80	
 10.208	-104.249	 18.63593	  7.41197	 10.27954	  3.27371	 15.29885	 -0.54493	 19.47079	705.34399	 23.80	
 10.210	-94.801	 18.61086	  8.40417	  9.24350	  3.14090	 15.46253	 -0.56384	 19.44763	705.31897	 23.80	
 10.210	-85.199	 18.62531	  9.39402	  8.29448	  3.15709	 15.47022	 -0.58911	 19.46836	705.37299	 23.80	
 10.208	-75.751	 18.60861	 10.38964	  7.29278	  3.29508	 15.28076	 -0.58616	 19.46496	705.30200	 23.80	
 10.192	-66.322	 18.61514	 11.41616	  6.36998	  3.60714	 14.91770	 -0.57902	 19.47687	705.42603	 23.80	
 10.203	-56.908	 18.59523	 12.34579	  5.49582	  4.03195	 14.38516	 -0.56686	 19.47105	705.39600	 23.80	
 10.215	-47.354	 18.56690	 13.23232	  4.71609	  4.59354	 13.69216	 -0.53737	 19.45131	705.12598	 23.80	
 10.190	-37.895	 18.56045	 13.98784	  4.05752	  5.29379	 12.87949	 -0.51264	 19.45632	705.20398	 23.80	
 10.194	-28.474	 18.55089	 14.59913	  3.53683	  6.08119	 11.98164	 -0.48820	 19.45230	705.18500	 23.80	
 10.210	-18.966	 18.54606	 15.07199	  3.15357	  7.00342	 10.97598	 -0.48272	 19.46013	705.19000	 23.80	
 10.191	 -9.503	 18.56575	 15.36029	  2.93425	  7.98551	  9.99816	 -0.48201	 19.48278	705.17798	 23.80	
 10.200	  0.000	 18.51819	 15.43655	  2.85809	  8.94705	  8.97435	 -0.47599	 19.43672	705.26099	 23.80	
 10.191	  9.503	 18.53788	 15.37656	  2.91416	  9.94685	  7.96344	 -0.47410	 19.46819	705.33099	 23.80	
 10.210	 18.966	 18.53147	 15.13223	  3.09446	 10.91856	  7.02123	 -0.47969	 19.47027	705.23798	 23.90	
 10.194	 28.474	 18.53533	 14.70174	  3.44471	 11.88658	  6.16090	 -0.47847	 19.47471	705.17401	 23.80	
 10.190	 37.895	 18.50009	 14.08044	  3.93406	 12.76519	  5.34492	 -0.44918	 19.44134	705.35602	 23.80	
 10.215	 47.354	 18.50876	 13.36418	  4.55323	 13.60568	  4.60570	 -0.41797	 19.45575	705.26099	 23.80	
 10.203	 56.908	 18.51738	 12.49387	  5.31019	 14.30100	  3.96519	 -0.41760	 19.45836	705.15698	 23.80	
 10.192	 66.322	 18.54402	 11.58159	  6.15612	 14.82941	  3.52324	 -0.44359	 19.46298	705.21802	 23.90	
 10.208	 75.751	 18.55202	 10.53828	  6.99660	 15.19781	  3.25477	 -0.45656	 19.45809	705.30603	 23.80	
 10.210	 85.199	 18.56667	  9.66447	  8.06767	 15.38948	  3.12873	 -0.47382	 19.46370	705.32501	 23.80	
 10.210	 94.801	 18.57425	  8.61803	  9.04674	 15.39687	  3.12790	 -0.47996	 19.45617	705.31897	 23.80	
 10.208	104.249	 18.59454	  7.52165	 10.04078	 15.23172	  3.29789	 -0.48791	 19.45793	705.35101	 23.80	
 10.192	113.678	 18.61729	  6.70215	 11.10497	 14.89155	  3.66932	 -0.49157	 19.46671	705.27197	 23.80	
 10.203	123.092	 18.60824	  5.81415	 12.03425	 14.37774	  4.08130	 -0.48634	 19.44560	705.30603	 23.90	
 10.215	132.646	 18.60228	  4.99430	 12.93400	 13.70474	  4.64338	 -0.46271	 19.43968	705.34198	 23.90	
 10.190	142.105	 18.62282	  4.35806	 13.71302	 12.89879	  5.35880	 -0.42961	 19.44876	705.38702	 23.90	
 10.194	151.526	 18.64858	  3.86197	 14.35763	 12.00994	  6.16618	 -0.45158	 19.46165	705.40198	 23.80	
 10.210	161.034	 18.64405	  3.47354	 14.83382	 11.06128	  7.14657	 -0.46332	 19.45028	705.31702	 23.80	
 10.191	170.497	 18.66705	  3.27096	 15.13359	 10.07207	  8.13021	 -0.47764	 19.46739	705.26099	 23.80	
 11.899	171.783	 18.24354	  1.84308	 15.87276	  9.77958	  7.73472	 -0.63520	 19.43237	705.28601	 23.90	
 11.890	163.610	 18.25453	  2.03026	 15.61545	 10.73963	  6.74746	 -0.61766	 19.44248	705.21600	 23.90	
 11.889	155.445	 18.27519	  2.44123	 15.22023	 11.75075	  5.77506	 -0.60750	 19.46759	705.29999	 23.90	
 11.909	147.299	 18.23085	  2.90195	 14.64313	 12.66414	  4.89039	 -0.58704	 19.44173	704.98999	 23.90	
 11.902	139.148	 18.21929	  3.48116	 13.94511	 13.53523	  4.10370	 -0.58249	 19.43705	705.42401	 23.90	
 11.894	130.867	 18.20969	  4.18913	 13.12401	 14.29585	  3.40277	 -0.61301	 19.42717	705.42102	 23.90	
 11.897	122.732	 18.17077	  4.96051	 12.20640	 14.92922	  2.79461	 -0.64995	 19.40339	705.26398	 23.90	
 11.903	114.597	 18.16532	  5.83119	 11.23564	 15.45959	  2.33297	 -0.66192	 19.41186	705.23999	 23.90	
 11.893	106.346	 18.18709	  6.79151	 10.21079	 15.86276	  2.04661	 -0.66677	 19.44770	705.34198	 23.90	
 11.892	 98.155	 18.14576	  7.74437	  9.14447	 16.07379	  1.86138	 -0.66986	 19.42046	705.44397	 23.90	
 11.900	 90.000	 18.14027	  8.76523	  8.14079	 16.16202	  1.79494	 -0.66839	 19.43684	705.29498	 23.90	
 11.892	 81.845	 18.14676	  9.80695	  7.13191	 16.06403	  1.89012	 -0.64850	 19.44548	704.65198	 23.90	
 11.893	 73.654	 18.13204	 10.74780	  6.22283	 15.79516	  2.05830	 -0.62047	 19.44538	703.62201	 23.90	
 11.903	 65.403	 18.09964	 11.77308	  5.29358	 15.38657	  2.34751	 -0.60156	 19.43389	705.29199	 23.90	
 11.897	 57.268	 18.09356	 12.69114	  4.45424	 14.83682	  2.81409	 -0.57437	 19.43694	705.29199	 23.90	
 11.894	 49.133	 18.08340	 13.53859	  3.70209	 14.15861	  3.39498	 -0.55916	 19.43269	705.25403	 23.90	
 11.902	 40.852	 18.06285	 14.29510	  2.99889	 13.36926	  4.08239	 -0.60876	 19.42471	705.18402	 23.90	
 11.909	 32.701	 18.06837	 14.95517	  2.43637	 12.48499	  4.90221	 -0.64393	 19.43273	705.40198	 23.90	
 11.889	 24.555	 18.08784	 15.46898	  2.04881	 11.56172	  5.76176	 -0.66301	 19.43983	705.32599	 23.90	
 11.890	 16.390	 18.10314	 15.82807	  1.74699	 10.57112	  6.66790	 -0.66494	 19.45072	705.35400	 23.90	
 11.899	  8.217	 18.08754	 16.04349	  1.56587	  9.58044	  7.60128	 -0.65990	 19.42488	705.38702	 23.90	
 11.900	  0.000	 18.11094	 16.12187	  1.47308	  8.61385	  8.63129	 -0.65679	 19.44241	705.40601	 23.90	
 11.899	 -8.217	 18.12209	 16.04523	  1.57854	  7.61285	  9.65715	 -0.64936	 19.44482	705.51898	 23.90	
 11.890	-16.390	 18.11091	 15.77214	  1.85182	  6.59278	 10.63882	 -0.64265	 19.42218	705.46100	 23.90	
 11.889	-24.555	 18.12858	 15.40109	  2.16506	  5.69135	 11.69505	 -0.63083	 19.44070	705.46503	 23.90	
 11.909	-32.701	 18.13083	 14.87267	  2.60652	  4.85292	 12.62160	 -0.63667	 19.43883	705.45801	 23.90	
 11.902	-40.852	 18.15771	 14.20030	  3.18258	  4.10763	 13.50486	 -0.65624	 19.45053	705.36499	 23.90	
 11.894	-49.133	 18.15921	 13.38332	  3.88354	  3.41003	 14.30025	 -0.69248	 19.44451	705.48297	 23.90	
 11.897	-57.268	 18.17261	 12.49627	  4.68914	  2.84614	 14.96066	 -0.71071	 19.44829	705.49200	 23.90	
 11.903	-65.403	 18.15462	 11.52183	  5.53865	  2.39732	 15.47298	 -0.72053	 19.41979	705.40100	 23.90	
 11.893	-73.654	 18.18330	 10.49895	  6.44615	  2.11695	 15.87256	 -0.71773	 19.43397	705.49902	 23.80	
 11.892	-81.845	 18.18948	  9.54138	  7.44294	  1.90855	 16.10723	 -0.71444	 19.43832	705.35699	 23.90	
 11.900	-90.000	 18.20440	  8.54993	  8.45451	  1.82258	 16.19351	 -0.70638	 19.44535	705.55298	 23.80	
 11.892	-98.155	 18.18393	  7.54420	  9.41082	  1.86128	 16.10266	 -0.69370	 19.41281	705.41302	 23.80	
 11.893	-106.346	 18.19979	  6.56476	 10.46136	  2.05386	 15.89477	 -0.66315	 19.43158	705.37903	 23.80	
 11.903	-114.597	 18.17440	  5.67886	 11.47307	  2.38857	 15.49581	 -0.64134	 19.40599	705.49200	 23.80	
 11.897	-122.732	 18.21572	  4.89614	 12.45411	  2.90091	 14.97827	 -0.61391	 19.43417	705.44098	 23.80	
 11.894	-130.867	 18.21977	  4.09505	 13.33870	  3.47755	 14.30597	 -0.58780	 19.43206	705.40100	 23.80	
 11.902	-139.148	 18.20647	  3.46946	 14.11738	  4.15184	 13.50877	 -0.60705	 19.41602	704.93103	 23.80	
 11.909	-147.299	 18.21185	  2.97983	 14.78514	  4.93493	 12.62218	 -0.62868	 19.42661	705.32202	 23.80	
 11.889	-155.445	 18.20923	  2.66005	 15.28329	  5.79613	 11.65457	 -0.64362	 19.41395	705.34802	 23.80	
 11.890	-163.610	 18.21023	  2.43505	 15.66203	  6.69185	 10.63253	 -0.64525	 19.41443	705.42102	 23.80	
 11.899	-171.783	 18.23132	  2.19500	 15.90000	  7.76551	  9.71467	 -0.64483	 19.43226	705.29498	 23.80	
 11.900	180.000	 18.20044	  2.19935	 15.95584	  8.73706	  8.72540	 -0.63464	 19.40906	705.35699	 23.80	
 13.600	180.000	 17.75431	  1.52559	 16.65745	  8.37216	  8.30478	 -0.76476	 19.42713	705.28601	 23.80	
 13.608	-172.853	 17.72730	  1.48695	 16.58041	  7.34639	  9.26174	 -0.76998	 19.40563	705.07202	 23.80	
 13.611	-165.583	 17.72631	  1.46548	 16.40053	  6.31549	 10.23475	 -0.76976	 19.41637	705.28003	 23.80	
 13.601	-158.353	 17.72994	  1.48757	 16.05745	  5.38203	 11.27539	 -0.76299	 19.40951	704.35797	 23.80	
 13.609	-151.210	 17.74500	  1.54932	 15.58401	  4.50938	 12.29386	 -0.75855	 19.41238	705.41998	 23.80	
 13.611	-143.999	 17.72906	  1.96141	 15.01303	  3.65259	 13.20258	 -0.72438	 19.40977	704.63599	 23.80	
 13.601	-136.825	 17.73519	  2.46128	 14.29214	  2.91351	 14.05508	 -0.68948	 19.40299	704.08899	 23.80	
 13.596	-129.640	 17.72345	  3.05017	 13.48560	  2.24036	 14.81908	 -0.67459	 19.39809	705.46899	 23.80	
 13.611	-122.431	 17.70695	  3.82108	 12.59815	  1.59701	 15.45614	 -0.69310	 19.39005	705.39502	 23.80	
 13.604	-115.211	 17.72533	  4.71061	 11.64966	  1.23502	 16.00723	 -0.71101	 19.41531	705.37097	 23.80	
 13.595	-108.042	 17.71431	  5.56154	 10.63969	  0.95215	 16.39867	 -0.73873	 19.40012	705.30298	 23.80	
 13.607	-100.793	 17.71093	  6.49300	  9.58649	  0.75486	 16.67852	 -0.73865	 19.40230	705.30603	 23.80	
 13.601	-93.617	 17.68727	  7.49089	  8.53181	  0.64952	 16.80158	 -0.72688	 19.38566	703.77802	 23.80	
 13.601	-86.383	 17.68231	  8.54080	  7.47941	  0.65359	 16.78907	 -0.72660	 19.38532	703.73199	 23.80	
 13.607	-79.207	 17.68027	  9.58770	  6.51103	  0.74251	 16.66125	 -0.74260	 19.38760	703.80298	 23.80	
 13.595	-71.958	 17.68744	 10.57358	  5.60049	  0.90076	 16.38762	 -0.74489	 19.40213	703.75500	 23.70	
 13.604	-64.789	 17.68177	 11.59801	  4.68031	  1.16384	 15.97602	 -0.76305	 19.40229	705.39801	 23.70	
 13.611	-57.569	 17.67186	 12.56715	  3.78666	  1.55646	 15.46645	 -0.76743	 19.41106	705.12201	 23.70	
 13.596	-50.360	 17.67539	 13.45611	  3.00001	  2.17139	 14.82967	 -0.76550	 19.42586	705.48901	 23.70	
 13.601	-43.175	 17.65563	 14.27173	  2.22973	  2.82499	 14.07024	 -0.75349	 19.41903	703.66498	 23.70	
 13.611	-36.001	 17.63169	 14.98404	  1.61430	  3.54988	 13.20524	 -0.75829	 19.40397	703.65997	 23.70	
 13.609	-28.790	 17.62547	 15.59174	  1.14208	  4.35356	 12.29023	 -0.77053	 19.40720	703.77802	 23.70	
 13.601	-21.647	 17.59438	 16.04905	  0.82160	  5.20711	 11.30253	 -0.77833	 19.37762	703.71899	 23.70	
 13.611	-14.417	 17.60713	 16.42001	  0.57903	  6.15599	 10.28764	 -0.79537	 19.39785	703.80298	 23.70	
 13.608	 -7.147	 17.60050	 16.63491	  0.42297	  7.07188	  9.25096	 -0.80415	 19.39389	703.88098	 23.70	
 13.600	  0.000	 17.58462	 16.69978	  0.35162	  8.10262	  8.20720	 -0.81095	 19.38077	703.92700	 23.70	
 13.608	  7.147	 17.55731	 16.65580	  0.38986	  9.13095	  7.17624	 -0.82141	 19.36881	705.50000	 23.70	
 13.611	 14.417	 17.55702	 16.49833	  0.52057	 10.11172	  6.25497	 -0.83849	 19.37630	705.53699	 23.70	
 13.601	 21.647	 17.57143	 16.20109	  0.73972	 11.13264	  5.32683	 -0.84310	 19.39937	705.53400	 23.70	
 13.609	 28.790	 17.56660	 15.76005	  1.02418	 12.11849	  4.41996	 -0.83716	 19.40108	703.64301	 23.70	
 13.611	 36.001	 17.54643	 15.15393	  1.49167	 13.03609	  3.57565	 -0.80382	 19.37239	703.81598	 23.70	
 13.601	 43.175	 17.58184	 14.49973	  2.14106	 13.88872	  2.86572	 -0.75659	 19.39452	703.94397	 23.70	
 13.596	 50.360	 17.59621	 13.72392	  2.77487	 14.67569	  2.20441	 -0.72735	 19.42306	704.08899	 23.70	
 13.611	 57.569	 17.57195	 12.83756	  3.53219	 15.35069	  1.68370	 -0.74011	 19.40301	703.73798	 23.70	
 13.604	 64.789	 17.57862	 11.88433	  4.37322	 15.89416	  1.27996	 -0.76092	 19.40711	703.82300	 23.70	
 13.595	 71.958	 17.59508	 10.88191	  5.28161	 16.31122	  1.00096	 -0.79482	 19.39892	703.90900	 23.70	
 13.607	 79.207	 17.60544	  9.84911	  6.23229	 16.57857	  0.80677	 -0.81100	 19.38286	703.83899	 23.70	
 13.601	 86.383	 17.62648	  8.87249	  7.17455	 16.74219	  0.69465	 -0.85163	 19.39111	703.88202	 23.70	
 13.601	 93.617	 17.66043	  7.88395	  8.23733	 16.77009	  0.71116	 -0.85602	 19.41621	703.88202	 23.70	
 13.607	100.793	 17.65347	  6.83403	  9.25269	 16.63841	  0.80054	 -0.86358	 19.39203	703.80298	 23.70	
 13.595	108.042	 17.69200	  5.87551	 10.32607	 16.40513	  0.96128	 -0.85992	 19.42311	703.83301	 23.70	
 13.604	115.211	 17.70949	  4.97929	 11.34820	 16.01362	  1.25579	 -0.84775	 19.41901	703.90900	 23.70	
 13.611	122.431	 17.68303	  4.06879	 12.31469	 15.46254	  1.63485	 -0.85824	 19.38523	703.79199	 23.70	
 13.596	129.640	 17.71654	  3.34174	 13.23841	 14.81065	  2.21804	 -0.80026	 19.39033	703.94702	 23.70	
 13.601	136.825	 17.73212	  2.67998	 14.07061	 14.06416	  2.87420	 -0.76253	 19.39398	703.85602	 23.70	
 13.611	143.999	 17.73380	  1.97193	 14.78609	 13.24595	  3.55985	 -0.75664	 19.39570	703.98901	 23.70	
 13.609	151.210	 17.72678	  1.53634	 15.42072	 12.31199	  4.39288	 -0.76132	 19.38366	703.85602	 23.60	
 13.601	158.353	 17.73611	  1.18952	 15.92957	 11.34098	  5.29321	 -0.78172	 19.39567	703.92102	 23.60	
 13.611	165.583	 17.74210	  0.99957	 16.31147	 10.33011	  6.21735	 -0.78174	 19.39510	704.02197	 23.70	
 13.608	172.853	 17.76155	  0.83966	 16.54503	  9.39387	  7.19487	 -0.81291	 19.40136	703.86401	 23.70	
 15.298	173.587	 17.24180	  0.03085	 17.18185	  8.91096	  6.74245	 -0.88951	 19.42212	703.84003	 23.70	
 15.291	167.167	 17.22488	 -0.00257	 16.95859	  9.91707	  5.78524	 -0.88782	 19.40253	703.90100	 23.60	
 15.307	160.676	 17.22355	  0.05542	 16.62122	 10.91154	  4.83325	 -0.88192	 19.39704	703.97803	 23.70	
 15.300	154.261	 17.20745	  0.30508	 16.15012	 11.91460	  3.91914	 -0.88461	 19.38054	703.86102	 23.60	
 15.288	147.854	 17.24236	  0.74125	 15.59972	 12.87378	  3.10723	 -0.87851	 19.40482	703.84998	 23.60	
 15.293	141.428	 17.22757	  1.15048	 14.94616	 13.74939	  2.35091	 -0.86914	 19.40971	703.78302	 23.60	
 15.299	134.985	 17.20621	  1.71459	 14.15593	 14.57999	  1.66758	 -0.90490	 19.39718	704.01599	 23.60	
 15.305	128.583	 17.21431	  2.35955	 13.32573	 15.32928	  1.12360	 -0.94772	 19.41878	703.94098	 23.60	
 15.309	122.142	 17.18759	  3.24837	 12.38992	 15.95589	  0.65004	 -0.96698	 19.40905	703.85303	 23.60	
 15.304	115.711	 17.16305	  4.05364	 11.40733	 16.46028	  0.24881	 -0.98936	 19.40034	703.92603	 23.60	
 15.297	109.291	 17.16275	  4.97449	 10.39029	 16.87606	 -0.04695	 -0.99137	 19.41061	703.94897	 23.60	
 15.293	102.897	 17.15039	  5.93241	  9.35202	 17.17068	 -0.25358	 -0.99544	 19.41856	703.97198	 23.60	
 15.293	 96.458	 17.12611	  6.86490	  8.28876	 17.31919	 -0.34889	 -0.98344	 19.40228	703.84003	 23.60	
 15.300	 90.000	 17.10118	  7.90744	  7.22631	 17.36956	 -0.41185	 -0.98328	 19.40218	703.88202	 23.60	
 15.293	 83.542	 17.10205	  8.97358	  6.26652	 17.29323	 -0.35670	 -0.97788	 19.41302	703.94702	 23.60	
 15.293	 77.103	 17.10496	  9.94959	  5.31992	 17.10280	 -0.21448	 -0.93823	 19.42487	704.01599	 23.60	
 15.297	 70.709	 17.04799	 10.95622	  4.36101	 16.75321	  0.00467	 -0.91243	 19.38780	703.98602	 23.60	
 15.304	 64.289	 17.05793	 11.95112	  3.48271	 16.34169	  0.30652	 -0.87290	 19.40844	703.87299	 23.60	
 15.309	 57.858	 17.04329	 12.89307	  2.64769	 15.79495	  0.68956	 -0.86127	 19.40654	704.06702	 23.60	
 15.305	 51.417	 17.02865	 13.75592	  1.84123	 15.13436	  1.15118	 -0.86377	 19.39268	703.95801	 23.60	
 15.299	 45.015	 17.02262	 14.54335	  1.19315	 14.37772	  1.69770	 -0.89424	 19.38465	703.95697	 23.60	
 15.293	 38.572	 17.03965	 15.26789	  0.71488	 13.54138	  2.38313	 -0.93565	 19.39967	703.94098	 23.60	
 15.288	 32.146	 17.03971	 15.88279	  0.28763	 12.63998	  3.12934	 -0.96565	 19.41062	703.92700	 23.60	
 15.300	 25.739	 17.03160	 16.39819	 -0.07831	 11.70325	  3.94706	 -0.96758	 19.41073	704.04999	 23.60	
 15.307	 19.324	 17.00953	 16.78473	 -0.38649	 10.67867	  4.88077	 -0.95850	 19.39156	704.00800	 23.60	
 15.291	 12.833	 17.03176	 17.07168	 -0.57401	  9.65100	  5.85555	 -0.93443	 19.39881	703.93500	 23.50	
 15.298	  6.413	 17.03584	 17.24482	 -0.69774	  8.68078	  6.78410	 -0.92283	 19.39521	703.86499	 23.50	
 15.300	  0.000	 17.02378	 17.28277	 -0.74618	  7.62472	  7.79205	 -0.89504	 19.37746	703.94897	 23.50	
 15.298	 -6.413	 17.06784	 17.23800	 -0.66736	  6.63649	  8.82893	 -0.89331	 19.40917	703.90900	 23.50	
 15.291	-12.833	 17.07697	 17.06401	 -0.52744	  5.73761	  9.86648	 -0.89044	 19.40851	703.77802	 23.50	
 15.307	-19.324	 17.08287	 16.77923	 -0.31995	  4.75168	 10.90263	 -0.87155	 19.42238	703.76398	 23.50	
 15.300	-25.739	 17.08433	 16.32265	 -0.01745	  3.85711	 11.88371	 -0.83531	 19.39504	703.87799	 23.50	
 15.288	-32.146	 17.08975	 15.78372	  0.37213	  3.01541	 12.83244	 -0.82078	 19.40122	703.94000	 23.50	
 15.293	-38.572	 17.12560	 15.14048	  0.87051	  2.25228	 13.74814	 -0.79956	 19.41640	703.82501	 23.50	
 15.299	-45.015	 17.12147	 14.38627	  1.44723	  1.51038	 14.56707	 -0.78005	 19.41284	703.95502	 23.50	
 15.305	-51.417	 17.12125	 13.52668	  2.12912	  1.02141	 15.26094	 -0.77879	 19.38557	704.05902	 23.50	
 15.309	-57.858	 17.14300	 12.65638	  2.95688	  0.57906	 15.91295	 -0.74272	 19.40325	703.96802	 23.50	
 15.304	-64.289	 17.14631	 11.68684	  3.78173	  0.20219	 16.43718	 -0.71700	 19.40176	703.96802	 23.50	
 15.297	-70.709	 17.17009	 10.67337	  4.68690	 -0.08791	 16.86833	 -0.70063	 19.41299	703.96002	 23.50	
 15.293	-77.103	 17.15958	  9.65219	  5.61221	 -0.30201	 17.17280	 -0.69386	 19.39963	703.91302	 23.50	
 15.293	-83.542	 17.17423	  8.61510	  6.58063	 -0.43942	 17.36369	 -0.70602	 19.40666	703.86401	 23.50	
 15.300	-90.000	 17.14868	  7.53128	  7.56854	 -0.49959	 17.39749	 -0.71348	 19.37251	703.90399	 23.50	
 15.293	-96.458	 17.16909	  6.48388	  8.63282	 -0.44737	 17.34262	 -0.74993	 19.38763	703.98602	 23.50	
 15.293	-102.897	 17.18261	  5.58023	  9.68696	 -0.31679	 17.17190	 -0.78917	 19.39812	703.96301	 23.50	
 15.297	-109.291	 17.17815	  4.63544	 10.70865	 -0.09980	 16.86270	 -0.80114	 19.38599	703.89600	 23.50	
 15.304	-115.711	 17.17521	  3.73040	 11.72046	  0.19973	 16.43705	 -0.79688	 19.38522	703.83099	 23.50	
 15.309	-122.142	 17.19388	  2.90014	 12.68100	  0.59181	 15.91321	 -0.77945	 19.39163	703.86200	 23.50	
 15.305	-128.583	 17.21708	  2.10912	 13.57138	  1.07525	 15.26771	 -0.78920	 19.39390	703.87500	 23.50	
 15.299	-134.985	 17.20323	  1.46257	 14.38155	  1.60506	 14.52706	 -0.81580	 19.37741	703.87000	 23.50	
 15.293	-141.428	 17.22159	  0.97053	 15.12071	  2.40343	 13.71626	 -0.84675	 19.39220	703.84198	 23.50	
 15.288	-147.854	 17.20718	  0.50257	 15.75552	  3.18908	 12.80765	 -0.86228	 19.38166	703.94000	 23.50	
 15.300	-154.261	 17.23839	  0.12831	 16.31741	  4.04602	 11.87046	 -0.88669	 19.42002	704.01300	 23.50	
 15.307	-160.676	 17.20456	 -0.16915	 16.70242	  4.93373	 10.85466	 -0.89215	 19.38544	703.91602	 23.50	
 15.291	-167.167	 17.22587	 -0.32079	 16.99529	  5.92626	  9.85357	 -0.87237	 19.39500	703.99701	 23.50	
 15.298	-173.587	 17.24219	 -0.43775	 17.18593	  6.85250	  8.86535	 -0.87811	 19.40975	704.03900	 23.50	
 15.300	180.000	 17.24606	 -0.48575	 17.24457	  7.93681	  7.83670	 -0.88297	 19.41676	704.02301	 23.50	
 17.000	180.000	 16.64388	 -1.42654	 17.76832	  7.41050	  7.30427	 -0.87213	 19.40528	703.89801	 23.50	
 16.990	-174.179	 16.63028	 -1.50536	 17.70892	  6.40848	  8.36055	 -0.84002	 19.38412	703.99701	 23.50	
 17.009	-168.383	 16.64424	 -1.45222	 17.58965	  5.46413	  9.39060	 -0.83963	 19.41323	703.97998	 23.50	
 17.000	-162.596	 16.62224	 -1.27820	 17.29498	  4.50491	 10.36734	 -0.81727	 19.38226	703.91901	 23.50	
 16.990	-156.759	 16.63744	 -1.02759	 16.92800	  3.57657	 11.38181	 -0.83353	 19.39788	703.73798	 23.50	
 16.995	-150.919	 16.63486	 -0.72788	 16.45273	  2.68488	 12.34427	 -0.84636	 19.39081	703.77698	 23.50	
 16.988	-145.161	 16.64439	 -0.31810	 15.88594	  1.83865	 13.27222	 -0.86433	 19.40430	703.90900	 23.50	
 17.014	-139.343	 16.63206	  0.14820	 15.20606	  1.16283	 14.15513	 -0.83063	 19.39883	703.86499	 23.50	
 17.007	-133.546	 16.63137	  0.67199	 14.45003	  0.59054	 14.94623	 -0.81629	 19.39228	703.89502	 23.50	
 17.001	-127.699	 16.59343	  1.25184	 13.56662	  0.06405	 15.64772	 -0.80844	 19.35784	703.90601	 23.50	
 17.006	-121.937	 16.61685	  1.95691	 12.70231	 -0.37766	 16.31176	 -0.79823	 19.39964	704.02002	 23.40	
 17.002	-116.134	 16.62816	  2.75677	 11.76649	 -0.74505	 16.86230	 -0.79881	 19.41873	703.97498	 23.50	
 17.001	-110.310	 16.58972	  3.62531	 10.75873	 -1.07620	 17.27242	 -0.76867	 19.39742	703.88501	 23.40	
 16.988	-104.517	 16.59307	  4.53476	  9.74310	 -1.31040	 17.57891	 -0.73609	 19.38749	703.95099	 23.40	
 17.008	-98.662	 16.57298	  5.49186	  8.68750	 -1.46368	 17.79299	 -0.69236	 19.38363	703.97498	 23.40	
 16.996	-92.909	 16.58400	  6.49086	  7.66040	 -1.53809	 17.90769	 -0.64501	 19.39551	703.88501	 23.40	
 16.996	-87.091	 16.57717	  7.51619	  6.64012	 -1.56680	 17.92234	 -0.61127	 19.40285	704.13800	 23.40	
 17.012	-81.253	 16.55892	  8.57041	  5.64521	 -1.47057	 17.81747	 -0.57694	 19.40083	703.99402	 23.40	
 16.988	-75.483	 16.56549	  9.60820	  4.71163	 -1.30191	 17.59069	 -0.58973	 19.40041	704.03699	 23.40	
 17.001	-69.690	 16.53351	 10.62846	  3.71358	 -1.09509	 17.26429	 -0.59671	 19.37821	703.96301	 23.50	
 17.002	-63.866	 16.55466	 11.65390	  2.84918	 -0.81029	 16.85966	 -0.62446	 19.40753	704.04999	 23.40	
 17.006	-58.063	 16.55048	 12.61655	  2.04595	 -0.45386	 16.33440	 -0.66630	 19.41695	703.95099	 23.50	
 17.001	-52.301	 16.49728	 13.46248	  1.31338	 -0.01934	 15.66187	 -0.70535	 19.35561	703.86798	 23.50	
 17.007	-46.454	 16.51389	 14.30694	  0.68626	  0.46297	 14.97269	 -0.72878	 19.39264	703.94702	 23.50	
 17.014	-40.657	 16.50537	 15.07167	  0.15286	  0.99596	 14.20193	 -0.76522	 19.40656	703.88800	 23.40	
 16.988	-34.839	 16.51901	 15.77019	 -0.34463	  1.68089	 13.34023	 -0.79692	 19.41551	704.08398	 23.40	
 16.995	-29.081	 16.50191	 16.33777	 -0.75292	  2.54837	 12.41541	 -0.83335	 19.40366	703.97198	 23.40	
 16.990	-23.241	 16.45458	 16.81225	 -1.13853	  3.37290	 11.42650	 -0.85905	 19.37486	703.95502	 23.40	
 17.000	-17.404	 16.48845	 17.24079	 -1.39243	  4.30123	 10.44412	 -0.90150	 19.41788	703.94702	 23.40	
 17.009	-11.617	 16.44421	 17.50799	 -1.58147	  5.24468	  9.40332	 -0.90632	 19.38367	704.00000	 23.40	
 16.990	 -5.821	 16.44613	 17.69294	 -1.71909	  6.19113	  8.37105	 -0.91804	 19.39099	703.96600	 23.40	
 17.000	  0.000	 16.44747	 17.78530	 -1.78256	  7.12915	  7.36617	 -0.92492	 19.41269	704.03699	 23.40	
 16.990	  5.821	 16.42700	 17.75365	 -1.75380	  8.17534	  6.34383	 -0.92787	 19.39906	703.94702	 23.40	
 17.009	 11.617	 16.42912	 17.64522	 -1.64192	  9.19261	  5.37352	 -0.95723	 19.41295	703.95502	 23.40	
 17.000	 17.404	 16.42409	 17.41419	 -1.43907	 10.19711	  4.42550	 -0.99580	 19.40472	703.93500	 23.40	
 16.990	 23.241	 16.42588	 17.07195	 -1.20446	 11.21055	  3.53989	 -1.02066	 19.40852	703.85303	 23.40	
 16.995	 29.081	 16.40512	 16.59181	 -0.89613	 12.17006	  2.70742	 -1.02566	 19.38519	703.89801	 23.40	
 16.988	 34.839	 16.40779	 16.03011	 -0.49496	 13.09443	  1.94908	 -1.02572	 19.38184	703.94000	 23.40	
 17.014	 40.657	 16.39627	 15.38950	 -0.06901	 13.99081	  1.26804	 -1.00549	 19.38912	703.97101	 23.40	
 17.007	 46.454	 16.41266	 14.64764	  0.43935	 14.79962	  0.66935	 -0.99509	 19.39596	704.01599	 23.40	
 17.001	 52.301	 16.41456	 13.83725	  0.99691	 15.52681	  0.13782	 -0.95999	 19.39393	704.09198	 23.40	
 17.006	 58.063	 16.41416	 12.94096	  1.70302	 16.16032	 -0.31149	 -0.97247	 19.38171	704.21600	 23.40	
 17.002	 63.866	 16.44336	 12.02987	  2.48501	 16.73544	 -0.66429	 -0.99198	 19.41728	704.01898	 23.40	
 17.001	 69.690	 16.42727	 11.02687	  3.41270	 17.16090	 -0.97302	 -1.01778	 19.38379	704.11499	 23.40	
 16.988	 75.483	 16.45643	 10.02569	  4.34695	 17.51521	 -1.20439	 -1.03407	 19.39880	704.08197	 23.40	
 17.012	 81.253	 16.45925	  9.01202	  5.26884	 17.75001	 -1.40666	 -1.02548	 19.40056	704.16901	 23.40	
 16.996	 87.091	 16.47952	  7.98380	  6.26495	 17.88062	 -1.48792	 -1.01553	 19.40461	704.07501	 23.40	
 16.996	 92.909	 16.48805	  6.95009	  7.24802	 17.87988	 -1.44775	 -1.01174	 19.38995	704.11298	 23.40	
 17.008	 98.662	 16.50305	  5.98851	  8.29445	 17.80060	 -1.43133	 -1.00496	 19.39633	704.11603	 23.40	
 16.988	104.517	 16.52565	  5.02905	  9.34966	 17.58209	 -1.24937	 -1.01501	 19.39074	704.07300	 23.40	
 17.001	110.310	 16.42085	  4.06374	 10.31053	 17.14049	 -1.02116	 -1.01470	 19.23638	704.10602	 23.40	
 17.002	116.134	 16.52360	  3.11935	 11.38020	 16.81047	 -0.71600	 -1.04344	 19.33337	704.01599	 23.40	
 17.006	121.937	 16.54170	  2.31199	 12.35741	 16.28874	 -0.34116	 -1.03517	 19.33556	704.03601	 23.40	
 17.001	127.699	 16.55832	  1.60294	 13.27521	 15.68774	  0.08870	 -1.01610	 19.34192	704.03400	 23.40	
 17.007	133.546	 16.56577	  0.98579	 14.14012	 14.98361	  0.59525	 -0.99284	 19.34478	704.18799	 23.40	
 17.014	139.343	 16.56973	  0.42609	 14.92164	 14.18696	  1.16427	 -0.96308	 19.33952	704.04401	 23.40	
 16.988	145.161	 16.58231	 -0.06418	 15.62163	 13.31041	  1.86745	 -0.96420	 19.33961	704.03400	 23.40	
 16.995	150.919	 16.57224	 -0.47067	 16.21250	 12.39196	  2.63663	 -0.95215	 19.31580	704.06500	 23.40	
 16.990	156.759	 16.58669	 -0.82372	 16.73308	 11.42251	  3.46406	 -0.96267	 19.32436	704.06500	 23.30	
 17.000	162.596	 16.58205	 -1.14709	 17.14220	 10.41370	  4.35844	 -0.94004	 19.32078	704.19098	 23.40	
 17.009	168.383	 16.58401	 -1.36559	 17.45169	  9.45328	  5.30292	 -0.91461	 19.33412	704.11603	 23.30	
 16.990	174.179	 16.58327	 -1.55038	 17.62895	  8.43345	  6.26330	 -0.89222	 19.33162	704.13397	 23.40	
 18.709	174.675	 15.91405	 -2.54552	 18.09634	  7.92287	  5.75260	 -0.83031	 19.32520	704.08502	 23.30	
 18.703	169.441	 15.89976	 -2.47719	 17.91945	  8.92615	  4.77043	 -0.89589	 19.30540	704.05798	 23.40	
 18.691	164.085	 15.93079	 -2.25317	 17.65506	  9.93347	  3.87043	 -0.94002	 19.31787	704.02002	 23.40	
 18.706	158.818	 15.92606	 -2.04530	 17.29489	 10.91950	  2.96399	 -0.98613	 19.32091	704.10699	 23.40	
 18.695	153.537	 15.96823	 -1.65907	 16.85700	 11.92472	  2.15476	 -1.02250	 19.35299	704.06799	 23.40	
 18.704	148.255	 15.96513	 -1.29890	 16.31314	 12.86389	  1.37715	 -1.03270	 19.36102	704.09003	 23.40	
 18.698	142.952	 15.95227	 -0.87436	 15.65582	 13.76510	  0.70532	 -1.04251	 19.35049	704.09198	 23.30	
 18.699	137.625	 15.92726	 -0.37915	 14.91464	 14.58764	  0.07804	 -1.06924	 19.32759	704.08197	 23.40	
 18.705	132.343	 15.97187	  0.12548	 14.15398	 15.36575	 -0.54530	 -1.16060	 19.36669	704.15198	 23.40	
 18.713	127.067	 15.95700	  0.71087	 13.27719	 16.05958	 -1.02996	 -1.17085	 19.36877	704.16302	 23.30	
 18.700	121.794	 15.95210	  1.39970	 12.35019	 16.67007	 -1.42464	 -1.14931	 19.37313	704.13397	 23.40	
 18.698	116.504	 15.96769	  2.17645	 11.38417	 17.21849	 -1.80569	 -1.13327	 19.41093	704.20001	 23.40	
 18.707	111.165	 15.99514	  3.03707	 10.39423	 17.70509	 -2.13609	 -1.12306	 19.46632	704.14398	 23.40	
 18.690	105.863	 15.97441	  3.93208	  9.33894	 18.01281	 -2.36359	 -1.13015	 19.44747	704.05402	 23.30	
 18.696	100.583	 15.95993	  4.90637	  8.29964	 18.25048	 -2.55952	 -1.13006	 19.45639	704.03900	 23.40	
 18.700	 95.309	 15.93362	  5.90628	  7.25063	 18.37199	 -2.61654	 -1.12962	 19.44508	704.12402	 23.40	
 18.700	 90.000	 16.00082	  7.05786	  6.33613	 18.53068	 -2.48640	 -0.89499	 19.58943	704.24200	 23.30	
 18.700	 84.691	 16.03284	  8.08850	  5.34108	 18.51213	 -2.49055	 -0.96732	 19.63411	704.20801	 23.30	
 18.696	 79.417	 16.01049	  9.11659	  4.35434	 18.33493	 -2.36613	 -1.00275	 19.61734	704.22198	 23.30	
 18.690	 74.137	 16.00204	 10.13415	  3.37470	 18.08156	 -2.19959	 -1.02876	 19.61852	704.17999	 23.30	
 18.707	 68.835	 15.96433	 11.14290	  2.45437	 17.71674	 -2.02741	 -1.04096	 19.61388	704.31000	 23.30	
 18.698	 63.496	 15.96815	 12.12803	  1.62653	 17.27152	 -1.71938	 -1.03875	 19.62902	704.20001	 23.30	
 18.700	 58.206	 15.97001	 13.07455	  0.86587	 16.71236	 -1.35212	 -1.02386	 19.63669	704.20801	 23.30	
 18.713	 52.933	 15.95756	 13.93910	  0.26330	 16.05961	 -0.91290	 -1.01025	 19.63027	704.20599	 23.30	
 18.705	 47.657	 15.95278	 14.71194	 -0.28282	 15.32753	 -0.40159	 -1.01003	 19.62744	704.17902	 23.30	
 18.699	 42.375	 15.96032	 15.45680	 -0.80168	 14.53992	  0.18302	 -1.02130	 19.63336	704.17700	 23.30	
 18.698	 37.048	 15.92233	 16.09584	 -1.27014	 13.64462	  0.80161	 -0.98899	 19.59834	704.15399	 23.30	
 18.704	 31.745	 15.96937	 16.69255	 -1.69315	 12.77540	  1.47032	 -1.00284	 19.64738	704.29797	 23.30	
 18.695	 26.463	 15.94216	 17.15593	 -2.04187	 11.78392	  2.24307	 -0.98978	 19.60577	704.15503	 23.30	
 18.706	 21.182	 15.95378	 17.56076	 -2.32299	 10.82163	  3.06526	 -0.97744	 19.62021	704.22699	 23.30	
 18.691	 15.915	 15.97130	 17.80606	 -2.54240	  9.80931	  3.96921	 -0.93514	 19.63512	704.24701	 23.30	
 18.703	 10.559	 15.96835	 18.14854	 -2.73626	  8.76074	  4.91563	 -0.89893	 19.64271	704.06201	 23.30	
 18.709	  5.325	 15.95490	 18.31709	 -2.85696	  7.73816	  5.87794	 -0.86634	 19.62200	704.21698	 23.30	
 18.700	  0.000	 15.97294	 18.36708	 -2.87686	  6.70062	  6.91606	 -0.83148	 19.63317	704.43597	 23.30	
 18.709	 -5.325	 15.97835	 18.36533	 -2.82366	  5.71673	  7.93695	 -0.83206	 19.62840	704.24103	 23.30	
 18.703	-10.559	 15.98442	 18.26336	 -2.69823	  4.77010	  8.97641	 -0.83859	 19.61896	704.28699	 23.30	
 18.691	-15.915	 16.01993	 18.06865	 -2.47940	  3.80098	 10.03427	 -0.82452	 19.62917	704.23401	 23.30	
 18.706	-21.182	 16.01809	 17.78617	 -2.21665	  2.84449	 10.99051	 -0.80743	 19.60627	704.23102	 23.30	
 18.695	-26.463	 16.02968	 17.22688	 -1.90648	  2.00206	 11.98121	 -0.79533	 19.60521	704.17102	 23.30	
 18.704	-31.745	 16.04368	 16.69823	 -1.55836	  1.19841	 12.95512	 -0.75812	 19.63053	704.22998	 23.30	
 18.698	-37.048	 16.05640	 16.08525	 -1.12482	  0.55057	 13.86167	 -0.70687	 19.63372	704.25897	 23.30	
 18.699	-42.375	 16.05276	 15.31147	 -0.59856	 -0.02013	 14.69840	 -0.67102	 19.61092	704.26202	 23.30	
 18.705	-47.657	 16.06842	 14.52585	 -0.07670	 -0.57329	 15.48409	 -0.63259	 19.62298	704.21899	 23.30	
 18.713	-52.933	 16.08072	 13.64787	  0.52536	 -1.05578	 16.19699	 -0.59612	 19.62760	704.24402	 23.30	
 18.700	-58.206	 16.09674	 12.73561	  1.21393	 -1.46017	 16.82053	 -0.55617	 19.62984	704.20001	 23.30	
 18.698	-63.496	 16.10914	 11.77260	  2.01186	 -1.78903	 17.33927	 -0.51943	 19.61977	704.22498	 23.20	
 18.707	-68.835	 16.13074	 10.76858	  2.86885	 -2.09986	 17.79558	 -0.50529	 19.63873	704.34003	 23.20	
 18.690	-74.137	 16.13209	  9.73330	  3.77966	 -2.31797	 18.12026	 -0.51283	 19.62569	704.27002	 23.20	
 18.696	-79.417	 16.12436	  8.67862	  4.72787	 -2.50424	 18.37296	 -0.50589	 19.62967	704.26703	 23.20	
 18.700	-84.691	 16.13690	  7.62844	  5.77138	 -2.66728	 18.55122	 -0.48658	 19.65378	704.29303	 23.20	
 18.700	-90.000	 16.12248	  6.60527	  6.74465	 -2.69703	 18.56796	 -0.49701	 19.62324	704.25598	 23.20	
 18.700	-95.309	 16.14469	  5.58274	  7.78830	 -2.62127	 18.52999	 -0.52552	 19.63598	704.15399	 23.30	
 18.696	-100.583	 16.13534	  4.60213	  8.81949	 -2.48706	 18.36298	 -0.54537	 19.61511	704.14600	 23.20	
 18.690	-105.863	 16.18036	  3.65315	  9.87080	 -2.26872	 18.13815	 -0.62652	 19.64150	704.17102	 23.30	
 18.707	-111.165	 16.16466	  2.74558	 10.88329	 -2.04754	 17.78742	 -0.67214	 19.62843	704.29303	 23.20	
 18.698	-116.504	 16.16411	  1.89236	 11.88254	 -1.73731	 17.32906	 -0.71809	 19.61536	704.22400	 23.20	
 18.700	-121.794	 16.16944	  1.12818	 12.83488	 -1.38503	 16.80791	 -0.75081	 19.63032	704.21100	 23.30	
 18.713	-127.067	 16.16816	  0.46899	 13.74817	 -0.96241	 16.17741	 -0.75847	 19.62358	704.19897	 23.30	
 18.705	-132.343	 16.19115	 -0.11204	 14.60189	 -0.44041	 15.47096	 -0.77246	 19.62454	704.21600	 23.30	
 18.699	-137.625	 16.21113	 -0.62838	 15.40648	  0.11865	 14.69319	 -0.78777	 19.63989	704.26501	 23.30	
 18.698	-142.952	 16.21448	 -1.09593	 16.12272	  0.72510	 13.84276	 -0.77461	 19.64747	704.32397	 23.30	
 18.704	-148.255	 16.20941	 -1.53139	 16.75477	  1.37546	 12.92821	 -0.75382	 19.64683	704.18597	 23.20	
 18.695	-153.537	 16.21869	 -1.93667	 17.31154	  2.19399	 11.95467	 -0.73446	 19.66026	704.16901	 23.30	
 18.706	-158.818	 16.21306	 -2.22904	 17.74639	  3.12395	 10.94324	 -0.71553	 19.65913	704.17102	 23.20	
 18.691	-164.085	 16.19916	 -2.45253	 18.05656	  4.05951	  9.94670	 -0.69582	 19.63606	704.22400	 23.30	
 18.703	-169.441	 16.18822	 -2.63793	 18.29826	  5.05066	  8.90652	 -0.70344	 19.63123	704.28699	 23.20	
 18.709	-174.675	 16.22135	 -2.72943	 18.47429	  6.03271	  7.87516	 -0.73123	 19.67531	704.26202	 23.20	
 18.700	180.000	 16.22330	 -2.72505	 18.51214	  7.00584	  6.85445	 -0.76823	 19.67293	704.25598	 23.20	
 20.400	180.000	 15.51035	 -3.70985	 18.89489	  6.51334	  6.32271	 -0.67688	 19.66517	704.19598	 23.20	
 20.401	-175.153	 15.48694	 -3.69890	 18.83644	  5.52009	  7.31110	 -0.65515	 19.64123	704.28900	 23.20	
 20.407	-170.264	 15.49177	 -3.63824	 18.72885	  4.54068	  8.32406	 -0.64894	 19.65029	704.22198	 23.20	
 20.410	-165.423	 15.47769	 -3.50976	 18.50401	  3.51976	  9.35924	 -0.62384	 19.63687	704.19299	 23.20	
 20.392	-160.496	 15.51225	 -3.32625	 18.23176	  2.58470	 10.39318	 -0.61749	 19.67799	704.23401	 23.20	
 20.401	-155.705	 15.47666	 -3.06964	 17.78380	  1.72974	 11.34960	 -0.62384	 19.63199	704.14398	 23.20	
 20.405	-150.835	 15.49130	 -2.71760	 17.32078	  0.96153	 12.35503	 -0.64145	 19.65781	704.20300	 23.20	
 20.397	-145.903	 15.48410	 -2.30295	 16.71651	  0.29699	 13.28674	 -0.65746	 19.63192	704.17700	 23.20	
 20.392	-141.062	 15.50112	 -1.85601	 16.06992	 -0.29559	 14.17350	 -0.70816	 19.64437	704.18500	 23.20	
 20.396	-136.227	 15.50470	 -1.38814	 15.33670	 -0.89008	 15.00813	 -0.71468	 19.64499	704.27301	 23.20	
 20.408	-131.372	 15.47742	 -0.90458	 14.52527	 -1.45149	 15.75655	 -0.71819	 19.63943	704.17902	 23.20	
 20.410	-126.511	 15.46972	 -0.33064	 13.67375	 -1.89608	 16.43538	 -0.70394	 19.63128	704.16901	 23.20	
 20.400	-121.604	 15.48846	  0.32333	 12.78458	 -2.30961	 17.08129	 -0.67917	 19.65237	704.13702	 23.20	
 20.403	-116.741	 15.48453	  1.01516	 11.83357	 -2.68206	 17.62560	 -0.63933	 19.65996	704.22699	 23.20	
 20.413	-111.900	 15.44637	  1.81236	 10.82872	 -3.00080	 18.05973	 -0.60190	 19.63737	704.32397	 23.20	
 20.398	-107.004	 15.45936	  2.68158	  9.83567	 -3.24513	 18.43579	 -0.56690	 19.65897	704.23700	 23.20	
 20.394	-102.132	 15.42929	  3.57616	  8.79253	 -3.43254	 18.67222	 -0.52200	 19.63146	704.07001	 23.20	
 20.403	-97.332	 15.41124	  4.52283	  7.76466	 -3.58717	 18.84492	 -0.47432	 19.63230	704.13702	 23.20	
 20.392	-92.440	 15.40601	  5.54035	  6.74216	 -3.69129	 18.94064	 -0.46213	 19.63724	704.27899	 23.20	
 20.392	-87.560	 15.39809	  6.54474	  5.74953	 -3.72627	 18.95324	 -0.44899	 19.64875	704.24200	 23.20	
 20.403	-82.668	 15.39404	  7.52991	  4.73473	 -3.67642	 18.87589	 -0.45353	 19.65691	704.11798	 23.20	
 20.394	-77.868	 15.38948	  8.56686	  3.78850	 -3.50507	 18.68695	 -0.46666	 19.64140	704.14398	 23.20	
 20.398	-72.996	 15.41374	  9.61689	  2.86667	 -3.32877	 18.45896	 -0.45224	 19.67297	704.23401	 23.20	
 20.413	-68.100	 15.36661	 10.61959	  1.97534	 -3.07952	 18.05703	 -0.45194	 19.62193	704.08899	 23.20	
 20.403	-63.259	 15.37547	 11.61259	  1.17358	 -2.75773	 17.61434	 -0.44599	 19.62587	704.10901	 23.20	
 20.400	-58.396	 15.37122	 12.57620	  0.45615	 -2.40470	 17.08537	 -0.47109	 19.62946	704.05798	 23.20	
 20.410	-53.489	 15.35961	 13.48850	 -0.19094	 -2.00838	 16.48092	 -0.52120	 19.62987	704.14099	 23.20	
 20.408	-48.628	 15.35146	 14.31746	 -0.78267	 -1.57423	 15.80193	 -0.54316	 19.63009	704.07300	 23.20	
 20.396	-43.773	 15.33566	 15.05173	 -1.29994	 -1.05905	 15.02600	 -0.60587	 19.61897	704.07599	 23.20	
 20.392	-38.938	 15.34193	 15.63329	 -1.79651	 -0.49166	 14.21117	 -0.61300	 19.63793	704.16901	 23.20	
 20.397	-34.097	 15.33258	 16.29852	 -2.27037	  0.09923	 13.35699	 -0.64931	 19.65179	704.07001	 23.20	
 20.405	-29.165	 15.30108	 16.90141	 -2.69148	  0.73501	 12.40357	 -0.69782	 19.62174	704.17700	 23.20	
 20.401	-24.295	 15.31357	 17.35563	 -3.00443	  1.53090	 11.43711	 -0.77555	 19.62557	704.25897	 23.20	
 20.392	-19.504	 15.29136	 17.51692	 -3.24755	  2.38287	 10.44450	 -0.76985	 19.60042	704.16901	 23.20	
 20.410	-14.577	 15.27223	 18.12783	 -3.49666	  3.26041	  9.43079	 -0.76801	 19.61657	704.19897	 23.20	
 20.407	 -9.736	 15.24854	 18.44293	 -3.64855	  4.20463	  8.40581	 -0.75235	 19.61019	704.12402	 23.20	
 20.401	 -4.847	 15.27472	 18.63209	 -3.81106	  5.21817	  7.43564	 -0.74165	 19.67059	704.17902	 23.20	
 20.400	  0.000	 15.22186	 18.69791	 -3.84494	  6.16628	  6.42959	 -0.74484	 19.62000	704.17102	 23.20	
 20.401	  4.847	 15.21278	 18.73594	 -3.83408	  7.16814	  5.39904	 -0.75975	 19.61495	704.24200	 23.20	
 20.407	  9.736	 15.23287	 18.71051	 -3.75556	  8.21319	  4.45813	 -0.79518	 19.65863	704.10901	 23.20	
 20.410	 14.577	 15.20772	 18.57797	 -3.61621	  9.21043	  3.52774	 -0.80722	 19.63060	704.18597	 23.20	
 20.392	 19.504	 15.19402	 18.28789	 -3.36830	 10.23533	  2.63548	 -0.84001	 19.59939	704.19397	 23.20	
 20.401	 24.295	 15.21623	 17.98384	 -3.10714	 11.21711	  1.84023	 -0.84801	 19.62306	704.12402	 23.20	
 20.405	 29.165	 15.21334	 17.61024	 -2.78253	 12.19553	  1.08087	 -0.85605	 19.63483	704.19397	 23.20	
 20.397	 34.097	 15.20952	 17.39726	 -2.42357	 13.14941	  0.36348	 -0.92514	 19.63455	704.15198	 23.20	
 20.392	 38.938	 15.22071	 16.27765	 -1.99593	 14.02041	 -0.26400	 -0.97115	 19.63614	704.14398	 23.20	
 20.396	 43.773	 15.23719	 15.59188	 -1.53975	 14.84026	 -0.83450	 -1.00709	 19.64575	704.15997	 23.20	
 20.408	 48.628	 15.21624	 14.77568	 -1.03747	 15.62431	 -1.42673	 -1.05009	 19.63490	704.27502	 23.20	
 20.410	 53.489	 15.20474	 13.93001	 -0.50885	 16.31799	 -1.88860	 -1.03808	 19.62170	704.32599	 23.20	
 20.400	 58.396	 15.21251	 13.02723	  0.10892	 16.95500	 -2.29904	 -1.04220	 19.62250	704.21399	 23.20	
 20.403	 63.259	 15.22902	 12.10623	  0.78139	 17.51763	 -2.62531	 -1.04372	 19.63355	704.25000	 23.20	
 20.413	 68.100	 15.24100	 11.14219	  1.56571	 17.97793	 -2.91653	 -1.02180	 19.62434	704.24402	 23.20	
 20.398	 72.996	 15.26080	 10.14548	  2.43352	 18.35478	 -3.14931	 -0.99565	 19.62400	704.25000	 23.20	
 20.394	 77.868	 15.25945	  9.13037	  3.35180	 18.61038	 -3.31163	 -0.95055	 19.60820	704.11298	 23.20	
 20.403	 82.668	 15.27488	  8.11860	  4.29863	 18.81191	 -3.42091	 -0.88209	 19.60808	704.21100	 23.20	
 20.392	 87.560	 15.29234	  7.11646	  5.31244	 18.91485	 -3.50807	 -0.83493	 19.61282	704.06097	 23.10	
 20.392	 92.440	 15.31432	  6.11265	  6.33443	 18.93038	 -3.50528	 -0.81167	 19.61215	704.14801	 23.10	
 20.403	 97.332	 15.34218	  5.07468	  7.34465	 18.88041	 -3.47769	 -0.80376	 19.62712	704.18500	 23.10	
 20.394	102.132	 15.36991	  4.09627	  8.36558	 18.71628	 -3.36415	 -0.80819	 19.62842	704.14600	 23.10	
 20.398	107.004	 15.38583	  3.17675	  9.40549	 18.45708	 -3.19111	 -0.81912	 19.61788	704.29602	 23.10	
 20.413	111.900	 15.39234	  2.28438	 10.42331	 18.10569	 -2.98617	 -0.83438	 19.61108	704.22400	 23.10	
 20.403	116.741	 15.41744	  1.48776	 11.42890	 17.69384	 -2.69001	 -0.86699	 19.62165	704.16901	 23.10	
 20.400	121.604	 15.42468	  0.77921	 12.40686	 17.18411	 -2.34634	 -0.88811	 19.62547	704.27802	 23.10	
 20.410	126.511	 15.42303	  0.10361	 13.34429	 16.56770	 -1.91880	 -0.92066	 19.60966	704.23401	 23.10	
 20.408	131.372	 15.45142	 -0.49174	 14.22796	 15.90067	 -1.47543	 -0.94631	 19.62060	704.27502	 23.10	
 20.396	136.227	 15.47900	 -1.06365	 15.07228	 15.15748	 -0.95213	 -0.95797	 19.63470	704.18298	 23.10	
 20.392	141.062	 15.46830	 -1.56500	 15.80423	 14.33564	 -0.37815	 -0.93425	 19.61397	704.31403	 23.10	
 20.397	145.903	 15.48377	 -1.96245	 16.48676	 13.47894	  0.24740	 -0.92820	 19.62037	704.10602	 23.10	
 20.405	150.835	 15.49138	 -2.36043	 17.10004	 12.54364	  0.90419	 -0.91768	 19.62490	704.18500	 23.10	
 20.401	155.705	 15.47885	 -2.72367	 17.61185	 11.55630	  1.70117	 -0.89194	 19.61219	704.16302	 23.10	
 20.392	160.496	 15.49442	 -3.04469	 18.05507	 10.59451	  2.51002	 -0.85896	 19.63090	704.17902	 23.10	
 20.410	165.423	 15.48799	 -3.32730	 18.40849	  9.60034	  3.42068	 -0.80927	 19.62929	704.11200	 23.10	
 20.407	170.264	 15.50177	 -3.50278	 18.66360	  8.58726	  4.35271	 -0.75628	 19.64351	704.18298	 23.10	
 20.401	175.153	 15.49047	 -3.61453	 18.79600	  7.52269	  5.29242	 -0.71430	 19.63313	704.32898	 23.10	
  0.141	 45.000	 19.68682	 10.17878	  9.75346	 10.08627	 10.03845	  0.13385	 19.64461	704.28601	 23.10	
  4.001	128.691	 19.60470	  8.53075	 11.16347	 11.82227	  8.15890	  0.05072	 19.61969	704.16101	 23.10	
  4.002	 76.995	 19.58229	 10.49503	  9.07005	 12.27022	  7.73621	  0.03869	 19.62259	704.19397	 23.10	
  4.002	 25.892	 19.59938	 12.15840	  7.52548	 10.95693	  8.95889	  0.03536	 19.64143	704.15399	 23.10	
  4.002	-25.892	 19.60750	 12.13021	  7.60659	  8.91843	 10.93196	  0.01997	 19.64317	704.15698	 23.10	
  4.002	-76.995	 19.60369	 10.38823	  9.11453	  7.69525	 12.28792	  0.00670	 19.62580	704.17700	 23.10	
  4.001	-128.691	 19.62055	  8.46922	 11.22110	  8.16746	 11.82404	  0.01232	 19.62970	704.19397	 23.10	
  4.000	180.000	 19.59560	  7.65217	 12.10648	  9.92737	  9.94151	  0.01969	 19.60752	704.12402	 23.10	
  8.000	180.000	 19.21273	  4.88006	 14.30357	  9.52287	  9.52765	 -0.24274	 19.62113	704.17102	 23.10	
  7.991	-152.370	 19.16417	  5.25369	 13.69115	  7.30513	 11.69830	 -0.25609	 19.57353	704.13397	 23.10	
  7.997	-124.550	 19.18823	  6.68129	 12.04313	  5.57907	 13.60491	 -0.25171	 19.60557	704.07001	 23.10	
  8.006	-96.837	 19.18764	  8.87100	  9.71369	  4.82951	 14.51232	 -0.30519	 19.61855	704.21600	 23.10	
  7.988	-69.228	 19.15109	 11.08781	  7.56812	  5.08229	 14.16981	 -0.31973	 19.59843	704.14899	 23.10	
  7.997	-41.563	 19.12711	 13.13656	  5.66666	  6.26239	 12.72714	 -0.27876	 19.59770	704.27002	 23.10	
  8.008	-13.821	 19.13337	 14.37038	  4.63946	  8.31884	 10.54249	 -0.24826	 19.62705	704.18298	 23.10	
  8.008	 13.821	 19.12336	 14.40757	  4.59231	 10.53028	  8.36933	 -0.23295	 19.62771	704.15698	 23.10	
  7.997	 41.563	 19.11621	 13.24789	  5.54726	 12.67809	  6.29850	 -0.20891	 19.62566	704.23102	 23.10	
  7.988	 69.228	 19.10102	 11.23524	  7.38778	 14.13624	  5.06136	 -0.21777	 19.59905	704.17999	 23.10	
  8.006	 96.837	 19.15317	  9.02262	  9.58469	 14.47819	  4.85839	 -0.22430	 19.62738	704.20801	 23.10	
  7.997	124.550	 19.19414	  6.84435	 11.89206	 13.62223	  5.61422	 -0.22855	 19.63151	704.25897	 23.10	
  7.991	152.370	 19.21366	  5.37756	 13.64273	 11.76740	  7.36036	 -0.22508	 19.62975	704.19598	 23.10	
 12.009	161.059	 18.43864	  2.09992	 15.73000	 11.18868	  6.39367	 -0.57994	 19.66369	704.23700	 23.10	
 12.013	142.081	 18.35861	  3.23050	 14.37007	 13.37649	  4.34467	 -0.54533	 19.60312	704.24103	 23.10	
 12.006	123.113	 18.35793	  4.95113	 12.40928	 15.11875	  2.75661	 -0.61182	 19.62170	704.28900	 23.10	
 12.007	104.200	 18.31531	  7.03843	 10.01802	 16.13891	  1.88661	 -0.64599	 19.61943	704.26202	 23.10	
 11.989	 85.301	 18.29966	  9.46703	  7.59498	 16.33061	  1.74182	 -0.62543	 19.63092	704.23901	 23.10	
 12.013	 66.294	 18.26672	 11.80406	  5.40420	 15.63354	  2.25154	 -0.56493	 19.63007	704.20001	 23.10	
 12.012	 47.388	 18.23165	 13.90665	  3.51806	 14.17176	  3.47814	 -0.53050	 19.62066	704.32001	 23.10	
 11.990	 28.440	 18.21922	 15.46312	  2.17857	 12.11595	  5.31918	 -0.61363	 19.61033	704.32397	 23.10	
 11.991	  9.464	 18.22610	 16.27038	  1.56110	  9.80681	  7.46110	 -0.61626	 19.59689	704.38800	 23.10	
 11.991	 -9.464	 18.26888	 16.27374	  1.55882	  7.49672	  9.89739	 -0.59747	 19.62521	704.31702	 23.10	
 11.990	-28.440	 18.24804	 15.36613	  2.31618	  5.27711	 12.24075	 -0.59239	 19.59310	704.39099	 23.10	
 12.012	-47.388	 18.26966	 13.74054	  3.68790	  3.51313	 14.27889	 -0.61556	 19.59622	704.43402	 23.10	
 12.013	-66.294	 18.29412	 11.55450	  5.64035	  2.32435	 15.69878	 -0.65865	 19.59524	704.22699	 23.10	
 11.989	-85.301	 18.34981	  9.20952	  7.91763	  1.84215	 16.33279	 -0.64795	 19.61119	704.28101	 23.10	
 12.007	-104.200	 18.31957	  6.78201	 10.26710	  1.96120	 16.11505	 -0.63161	 19.57858	704.25897	 23.10	
 12.006	-123.113	 18.37645	  4.75878	 12.64513	  2.88328	 15.12385	 -0.56172	 19.62435	704.22699	 23.10	
 12.013	-142.081	 18.38140	  3.10097	 14.55494	  4.43174	 13.34060	 -0.56448	 19.62048	704.20203	 23.10	
 12.009	-161.059	 18.39846	  2.04885	 15.76145	  6.47192	 11.08698	 -0.61356	 19.62173	704.29303	 23.10	
 16.000	180.000	 17.19429	 -0.92950	 17.67329	  7.77531	  7.69921	 -0.81567	 19.61905	704.18298	 23.10	
 15.990	-165.604	 17.18989	 -0.70328	 17.36816	  5.50227	 10.11409	 -0.78084	 19.62322	704.25897	 23.10	
 16.002	-151.165	 17.19934	 -0.05238	 16.45312	  3.31691	 12.47177	 -0.77900	 19.63554	704.27502	 23.10	
 16.002	-136.836	 17.19267	  1.02374	 14.92780	  1.46003	 14.56663	 -0.74922	 19.63421	704.25598	 23.10	
 15.995	-122.439	 17.19447	  2.56261	 12.91991	  0.27376	 16.23360	 -0.71770	 19.63451	704.30298	 23.10	
 15.993	-107.966	 17.13033	  4.63230	 10.56366	 -0.56401	 17.32145	 -0.69960	 19.60439	704.35797	 23.10	
 16.005	-93.629	 17.14795	  6.87658	  8.13053	 -0.90276	 17.84517	 -0.61302	 19.64317	704.34802	 23.10	
 15.992	-79.234	 17.09024	  9.35018	  5.75480	 -0.79919	 17.64524	 -0.55234	 19.60791	704.36499	 23.10	
 16.009	-64.774	 17.08644	 11.78844	  3.57514	 -0.25768	 16.87334	 -0.57185	 19.62644	704.38300	 23.10	
 15.997	-50.364	 17.07027	 13.99889	  1.66204	  0.71761	 15.47056	 -0.65502	 19.62273	704.25098	 23.10	
 15.997	-36.045	 17.06702	 15.80660	  0.35028	  2.23530	 13.61473	 -0.71855	 19.63882	704.36499	 23.10	
 16.000	-21.597	 17.00656	 17.06629	 -0.63581	  4.15731	 11.34832	 -0.78127	 19.61165	704.21100	 23.10	
 16.003	 -7.169	 17.00415	 17.73909	 -1.08054	  6.41803	  8.91001	 -0.81866	 19.62076	704.42700	 23.10	
 16.003	  7.169	 16.96852	 17.75529	 -1.11568	  8.75936	  6.52511	 -0.83537	 19.61174	704.24701	 23.10	
 16.000	 21.597	 16.98154	 17.17418	 -0.67678	 11.15967	  4.25874	 -0.89569	 19.63511	704.32098	 23.10	
 15.997	 36.045	 16.95029	 15.91180	  0.15780	 13.38935	  2.32059	 -0.91386	 19.60006	704.29602	 23.10	
 15.997	 50.364	 16.97317	 14.18232	  1.37070	 15.32921	  0.86754	 -0.81528	 19.61917	704.30603	 23.10	
 16.009	 64.774	 16.98346	 12.02889	  3.26464	 16.75759	 -0.13297	 -0.84419	 19.62277	704.35199	 23.10	
 15.992	 79.234	 17.01445	  9.63283	  5.41625	 17.60437	 -0.73892	 -0.90849	 19.62116	704.35999	 23.10	
 16.005	 93.629	 17.05685	  7.22861	  7.75038	 17.80452	 -0.85937	 -0.91368	 19.62630	704.33698	 23.10	
 15.993	107.966	 17.11011	  4.99136	 10.21828	 17.35464	 -0.52797	 -0.91764	 19.62099	704.38202	 23.10	
 15.995	122.439	 17.16819	  2.83290	 12.60473	 16.29129	  0.28794	 -0.90903	 19.63891	704.43402	 23.10	
 16.002	136.836	 17.18145	  1.23384	 14.67915	 14.64758	  1.47378	 -0.85113	 19.62950	704.35999	 23.10	
 16.002	151.165	 17.19219	  0.13795	 16.28388	 12.56956	  3.19590	 -0.83040	 19.63020	704.40503	 23.10	
 15.990	165.604	 17.20222	 -0.62489	 17.30033	 10.22606	  5.36244	 -0.82953	 19.62909	704.40302	 23.10	
 20.003	168.362	 15.63557	 -3.15450	 18.44418	  9.06573	  4.16392	 -0.76315	 19.60273	704.26398	 23.10	
 20.008	156.764	 15.64638	 -2.56944	 17.64851	 11.39991	  2.08313	 -0.86909	 19.62340	704.50098	 23.10	
 20.000	145.147	 15.65582	 -1.70219	 16.35984	 13.63184	  0.36865	 -0.94165	 19.64609	704.28101	 23.10	
 19.995	133.545	 15.61686	 -0.54620	 14.58402	 15.52811	 -1.00335	 -0.94193	 19.60915	704.42401	 23.10	
 20.009	121.926	 15.58303	  0.90533	 12.48520	 17.08038	 -2.07361	 -0.89449	 19.62017	704.28699	 23.10	
 20.005	110.327	 15.55931	  2.72867	 10.15892	 18.15636	 -2.80828	 -0.82923	 19.61035	704.32397	 23.10	
 19.989	 98.733	 15.52112	  4.91397	  7.74522	 18.73870	 -3.17291	 -0.80767	 19.62265	704.22198	 23.10	
 19.999	 87.075	 15.47168	  7.27493	  5.37946	 18.82048	 -3.22873	 -0.84034	 19.61803	704.15698	 23.10	
 19.992	 75.457	 15.44898	  9.52147	  3.09418	 18.40006	 -2.94091	 -0.95643	 19.60989	704.27899	 23.10	
 20.009	 63.844	 15.39634	 11.59265	  1.08119	 17.48955	 -2.37625	 -1.00733	 19.61265	704.33197	 23.10	
 19.989	 52.269	 15.37424	 13.64304	 -0.38214	 16.09213	 -1.50113	 -1.00860	 19.60495	704.31000	 23.10	
 19.999	 40.602	 15.38429	 15.44135	 -1.61740	 14.29483	 -0.23820	 -0.96011	 19.63199	704.29797	 23.10	
 20.004	 29.051	 15.36051	 16.85871	 -2.54124	 12.19282	  1.29979	 -0.86498	 19.60064	704.27301	 23.10	
 20.005	 17.433	 15.35628	 17.89028	 -3.21306	  9.88880	  3.19454	 -0.81308	 19.60362	704.30103	 23.10	
 20.006	  5.780	 15.38083	 18.44288	 -3.55576	  7.50647	  5.38797	 -0.76400	 19.62205	704.27802	 23.10	
 20.006	 -5.780	 15.39841	 18.53157	 -3.50386	  5.17223	  7.71974	 -0.74268	 19.60715	704.21399	 23.10	
 20.005	-17.433	 15.43673	 18.22967	 -3.11336	  2.93620	 10.09973	 -0.72813	 19.60187	704.21899	 23.10	
 20.004	-29.051	 15.45218	 17.23713	 -2.44335	  0.99025	 12.39984	 -0.65568	 19.59969	704.23297	 23.10	
 19.999	-40.602	 15.48603	 15.81944	 -1.40068	 -0.42969	 14.47688	 -0.58107	 19.61225	704.24402	 23.10	
 19.989	-52.269	 15.49444	 13.95394	 -0.14341	 -1.64375	 16.25109	 -0.47872	 19.59639	704.23297	 23.10	
 20.009	-63.844	 15.55615	 11.86329	  1.47778	 -2.53584	 17.62517	 -0.41221	 19.64428	704.22699	 23.10	
 19.992	-75.457	 15.54569	  9.45881	  3.49410	 -3.11279	 18.46404	 -0.41849	 19.61144	704.42200	 23.10	
 19.999	-87.075	 15.54319	  6.96490	  5.79000	 -3.42631	 18.82643	 -0.40806	 19.61271	704.31403	 23.10	
 19.989	-98.733	 15.60511	  4.53392	  8.16159	 -3.27416	 18.72561	 -0.48797	 19.63319	704.35498	 23.10	
 20.005	-110.327	 15.60176	  2.36705	 10.54993	 -2.81530	 18.08434	 -0.57360	 19.60958	704.15399	 23.10	
 20.009	-121.926	 15.63266	  0.57099	 12.83834	 -2.03015	 16.97253	 -0.67556	 19.63082	704.23901	 23.10	
 19.995	-133.545	 15.64407	 -0.80353	 14.86067	 -0.95738	 15.39176	 -0.70317	 19.62105	704.30402	 23.10	
 20.000	-145.147	 15.64975	 -1.91466	 16.55896	  0.41454	 13.44838	 -0.66530	 19.62662	704.39600	 23.10	
 20.008	-156.764	 15.60822	 -2.75794	 17.78608	  2.12681	 11.17268	 -0.61677	 19.60188	704.34497	 23.10	
 20.003	-168.362	 15.63014	 -3.21907	 18.52435	  4.34020	  8.83761	 -0.60192	 19.62080	704.40002	 23.10	
 20.000	180.000	 15.61108	 -3.33861	 18.71652	  6.62519	  6.46157	 -0.66258	 19.58693	704.42200	 23.10	
