FileType=PCF
NHL=14
Date=03/12/19	13:26:38
Facility=APL
Serial=16071-11
Customer=NASA
NP=6
Mach=0.036000
Calibration=1:1
CalPts=490
TstPts=95
PortNumbering=AP Standard
Units=Torr C m/s kg/m^3 deg mm 
Theta[deg]	Phi[deg]	P1[Torr]	P2[Torr]	P3[Torr]	P4[Torr]	P5[Torr]	P6[Torr]	Pt[Torr]	Ps[Abs,Torr]	Ts[C]	
  0.000	  0.000	  0.67641	  0.31273	  0.30970	  0.31312	  0.30742	  0.04353	  0.67573	712.01001	 23.50	
  1.691	128.401	  0.67585	  0.29234	  0.32598	  0.33779	  0.28042	  0.04427	  0.67439	712.02002	 23.50	
  1.692	 77.194	  0.67482	  0.31919	  0.29900	  0.34427	  0.27423	  0.04665	  0.67378	711.91998	 23.50	
  1.699	 26.182	  0.67755	  0.34327	  0.28144	  0.32767	  0.29078	  0.04587	  0.67696	711.98999	 23.50	
  1.699	-26.182	  0.67352	  0.34010	  0.28133	  0.29746	  0.31614	  0.04490	  0.67222	711.96002	 23.50	
  1.692	-77.194	  0.67719	  0.31957	  0.30349	  0.28425	  0.33694	  0.04343	  0.67684	712.02002	 23.50	
  1.691	-128.401	  0.67339	  0.29372	  0.32528	  0.28957	  0.32791	  0.04150	  0.67222	712.02002	 23.50	
  1.700	180.000	  0.67315	  0.28343	  0.33787	  0.31150	  0.30267	  0.04360	  0.67285	711.89001	 23.50	
  3.400	180.000	  0.67520	  0.24865	  0.37393	  0.30981	  0.30270	  0.04040	  0.67625	711.97998	 23.50	
  3.388	-152.325	  0.67494	  0.25636	  0.36486	  0.28023	  0.33227	  0.03780	  0.67518	711.98999	 23.50	
  3.397	-124.529	  0.67659	  0.27553	  0.34386	  0.25988	  0.35756	  0.03703	  0.67604	711.97998	 23.50	
  3.399	-96.763	  0.67715	  0.30479	  0.31294	  0.25044	  0.36986	  0.03681	  0.67731	711.95001	 23.50	
  3.394	-69.283	  0.67425	  0.33398	  0.28222	  0.25205	  0.36418	  0.03861	  0.67455	712.06000	 23.50	
  3.400	-41.398	  0.67352	  0.36053	  0.25840	  0.26659	  0.34464	  0.04040	  0.67305	711.96997	 23.50	
  3.401	-14.021	  0.67166	  0.37614	  0.24440	  0.29340	  0.31462	  0.04225	  0.67231	711.98999	 23.50	
  3.401	 14.021	  0.67431	  0.37771	  0.24424	  0.32599	  0.28385	  0.04671	  0.67573	712.06000	 23.50	
  3.400	 41.398	  0.67566	  0.36239	  0.25750	  0.35627	  0.25829	  0.04701	  0.67660	711.97998	 23.50	
  3.394	 69.283	  0.67421	  0.33288	  0.28099	  0.37546	  0.24184	  0.04502	  0.67669	711.88000	 23.50	
  3.399	 96.763	  0.67665	  0.30165	  0.31255	  0.38130	  0.23954	  0.04712	  0.67748	712.03998	 23.50	
  3.397	124.529	  0.67114	  0.27098	  0.34151	  0.36536	  0.24797	  0.04457	  0.67169	712.08002	 23.50	
  3.388	152.325	  0.67243	  0.25306	  0.36365	  0.33946	  0.27106	  0.04191	  0.67276	712.04999	 23.50	
  5.099	161.165	  0.67160	  0.21637	  0.40095	  0.33803	  0.26637	  0.03762	  0.67472	712.12000	 23.50	
  5.109	142.013	  0.67165	  0.22733	  0.38464	  0.37090	  0.23617	  0.03886	  0.67629	712.03998	 23.50	
  5.095	123.033	  0.67159	  0.25025	  0.35753	  0.39704	  0.21450	  0.04033	  0.67472	711.92999	 23.50	
  5.105	104.191	  0.67213	  0.28013	  0.32512	  0.41168	  0.20417	  0.04197	  0.67691	711.96997	 23.50	
  5.093	 85.207	  0.66908	  0.31217	  0.29036	  0.41256	  0.20147	  0.04308	  0.67290	711.94000	 23.50	
  5.104	 66.290	  0.66970	  0.34621	  0.25941	  0.40417	  0.20810	  0.04447	  0.67507	711.96997	 23.40	
  5.094	 47.331	  0.66992	  0.37591	  0.23286	  0.38475	  0.22290	  0.04499	  0.67497	711.96002	 23.50	
  5.089	 28.397	  0.67394	  0.40096	  0.21554	  0.35792	  0.24854	  0.04160	  0.67854	712.03998	 23.50	
  5.096	  9.576	  0.67012	  0.41198	  0.20619	  0.32339	  0.27825	  0.04320	  0.67497	712.01001	 23.50	
  5.096	 -9.576	  0.66773	  0.41053	  0.20552	  0.28779	  0.30949	  0.03914	  0.67060	711.92999	 23.50	
  5.089	-28.397	  0.66798	  0.39865	  0.21629	  0.25845	  0.34327	  0.03708	  0.67190	712.01001	 23.40	
  5.094	-47.331	  0.67315	  0.37928	  0.23607	  0.23535	  0.37426	  0.03521	  0.67717	712.00000	 23.40	
  5.104	-66.290	  0.67229	  0.34914	  0.26110	  0.21964	  0.39273	  0.03231	  0.67585	712.09998	 23.40	
  5.093	-85.207	  0.67424	  0.31655	  0.29197	  0.21300	  0.40313	  0.03041	  0.67647	712.03998	 23.40	
  5.105	-104.191	  0.66949	  0.28058	  0.32389	  0.21490	  0.39669	  0.03182	  0.67087	712.09998	 23.40	
  5.095	-123.033	  0.67206	  0.25535	  0.35613	  0.22752	  0.38436	  0.03088	  0.67507	711.98999	 23.40	
  5.109	-142.013	  0.67641	  0.23308	  0.38458	  0.24721	  0.36159	  0.03004	  0.67928	712.10999	 23.40	
  5.099	-161.165	  0.67403	  0.21901	  0.40041	  0.27415	  0.33027	  0.03145	  0.67632	712.13000	 23.40	
  5.100	180.000	  0.67603	  0.21409	  0.40893	  0.30578	  0.29904	  0.03561	  0.67855	712.12000	 23.40	
  6.800	180.000	  0.66823	  0.17577	  0.43874	  0.29910	  0.29212	  0.02661	  0.67541	712.15002	 23.40	
  6.796	-166.229	  0.66744	  0.18058	  0.43353	  0.26809	  0.32407	  0.02553	  0.67582	712.08002	 23.40	
  6.808	-152.311	  0.66880	  0.19073	  0.42055	  0.23859	  0.35647	  0.02357	  0.67651	712.08002	 23.40	
  6.795	-138.383	  0.66495	  0.20587	  0.39794	  0.21330	  0.38192	  0.02248	  0.67113	712.01001	 23.40	
  6.792	-124.591	  0.66834	  0.22803	  0.37438	  0.19629	  0.40655	  0.02195	  0.67453	712.01001	 23.40	
  6.787	-110.754	  0.67088	  0.25584	  0.34582	  0.18347	  0.42569	  0.02112	  0.67783	712.01001	 23.40	
  6.800	-96.985	  0.66994	  0.28579	  0.31223	  0.17670	  0.43490	  0.02459	  0.67769	711.94000	 23.40	
  6.800	-83.015	  0.66820	  0.31904	  0.27802	  0.17577	  0.43365	  0.02150	  0.67561	711.98999	 23.40	
  6.787	-69.246	  0.66550	  0.35015	  0.24748	  0.18257	  0.42198	  0.02508	  0.67241	711.97998	 23.40	
  6.792	-55.409	  0.67002	  0.38487	  0.22096	  0.19545	  0.40837	  0.02637	  0.67851	712.07001	 23.40	
  6.795	-41.617	  0.66469	  0.40697	  0.19842	  0.21267	  0.38340	  0.02854	  0.67456	711.98999	 23.40	
  6.808	-27.689	  0.66555	  0.43007	  0.18074	  0.23788	  0.35550	  0.03071	  0.67594	712.10999	 23.40	
  6.796	-13.771	  0.66757	  0.44288	  0.17336	  0.26857	  0.32407	  0.03325	  0.67903	712.03998	 23.40	
  6.800	  0.000	  0.66462	  0.44472	  0.16865	  0.29989	  0.28889	  0.03547	  0.67518	712.04999	 23.40	
  6.796	 13.771	  0.66226	  0.43963	  0.17061	  0.33195	  0.25723	  0.03703	  0.67247	712.02002	 23.40	
  6.808	 27.689	  0.66587	  0.42866	  0.18132	  0.36670	  0.22913	  0.03916	  0.67846	712.20001	 23.40	
  6.795	 41.617	  0.66065	  0.40434	  0.19657	  0.39470	  0.20117	  0.04133	  0.67205	712.07001	 23.40	
  6.792	 55.409	  0.66449	  0.38033	  0.21925	  0.41965	  0.18530	  0.04000	  0.67512	712.12000	 23.40	
  6.787	 69.246	  0.66325	  0.34777	  0.24629	  0.43555	  0.17124	  0.04001	  0.67521	712.08002	 23.40	
  6.800	 83.015	  0.67178	  0.31836	  0.27968	  0.44877	  0.16731	  0.04043	  0.68304	712.03998	 23.40	
  6.800	 96.985	  0.66208	  0.28139	  0.30974	  0.44406	  0.16456	  0.03967	  0.67355	712.12000	 23.40	
  6.787	110.754	  0.66523	  0.25155	  0.34343	  0.43633	  0.17288	  0.03982	  0.67636	712.06000	 23.40	
  6.792	124.591	  0.66308	  0.22335	  0.37334	  0.41719	  0.18559	  0.03722	  0.67383	711.97998	 23.40	
  6.795	138.383	  0.66708	  0.20255	  0.40180	  0.39495	  0.20508	  0.03484	  0.67698	711.98999	 23.40	
  6.808	152.311	  0.66427	  0.18695	  0.42093	  0.36481	  0.22971	  0.03307	  0.67351	712.04999	 23.40	
  6.796	166.229	  0.66663	  0.17754	  0.43361	  0.33204	  0.25967	  0.02953	  0.67443	712.13000	 23.40	
  8.491	168.704	  0.65806	  0.14002	  0.46481	  0.32473	  0.24997	  0.02268	  0.67204	712.04999	 23.40	
  8.502	157.493	  0.65913	  0.14640	  0.45562	  0.35898	  0.22075	  0.02380	  0.67585	712.09003	 23.40	
  8.494	146.194	  0.65939	  0.15976	  0.43637	  0.39154	  0.19342	  0.02595	  0.67575	712.03003	 23.40	
  8.495	135.039	  0.65924	  0.17640	  0.41479	  0.41972	  0.17067	  0.02903	  0.67631	712.03998	 23.40	
  8.487	123.723	  0.65755	  0.20018	  0.38636	  0.44413	  0.15198	  0.03092	  0.67583	712.06000	 23.40	
  8.492	112.575	  0.65905	  0.22592	  0.35628	  0.46327	  0.13856	  0.03182	  0.67818	712.08002	 23.40	
  8.510	101.220	  0.65806	  0.25816	  0.32199	  0.47446	  0.13007	  0.03352	  0.67778	712.04999	 23.40	
  8.500	 90.000	  0.65696	  0.29066	  0.28843	  0.47733	  0.12786	  0.03497	  0.67876	712.00000	 23.40	
  8.510	 78.780	  0.65541	  0.32387	  0.25251	  0.47316	  0.12798	  0.03479	  0.67436	712.12000	 23.40	
  8.492	 67.425	  0.65766	  0.35952	  0.22483	  0.46342	  0.13880	  0.03613	  0.67787	712.09998	 23.40	
  8.487	 56.277	  0.65328	  0.38829	  0.19588	  0.44296	  0.15006	  0.03516	  0.67272	712.08002	 23.40	
  8.495	 44.961	  0.65613	  0.41960	  0.17362	  0.42169	  0.17003	  0.03618	  0.67720	712.03003	 23.40	
  8.494	 33.806	  0.65611	  0.44300	  0.15546	  0.39423	  0.19238	  0.03631	  0.67621	712.03003	 23.40	
  8.502	 22.507	  0.65826	  0.46224	  0.14160	  0.36259	  0.21948	  0.03298	  0.67959	711.90997	 23.40	
  8.491	 11.296	  0.65917	  0.47268	  0.13372	  0.32837	  0.25046	  0.03243	  0.67883	712.01001	 23.40	
  8.500	  0.000	  0.65725	  0.47719	  0.12896	  0.29255	  0.28176	  0.02986	  0.67611	712.01001	 23.40	
  8.491	-11.296	  0.65578	  0.47198	  0.13241	  0.25941	  0.31521	  0.02655	  0.67459	712.03003	 23.40	
  8.502	-22.507	  0.65636	  0.46067	  0.13996	  0.22793	  0.34850	  0.02303	  0.67427	712.09003	 23.40	
  8.494	-33.806	  0.65619	  0.44296	  0.15547	  0.20101	  0.38007	  0.02380	  0.67533	712.01001	 23.40	
  8.495	-44.961	  0.65708	  0.42034	  0.17452	  0.17877	  0.40772	  0.01952	  0.67402	712.03998	 23.40	
  8.487	-56.277	  0.66416	  0.39621	  0.19953	  0.16259	  0.43497	  0.02004	  0.67938	712.03998	 23.40	
  8.492	-67.425	  0.65978	  0.36245	  0.22399	  0.14760	  0.44976	  0.01796	  0.67526	711.98999	 23.40	
  8.510	-78.780	  0.66023	  0.32934	  0.25497	  0.13999	  0.46089	  0.01466	  0.67543	712.09998	 23.40	
  8.500	-90.000	  0.66106	  0.29693	  0.28649	  0.13788	  0.46592	  0.01462	  0.67660	712.08002	 23.40	
  8.510	-101.220	  0.66030	  0.26255	  0.31965	  0.13926	  0.46145	  0.01330	  0.67499	712.09003	 23.40	
  8.492	-112.575	  0.66279	  0.23307	  0.35489	  0.14859	  0.45203	  0.01109	  0.67685	712.07001	 23.40	
  8.487	-123.723	  0.65562	  0.20476	  0.38200	  0.16080	  0.42969	  0.01231	  0.66842	712.16998	 23.40	
  8.495	-135.039	  0.66278	  0.18305	  0.41331	  0.17994	  0.41060	  0.01404	  0.67565	712.12000	 23.40	
  8.494	-146.194	  0.65982	  0.16475	  0.43552	  0.20224	  0.38134	  0.01440	  0.67494	712.07001	 23.40	
  8.502	-157.493	  0.65978	  0.15031	  0.45393	  0.22890	  0.34973	  0.01857	  0.67400	712.16998	 23.40	
  8.491	-168.704	  0.66001	  0.14230	  0.46439	  0.25975	  0.31748	  0.01735	  0.67558	712.12000	 23.40	
  8.500	180.000	  0.66084	  0.13923	  0.46924	  0.29254	  0.28507	  0.01936	  0.67692	711.97998	 23.40	
 10.200	180.000	  0.65533	  0.10187	  0.50176	  0.28404	  0.27874	  0.01022	  0.67997	712.09998	 23.40	
 10.191	-170.497	  0.65416	  0.10492	  0.49662	  0.25050	  0.31116	  0.01035	  0.67759	711.92999	 23.40	
 10.210	-161.034	  0.65128	  0.11054	  0.48508	  0.21776	  0.34439	  0.00802	  0.67518	711.98999	 23.40	
 10.194	-151.526	  0.65365	  0.12423	  0.47030	  0.19175	  0.37697	  0.00798	  0.67665	712.03998	 23.40	
 10.190	-142.105	  0.65432	  0.13922	  0.44996	  0.16620	  0.40674	  0.00483	  0.67674	712.03003	 23.40	
 10.215	-132.646	  0.64944	  0.15756	  0.42118	  0.14288	  0.43175	  0.00320	  0.67193	712.10999	 23.40	
 10.203	-123.092	  0.65008	  0.18043	  0.39268	  0.12569	  0.45540	  0.00157	  0.67308	712.04999	 23.30	
 10.192	-113.678	  0.65378	  0.20827	  0.36332	  0.11261	  0.47659	  0.00377	  0.67818	711.96002	 23.40	
 10.208	-104.249	  0.65509	  0.23937	  0.33071	  0.10421	  0.49014	  0.00427	  0.68027	712.07001	 23.30	
 10.210	-94.801	  0.65255	  0.27038	  0.29514	  0.09915	  0.49414	  0.00441	  0.67625	712.12000	 23.30	
 10.210	-85.199	  0.65252	  0.30495	  0.26224	  0.09988	  0.49477	  0.00654	  0.67845	712.08002	 23.40	
 10.208	-75.751	  0.65116	  0.33894	  0.23039	  0.10378	  0.48831	  0.00455	  0.67680	712.06000	 23.30	
 10.192	-66.322	  0.64783	  0.37103	  0.19873	  0.11160	  0.47331	  0.00634	  0.67319	712.13000	 23.30	
 10.203	-56.908	  0.65073	  0.40402	  0.17344	  0.12609	  0.45688	  0.00909	  0.67678	712.04999	 23.30	
 10.215	-47.354	  0.64933	  0.43263	  0.14974	  0.14373	  0.43343	  0.01065	  0.67565	712.00000	 23.30	
 10.190	-37.895	  0.64692	  0.45618	  0.12996	  0.16523	  0.40490	  0.01284	  0.67477	712.15002	 23.30	
 10.194	-28.474	  0.65068	  0.47986	  0.11421	  0.19048	  0.37607	  0.01424	  0.67822	712.07001	 23.30	
 10.210	-18.966	  0.64150	  0.48919	  0.10193	  0.21756	  0.33958	  0.01578	  0.67105	712.15002	 23.30	
 10.191	 -9.503	  0.64624	  0.50176	  0.09576	  0.25007	  0.30809	  0.02068	  0.67754	712.06000	 23.30	
 10.200	  0.000	  0.64769	  0.50604	  0.09431	  0.28520	  0.27472	  0.02256	  0.67711	712.03003	 23.30	
 10.191	  9.503	  0.64366	  0.50130	  0.09382	  0.31905	  0.23917	  0.02525	  0.67563	711.96997	 23.30	
 10.210	 18.966	  0.64137	  0.48953	  0.10061	  0.35199	  0.20690	  0.02608	  0.67211	712.08002	 23.30	
 10.194	 28.474	  0.64352	  0.47625	  0.11138	  0.38709	  0.17754	  0.02721	  0.67592	712.04999	 23.30	
 10.190	 37.895	  0.64092	  0.45276	  0.12774	  0.41630	  0.15463	  0.03021	  0.67318	712.06000	 23.30	
 10.215	 47.354	  0.64349	  0.42926	  0.14687	  0.44579	  0.13127	  0.02914	  0.67667	712.04999	 23.30	
 10.203	 56.908	  0.64147	  0.39809	  0.17039	  0.46746	  0.11405	  0.02845	  0.67435	712.06000	 23.30	
 10.192	 66.322	  0.64223	  0.36556	  0.19766	  0.48452	  0.10323	  0.02845	  0.67438	712.07001	 23.30	
 10.208	 75.751	  0.64428	  0.33369	  0.22708	  0.49915	  0.09342	  0.02862	  0.67658	712.06000	 23.30	
 10.210	 85.199	  0.64243	  0.29867	  0.25927	  0.50409	  0.08975	  0.02834	  0.67491	712.06000	 23.30	
 10.210	 94.801	  0.64526	  0.26525	  0.29380	  0.50618	  0.08905	  0.02771	  0.67664	711.96997	 23.30	
 10.208	104.249	  0.64420	  0.23112	  0.32926	  0.49875	  0.09359	  0.02564	  0.67535	711.95001	 23.30	
 10.192	113.678	  0.64163	  0.20173	  0.36004	  0.48352	  0.10331	  0.02608	  0.67096	711.97998	 23.30	
 10.203	123.092	  0.64396	  0.17606	  0.39297	  0.46638	  0.11699	  0.02452	  0.67297	712.00000	 23.30	
 10.215	132.646	  0.64959	  0.15241	  0.42585	  0.44486	  0.13609	  0.01959	  0.67769	711.92999	 23.30	
 10.190	142.105	  0.64777	  0.13281	  0.45031	  0.41538	  0.15782	  0.01728	  0.67505	712.01001	 23.30	
 10.194	151.526	  0.65064	  0.11750	  0.47254	  0.38517	  0.18159	  0.01666	  0.67689	712.09998	 23.30	
 10.210	161.034	  0.64978	  0.10717	  0.48642	  0.35151	  0.21099	  0.01515	  0.67574	712.02002	 23.30	
 10.191	170.497	  0.64635	  0.10091	  0.49269	  0.31479	  0.24033	  0.01216	  0.67225	712.03998	 23.30	
 11.899	171.783	  0.63465	  0.06159	  0.52142	  0.30489	  0.23042	  0.00269	  0.67281	712.00000	 23.30	
 11.890	163.610	  0.63838	  0.06996	  0.51582	  0.34194	  0.20093	  0.00797	  0.67720	712.07001	 23.30	
 11.889	155.445	  0.64063	  0.07949	  0.50317	  0.37682	  0.17206	  0.00710	  0.68016	711.98999	 23.30	
 11.909	147.299	  0.63566	  0.09237	  0.48193	  0.40781	  0.14393	  0.01116	  0.67521	711.98999	 23.30	
 11.902	139.148	  0.63671	  0.10829	  0.46081	  0.43910	  0.12161	  0.01190	  0.67768	711.98999	 23.30	
 11.894	130.867	  0.63426	  0.12762	  0.43284	  0.46520	  0.10102	  0.01482	  0.67516	711.98999	 23.30	
 11.897	122.732	  0.63137	  0.15007	  0.40094	  0.48600	  0.08319	  0.01680	  0.67283	712.01001	 23.30	
 11.903	114.597	  0.63040	  0.17672	  0.36898	  0.50501	  0.07122	  0.01567	  0.67261	712.03998	 23.30	
 11.893	106.346	  0.63002	  0.20494	  0.33555	  0.51846	  0.06158	  0.01925	  0.67331	712.04999	 23.30	
 11.892	 98.155	  0.62939	  0.23651	  0.30002	  0.52780	  0.05474	  0.01886	  0.67268	711.94000	 23.30	
 11.900	 90.000	  0.62730	  0.26937	  0.26555	  0.52986	  0.05187	  0.01903	  0.67181	711.98999	 23.30	
 11.892	 81.845	  0.63077	  0.30553	  0.23363	  0.53128	  0.05438	  0.02214	  0.67651	712.01001	 23.30	
 11.893	 73.654	  0.62885	  0.33987	  0.20093	  0.52035	  0.06049	  0.02027	  0.67363	711.98999	 23.30	
 11.903	 65.403	  0.62942	  0.37403	  0.17260	  0.50785	  0.06974	  0.01996	  0.67516	711.95001	 23.30	
 11.897	 57.268	  0.62962	  0.40482	  0.14612	  0.48969	  0.08133	  0.01880	  0.67513	712.01001	 23.30	
 11.894	 49.133	  0.62957	  0.43538	  0.12412	  0.46639	  0.09922	  0.02092	  0.67608	712.04999	 23.30	
 11.902	 40.852	  0.62857	  0.46293	  0.10240	  0.43860	  0.11940	  0.02021	  0.67555	711.96002	 23.30	
 11.909	 32.701	  0.62760	  0.48525	  0.08674	  0.40828	  0.14182	  0.01943	  0.67350	711.96997	 23.30	
 11.889	 24.555	  0.62735	  0.50252	  0.07252	  0.37627	  0.16678	  0.01930	  0.67280	711.94000	 23.30	
 11.890	 16.390	  0.63179	  0.51964	  0.06243	  0.34424	  0.19638	  0.01653	  0.67673	711.98999	 23.30	
 11.899	  8.217	  0.62546	  0.52381	  0.05707	  0.30570	  0.22709	  0.01617	  0.67039	712.02002	 23.30	
 11.900	  0.000	  0.63306	  0.53232	  0.05539	  0.27482	  0.26298	  0.01409	  0.67717	712.01001	 23.30	
 11.899	 -8.217	  0.63462	  0.53160	  0.05735	  0.23991	  0.29701	  0.01187	  0.67836	712.02002	 23.30	
 11.890	-16.390	  0.63052	  0.51939	  0.06381	  0.20767	  0.33042	  0.01019	  0.67356	711.98999	 23.30	
 11.889	-24.555	  0.63406	  0.50967	  0.07191	  0.17898	  0.36485	  0.00659	  0.67702	712.04999	 23.30	
 11.909	-32.701	  0.63040	  0.48820	  0.08458	  0.15164	  0.39353	  0.00700	  0.67184	712.06000	 23.30	
 11.902	-40.852	  0.63227	  0.46619	  0.10302	  0.12733	  0.42635	  0.00345	  0.67277	712.06000	 23.30	
 11.894	-49.133	  0.63647	  0.44139	  0.12486	  0.10867	  0.45462	  0.00200	  0.67646	712.09998	 23.40	
 11.897	-57.268	  0.63865	  0.41327	  0.14784	  0.09204	  0.47853	  0.00166	  0.67799	711.96997	 23.30	
 11.903	-65.403	  0.63873	  0.38186	  0.17337	  0.07921	  0.49823	 -0.00171	  0.67788	712.01001	 23.30	
 11.893	-73.654	  0.63742	  0.34541	  0.20249	  0.06906	  0.50934	 -0.00294	  0.67527	712.12000	 23.30	
 11.892	-81.845	  0.63809	  0.31161	  0.23402	  0.06320	  0.51772	 -0.00564	  0.67538	712.12000	 23.30	
 11.900	-90.000	  0.64336	  0.28053	  0.26931	  0.06174	  0.52532	 -0.00531	  0.68099	712.04999	 23.30	
 11.892	-98.155	  0.64040	  0.24551	  0.30210	  0.06441	  0.52010	 -0.00542	  0.67604	712.00000	 23.30	
 11.893	-106.346	  0.63850	  0.21300	  0.33538	  0.06955	  0.51085	 -0.00691	  0.67455	712.08002	 23.40	
 11.903	-114.597	  0.63879	  0.18375	  0.37095	  0.08058	  0.49626	 -0.00531	  0.67391	712.02002	 23.40	
 11.897	-122.732	  0.64072	  0.15676	  0.40289	  0.09243	  0.47919	 -0.00525	  0.67534	712.09003	 23.40	
 11.894	-130.867	  0.64080	  0.13272	  0.43319	  0.10758	  0.45650	 -0.00675	  0.67577	712.09003	 23.30	
 11.902	-139.148	  0.64323	  0.11270	  0.46063	  0.12847	  0.43092	 -0.00686	  0.67848	712.16998	 23.30	
 11.909	-147.299	  0.64260	  0.09491	  0.48489	  0.15231	  0.40026	 -0.00027	  0.67808	712.08002	 23.40	
 11.889	-155.445	  0.64242	  0.08292	  0.50208	  0.17845	  0.36886	  0.00003	  0.67698	712.03998	 23.30	
 11.890	-163.610	  0.63582	  0.07323	  0.51153	  0.20676	  0.33215	  0.00098	  0.67165	712.01001	 23.30	
 11.899	-171.783	  0.63744	  0.06650	  0.52124	  0.23795	  0.29818	  0.00307	  0.67318	712.04999	 23.40	
 11.900	180.000	  0.63593	  0.06491	  0.52367	  0.27161	  0.26469	  0.00187	  0.67222	712.04999	 23.30	
 13.600	180.000	  0.62408	  0.02796	  0.55069	  0.25952	  0.25348	 -0.00629	  0.67548	712.03998	 23.40	
 13.608	-172.853	  0.62422	  0.03056	  0.54783	  0.22775	  0.28721	 -0.00584	  0.67472	711.98999	 23.30	
 13.611	-165.583	  0.62420	  0.03479	  0.53965	  0.19464	  0.32171	 -0.00913	  0.67473	711.90002	 23.40	
 13.601	-158.353	  0.62913	  0.04417	  0.53134	  0.16682	  0.35947	 -0.00931	  0.67925	712.04999	 23.30	
 13.609	-151.210	  0.62903	  0.05567	  0.51457	  0.13895	  0.39065	 -0.00949	  0.67760	711.96997	 23.30	
 13.611	-143.999	  0.62867	  0.06980	  0.49378	  0.11373	  0.42306	 -0.01101	  0.67895	712.03003	 23.40	
 13.601	-136.825	  0.62336	  0.08714	  0.46539	  0.09193	  0.44824	 -0.01130	  0.67186	712.01001	 23.40	
 13.596	-129.640	  0.62367	  0.10671	  0.43769	  0.07296	  0.47300	 -0.01322	  0.67158	712.09003	 23.40	
 13.611	-122.431	  0.62764	  0.13093	  0.40947	  0.05688	  0.49993	 -0.01397	  0.67637	712.08002	 23.30	
 13.604	-115.211	  0.62309	  0.15639	  0.37392	  0.04343	  0.51527	 -0.01543	  0.67332	712.09003	 23.30	
 13.595	-108.042	  0.62407	  0.18597	  0.34115	  0.03568	  0.53055	 -0.01370	  0.67343	712.09003	 23.40	
 13.607	-100.793	  0.62200	  0.21544	  0.30708	  0.02803	  0.53887	 -0.01518	  0.67217	712.01001	 23.40	
 13.601	-93.617	  0.62617	  0.24937	  0.27442	  0.02453	  0.54815	 -0.01357	  0.67725	711.89001	 23.40	
 13.601	-86.383	  0.62753	  0.28395	  0.24021	  0.02380	  0.54979	 -0.01570	  0.67932	712.03998	 23.40	
 13.607	-79.207	  0.62271	  0.31634	  0.20693	  0.02777	  0.54039	 -0.01333	  0.67455	712.00000	 23.40	
 13.595	-71.958	  0.62295	  0.35186	  0.17736	  0.03404	  0.53211	 -0.01520	  0.67513	712.01001	 23.40	
 13.604	-64.789	  0.61625	  0.38094	  0.14660	  0.04329	  0.51187	 -0.01390	  0.66907	712.03003	 23.40	
 13.611	-57.569	  0.61769	  0.41480	  0.12101	  0.05657	  0.49457	 -0.01078	  0.67208	711.95001	 23.40	
 13.596	-50.360	  0.62068	  0.44828	  0.09751	  0.07313	  0.47334	 -0.00782	  0.67555	712.04999	 23.40	
 13.601	-43.175	  0.61751	  0.47469	  0.07711	  0.09221	  0.44505	 -0.00674	  0.67356	712.08002	 23.40	
 13.611	-36.001	  0.61524	  0.49701	  0.05806	  0.11381	  0.41516	 -0.00429	  0.67151	712.03003	 23.40	
 13.609	-28.790	  0.61750	  0.51916	  0.04604	  0.14076	  0.38459	 -0.00365	  0.67428	712.08002	 23.40	
 13.601	-21.647	  0.61678	  0.53504	  0.03462	  0.16703	  0.35334	  0.00004	  0.67451	711.98999	 23.40	
 13.611	-14.417	  0.61299	  0.54500	  0.02541	  0.19583	  0.31704	  0.00035	  0.67171	712.03003	 23.40	
 13.608	 -7.147	  0.61760	  0.55674	  0.02177	  0.23055	  0.28412	  0.00400	  0.67652	712.06000	 23.40	
 13.600	  0.000	  0.61612	  0.55608	  0.02020	  0.26293	  0.24913	  0.00532	  0.67508	712.13000	 23.40	
 13.608	  7.147	  0.61336	  0.55089	  0.02099	  0.29530	  0.21633	  0.00679	  0.67325	712.08002	 23.40	
 13.611	 14.417	  0.60933	  0.54166	  0.02608	  0.32936	  0.18292	  0.01031	  0.66967	712.07001	 23.40	
 13.601	 21.647	  0.61440	  0.53251	  0.03489	  0.36607	  0.15555	  0.00964	  0.67573	712.08002	 23.40	
 13.609	 28.790	  0.61471	  0.51508	  0.04934	  0.39886	  0.13065	  0.01095	  0.67492	712.14001	 23.40	
 13.611	 36.001	  0.61255	  0.49336	  0.06094	  0.42974	  0.10421	  0.01315	  0.67363	711.98999	 23.40	
 13.601	 43.175	  0.61020	  0.46652	  0.07760	  0.45710	  0.08132	  0.01208	  0.67081	711.98999	 23.40	
 13.596	 50.360	  0.61672	  0.44304	  0.09919	  0.48880	  0.06422	  0.01361	  0.67858	711.94000	 23.40	
 13.611	 57.569	  0.61242	  0.41015	  0.12329	  0.50789	  0.04971	  0.01327	  0.67368	711.96002	 23.40	
 13.604	 64.789	  0.61145	  0.37687	  0.14852	  0.52659	  0.03694	  0.01255	  0.67330	711.96002	 23.40	
 13.595	 71.958	  0.61472	  0.34561	  0.17602	  0.54391	  0.02576	  0.01210	  0.67779	712.09998	 23.40	
 13.607	 79.207	  0.61347	  0.30904	  0.20755	  0.55264	  0.02036	  0.01272	  0.67549	712.01001	 23.40	
 13.601	 86.383	  0.61359	  0.27512	  0.23885	  0.55516	  0.01847	  0.01266	  0.67394	712.15002	 23.40	
 13.601	 93.617	  0.60927	  0.24022	  0.27194	  0.55239	  0.01873	  0.01342	  0.66906	712.15997	 23.40	
 13.607	100.793	  0.61369	  0.20799	  0.30771	  0.55053	  0.02085	  0.01208	  0.67411	711.98999	 23.40	
 13.595	108.042	  0.61409	  0.17892	  0.34192	  0.53935	  0.02925	  0.01106	  0.67228	712.03998	 23.40	
 13.604	115.211	  0.61825	  0.15027	  0.37665	  0.52884	  0.03659	  0.00744	  0.67640	712.15002	 23.40	
 13.611	122.431	  0.61917	  0.12642	  0.40862	  0.50805	  0.05118	  0.00562	  0.67639	712.16998	 23.40	
 13.596	129.640	  0.61732	  0.10294	  0.43784	  0.48378	  0.06609	  0.00432	  0.67371	712.09003	 23.40	
 13.601	136.825	  0.61446	  0.08329	  0.46256	  0.45524	  0.08400	  0.00239	  0.67042	712.13000	 23.40	
 13.611	143.999	  0.62048	  0.06615	  0.49098	  0.42917	  0.10628	  0.00197	  0.67518	712.03003	 23.40	
 13.609	151.210	  0.62065	  0.05242	  0.51089	  0.39688	  0.13246	  0.00029	  0.67408	712.03998	 23.40	
 13.601	158.353	  0.61795	  0.04254	  0.52366	  0.36156	  0.15879	 -0.00015	  0.67222	712.09003	 23.40	
 13.611	165.583	  0.62382	  0.03428	  0.54040	  0.33037	  0.18951	 -0.00289	  0.67603	712.15997	 23.40	
 13.608	172.853	  0.62119	  0.02943	  0.54535	  0.29345	  0.22010	 -0.00379	  0.67214	712.08002	 23.40	
 15.298	173.587	  0.60371	 -0.00393	  0.56759	  0.28091	  0.20818	 -0.01170	  0.67171	712.16998	 23.40	
 15.291	167.167	  0.60352	 -0.00119	  0.56171	  0.31546	  0.17649	 -0.01018	  0.67187	712.10999	 23.40	
 15.307	160.676	  0.60694	  0.00519	  0.55445	  0.35208	  0.14665	 -0.00995	  0.67723	712.16998	 23.40	
 15.300	154.261	  0.60179	  0.01359	  0.53609	  0.38246	  0.11927	 -0.00953	  0.67234	712.12000	 23.40	
 15.288	147.854	  0.60655	  0.02627	  0.52143	  0.41850	  0.09457	 -0.00638	  0.67832	712.04999	 23.40	
 15.293	141.428	  0.60283	  0.04045	  0.49641	  0.44701	  0.07102	 -0.00505	  0.67522	712.02002	 23.40	
 15.299	134.985	  0.60178	  0.05884	  0.47129	  0.47594	  0.05191	 -0.00536	  0.67423	711.92999	 23.40	
 15.305	128.583	  0.60245	  0.07851	  0.44328	  0.50330	  0.03331	 -0.00352	  0.67631	712.04999	 23.40	
 15.309	122.142	  0.59980	  0.10115	  0.41281	  0.52414	  0.01982	 -0.00192	  0.67386	712.03998	 23.40	
 15.304	115.711	  0.60197	  0.12540	  0.38247	  0.54614	  0.00620	 -0.00095	  0.67801	712.03003	 23.40	
 15.297	109.291	  0.60153	  0.15222	  0.34836	  0.56117	 -0.00288	 -0.00117	  0.67857	712.09998	 23.40	
 15.293	102.897	  0.59504	  0.18151	  0.31172	  0.56791	 -0.00901	  0.00092	  0.67232	712.00000	 23.40	
 15.293	 96.458	  0.59555	  0.21111	  0.27777	  0.57520	 -0.01389	  0.00095	  0.67306	712.00000	 23.40	
 15.300	 90.000	  0.59628	  0.24516	  0.24477	  0.57919	 -0.01528	  0.00280	  0.67513	712.07001	 23.40	
 15.293	 83.542	  0.59344	  0.27737	  0.21209	  0.57462	 -0.01300	  0.00043	  0.67196	712.03998	 23.40	
 15.293	 77.103	  0.59781	  0.31454	  0.18048	  0.57289	 -0.01170	  0.00243	  0.67760	712.10999	 23.40	
 15.297	 70.709	  0.59908	  0.34956	  0.15241	  0.56374	 -0.00370	  0.00409	  0.67967	712.07001	 23.40	
 15.304	 64.289	  0.59384	  0.37988	  0.12319	  0.54442	  0.00495	  0.00301	  0.67388	712.09003	 23.40	
 15.309	 57.858	  0.59712	  0.41493	  0.09904	  0.52803	  0.01754	  0.00191	  0.67797	711.96002	 23.40	
 15.305	 51.417	  0.59391	  0.44382	  0.07482	  0.50321	  0.03145	  0.00235	  0.67415	712.06000	 23.40	
 15.299	 45.015	  0.59493	  0.47382	  0.05494	  0.47826	  0.04976	  0.00382	  0.67547	712.10999	 23.40	
 15.293	 38.572	  0.59959	  0.50290	  0.03681	  0.45261	  0.06893	  0.00325	  0.68042	712.12000	 23.40	
 15.288	 32.146	  0.59009	  0.51841	  0.02135	  0.41584	  0.09035	  0.00232	  0.66902	712.15002	 23.40	
 15.300	 25.739	  0.59245	  0.53913	  0.00877	  0.38518	  0.11501	  0.00090	  0.67264	712.06000	 23.40	
 15.307	 19.324	  0.59623	  0.55659	 -0.00140	  0.35262	  0.14276	 -0.00193	  0.67559	712.03998	 23.40	
 15.291	 12.833	  0.59762	  0.56887	 -0.00713	  0.31943	  0.17386	  0.00029	  0.67689	712.08002	 23.40	
 15.298	  6.413	  0.59952	  0.57682	 -0.01262	  0.28469	  0.20539	 -0.00202	  0.67740	712.07001	 23.40	
 15.300	  0.000	  0.59694	  0.57784	 -0.01446	  0.25056	  0.23644	 -0.00355	  0.67432	712.17999	 23.40	
 15.298	 -6.413	  0.59785	  0.57687	 -0.01251	  0.21684	  0.27072	 -0.00636	  0.67588	712.09003	 23.40	
 15.291	-12.833	  0.60192	  0.57250	 -0.00785	  0.18524	  0.30702	 -0.00728	  0.67791	712.13000	 23.40	
 15.307	-19.324	  0.59825	  0.55855	 -0.00225	  0.15436	  0.33947	 -0.00996	  0.67353	712.02002	 23.40	
 15.300	-25.739	  0.59704	  0.54338	  0.00768	  0.12725	  0.37185	 -0.00907	  0.67246	712.09998	 23.40	
 15.288	-32.146	  0.59882	  0.52598	  0.01842	  0.09984	  0.40480	 -0.01196	  0.67264	712.04999	 23.40	
 15.293	-38.572	  0.59986	  0.50378	  0.03282	  0.07733	  0.43533	 -0.01434	  0.67371	712.01001	 23.40	
 15.299	-45.015	  0.60310	  0.48046	  0.05050	  0.05610	  0.46598	 -0.01673	  0.67591	712.06000	 23.40	
 15.305	-51.417	  0.60314	  0.45046	  0.07192	  0.03936	  0.49070	 -0.01700	  0.67466	712.13000	 23.40	
 15.309	-57.858	  0.59978	  0.41804	  0.09428	  0.02358	  0.51053	 -0.01869	  0.67050	712.09998	 23.40	
 15.304	-64.289	  0.60243	  0.38765	  0.12132	  0.01059	  0.53164	 -0.02088	  0.67269	712.17999	 23.40	
 15.297	-70.709	  0.61047	  0.35781	  0.14991	  0.00049	  0.55374	 -0.02237	  0.68060	712.12000	 23.40	
 15.293	-77.103	  0.60578	  0.32216	  0.17770	 -0.00474	  0.56038	 -0.02092	  0.67480	712.09003	 23.40	
 15.293	-83.542	  0.60744	  0.28706	  0.20938	 -0.01004	  0.56697	 -0.02393	  0.67551	712.09998	 23.40	
 15.300	-90.000	  0.60548	  0.25285	  0.24198	 -0.01114	  0.56821	 -0.02071	  0.67409	712.12000	 23.40	
 15.293	-96.458	  0.60779	  0.22075	  0.27633	 -0.00885	  0.56666	 -0.02121	  0.67520	712.13000	 23.40	
 15.293	-102.897	  0.60662	  0.18710	  0.31209	 -0.00462	  0.55886	 -0.02229	  0.67276	712.09003	 23.40	
 15.297	-109.291	  0.60667	  0.15679	  0.34506	  0.00126	  0.54756	 -0.02077	  0.67323	712.22998	 23.40	
 15.304	-115.711	  0.60763	  0.12978	  0.37905	  0.01055	  0.53393	 -0.02304	  0.67400	712.13000	 23.40	
 15.309	-122.142	  0.60871	  0.10528	  0.41199	  0.02308	  0.51561	 -0.02506	  0.67375	712.13000	 23.40	
 15.305	-128.583	  0.60617	  0.08242	  0.44152	  0.03866	  0.49065	 -0.02249	  0.67078	712.16998	 23.40	
 15.299	-134.985	  0.60567	  0.06224	  0.46852	  0.05669	  0.46382	 -0.02064	  0.66819	712.20001	 23.40	
 15.293	-141.428	  0.60531	  0.04484	  0.49553	  0.07809	  0.43623	 -0.02066	  0.66926	712.10999	 23.40	
 15.288	-147.854	  0.60972	  0.02930	  0.51976	  0.10082	  0.40804	 -0.01874	  0.67421	712.17999	 23.40	
 15.300	-154.261	  0.60822	  0.01660	  0.53783	  0.12406	  0.37519	 -0.02002	  0.67345	712.08002	 23.40	
 15.307	-160.676	  0.61226	  0.00743	  0.55564	  0.15347	  0.34473	 -0.01988	  0.67917	712.20001	 23.40	
 15.291	-167.167	  0.60762	  0.00067	  0.56357	  0.18265	  0.30934	 -0.01866	  0.67462	712.21997	 23.40	
 15.298	-173.587	  0.60634	 -0.00479	  0.56957	  0.21405	  0.27364	 -0.01665	  0.67355	712.13000	 23.40	
 15.300	180.000	  0.61503	 -0.00529	  0.57893	  0.25134	  0.24418	 -0.01378	  0.68336	712.20001	 23.40	
 17.000	180.000	  0.58906	 -0.03953	  0.59325	  0.23463	  0.22647	 -0.02299	  0.67491	712.10999	 23.40	
 16.990	-174.179	  0.58925	 -0.03643	  0.59056	  0.20220	  0.26044	 -0.02529	  0.67367	712.15997	 23.40	
 17.009	-168.383	  0.59101	 -0.03351	  0.58474	  0.17063	  0.29556	 -0.02647	  0.67533	712.09998	 23.40	
 17.000	-162.596	  0.59049	 -0.02789	  0.57612	  0.14168	  0.32788	 -0.02983	  0.67450	712.09998	 23.40	
 16.990	-156.759	  0.59325	 -0.01930	  0.56345	  0.11351	  0.36411	 -0.02720	  0.67619	712.06000	 23.40	
 16.995	-150.919	  0.59114	 -0.00922	  0.54641	  0.08606	  0.39570	 -0.03130	  0.67376	712.03003	 23.40	
 16.988	-145.161	  0.58958	  0.00385	  0.52393	  0.06335	  0.42572	 -0.02932	  0.67247	712.07001	 23.40	
 17.014	-139.343	  0.59071	  0.01900	  0.50114	  0.04153	  0.45592	 -0.02927	  0.67399	712.10999	 23.40	
 17.007	-133.546	  0.58988	  0.03742	  0.47264	  0.02211	  0.48269	 -0.03161	  0.67250	712.06000	 23.40	
 17.001	-127.699	  0.59040	  0.05837	  0.44351	  0.00543	  0.51053	 -0.03022	  0.67342	712.08002	 23.40	
 17.006	-121.937	  0.59365	  0.07910	  0.41603	 -0.01075	  0.53442	 -0.03283	  0.67768	712.04999	 23.40	
 17.002	-116.134	  0.58987	  0.10412	  0.38119	 -0.02156	  0.55057	 -0.03002	  0.67402	712.00000	 23.40	
 17.001	-110.310	  0.59163	  0.13147	  0.34858	 -0.03103	  0.56732	 -0.02945	  0.67598	711.96997	 23.40	
 16.988	-104.517	  0.59439	  0.16264	  0.31655	 -0.03754	  0.58117	 -0.03094	  0.68009	712.02002	 23.40	
 17.008	-98.662	  0.58860	  0.19091	  0.27934	 -0.04239	  0.58423	 -0.03113	  0.67458	712.01001	 23.40	
 16.996	-92.909	  0.58864	  0.22425	  0.24552	 -0.04423	  0.58983	 -0.03125	  0.67533	712.06000	 23.40	
 16.996	-87.091	  0.58709	  0.25545	  0.21207	 -0.04478	  0.58867	 -0.03032	  0.67518	712.01001	 23.40	
 17.012	-81.253	  0.58689	  0.29138	  0.18012	 -0.04152	  0.58452	 -0.03051	  0.67428	712.01001	 23.40	
 16.988	-75.483	  0.59032	  0.32648	  0.15036	 -0.03800	  0.57977	 -0.03088	  0.67887	712.14001	 23.40	
 17.001	-69.690	  0.58400	  0.35676	  0.12015	 -0.03085	  0.56251	 -0.03089	  0.67239	712.14001	 23.40	
 17.002	-63.866	  0.58523	  0.39243	  0.09425	 -0.02088	  0.54933	 -0.02837	  0.67564	712.19000	 23.40	
 17.006	-58.063	  0.58309	  0.42401	  0.06892	 -0.00868	  0.52832	 -0.02682	  0.67362	712.15002	 23.40	
 17.001	-52.301	  0.58112	  0.45253	  0.04624	  0.00581	  0.50471	 -0.02880	  0.67254	712.04999	 23.40	
 17.007	-46.454	  0.58084	  0.48134	  0.02644	  0.02229	  0.47968	 -0.02510	  0.67174	712.00000	 23.40	
 17.014	-40.657	  0.58181	  0.50980	  0.00882	  0.04256	  0.45239	 -0.02339	  0.67433	712.15997	 23.40	
 16.988	-34.839	  0.58170	  0.53302	 -0.00588	  0.06401	  0.42316	 -0.02133	  0.67480	712.13000	 23.40	
 16.995	-29.081	  0.57782	  0.55038	 -0.01967	  0.08732	  0.38944	 -0.01921	  0.67200	712.13000	 23.40	
 16.990	-23.241	  0.57778	  0.56676	 -0.02953	  0.11422	  0.35547	 -0.01669	  0.67284	712.03998	 23.40	
 17.000	-17.404	  0.57839	  0.58076	 -0.03675	  0.14193	  0.32469	 -0.01697	  0.67380	711.98999	 23.40	
 17.009	-11.617	  0.57906	  0.59177	 -0.04338	  0.17173	  0.29121	 -0.01878	  0.67602	712.01001	 23.40	
 16.990	 -5.821	  0.58090	  0.59976	 -0.04780	  0.20372	  0.25675	 -0.01583	  0.67838	712.03998	 23.40	
 17.000	  0.000	  0.57737	  0.59713	 -0.04855	  0.23599	  0.22181	 -0.01152	  0.67456	712.10999	 23.40	
 16.990	  5.821	  0.57800	  0.59650	 -0.04529	  0.27066	  0.19127	 -0.01156	  0.67599	712.17999	 23.40	
 17.009	 11.617	  0.57853	  0.59140	 -0.04235	  0.30511	  0.16023	 -0.01011	  0.67788	712.17999	 23.40	
 17.000	 17.404	  0.57779	  0.57997	 -0.03481	  0.33940	  0.13108	 -0.00936	  0.67581	712.04999	 23.40	
 16.990	 23.241	  0.57513	  0.56450	 -0.02723	  0.37235	  0.10183	 -0.01069	  0.67507	712.01001	 23.40	
 16.995	 29.081	  0.57766	  0.55073	 -0.01731	  0.40765	  0.07712	 -0.00920	  0.67821	712.15997	 23.40	
 16.988	 34.839	  0.57409	  0.52487	 -0.00286	  0.43654	  0.05395	 -0.00813	  0.67331	712.13000	 23.40	
 17.014	 40.657	  0.57367	  0.50186	  0.01200	  0.46569	  0.03293	 -0.00822	  0.67472	711.98999	 23.40	
 17.007	 46.454	  0.57416	  0.47470	  0.02935	  0.49324	  0.01450	 -0.00927	  0.67420	712.08002	 23.40	
 17.001	 52.301	  0.57900	  0.44898	  0.05217	  0.52313	 -0.00056	 -0.00853	  0.67885	711.98999	 23.40	
 17.006	 58.063	  0.57622	  0.41629	  0.07290	  0.54380	 -0.01517	 -0.00745	  0.67703	712.09998	 23.40	
 17.002	 63.866	  0.57193	  0.38080	  0.09791	  0.55897	 -0.02639	 -0.00677	  0.67251	712.00000	 23.40	
 17.001	 69.690	  0.57627	  0.34996	  0.12432	  0.57758	 -0.03618	 -0.00562	  0.67575	712.09003	 23.40	
 16.988	 75.483	  0.57490	  0.31566	  0.15319	  0.58625	 -0.03971	 -0.00600	  0.67386	712.08002	 23.40	
 17.012	 81.253	  0.57505	  0.28239	  0.18332	  0.59409	 -0.04456	 -0.00763	  0.67329	712.06000	 23.40	
 16.996	 87.091	  0.57635	  0.24746	  0.21595	  0.59758	 -0.04675	 -0.00722	  0.67398	712.10999	 23.40	
 16.996	 92.909	  0.57794	  0.21539	  0.24812	  0.60028	 -0.04794	 -0.00899	  0.67736	712.04999	 23.40	
 17.008	 98.662	  0.57650	  0.18334	  0.28138	  0.59343	 -0.04499	 -0.00710	  0.67326	711.92999	 23.40	
 16.988	104.517	  0.57937	  0.15501	  0.31657	  0.58761	 -0.04018	 -0.00675	  0.67687	711.96002	 23.40	
 17.001	110.310	  0.57860	  0.12572	  0.34957	  0.57452	 -0.03332	 -0.00895	  0.67437	711.97998	 23.40	
 17.002	116.134	  0.58017	  0.09905	  0.38276	  0.55982	 -0.02566	 -0.01139	  0.67553	712.03003	 23.40	
 17.006	121.937	  0.57977	  0.07575	  0.41321	  0.53995	 -0.01224	 -0.01180	  0.67403	712.09998	 23.40	
 17.001	127.699	  0.58231	  0.05358	  0.44619	  0.51960	 -0.00012	 -0.01249	  0.67681	712.04999	 23.40	
 17.007	133.546	  0.58495	  0.03384	  0.47677	  0.49428	  0.01739	 -0.01581	  0.67793	712.09998	 23.40	
 17.014	139.343	  0.58300	  0.01648	  0.50047	  0.46513	  0.03615	 -0.01368	  0.67489	712.07001	 23.40	
 16.988	145.161	  0.58523	  0.00195	  0.52407	  0.43472	  0.05734	 -0.01558	  0.67587	712.09998	 23.40	
 16.995	150.919	  0.58783	 -0.01099	  0.54652	  0.40498	  0.08112	 -0.01930	  0.67793	712.10999	 23.40	
 16.990	156.759	  0.59004	 -0.02170	  0.56622	  0.37229	  0.10709	 -0.02061	  0.67937	712.13000	 23.40	
 17.000	162.596	  0.58621	 -0.02839	  0.57482	  0.33625	  0.13385	 -0.01965	  0.67399	712.07001	 23.40	
 17.009	168.383	  0.58578	 -0.03456	  0.58475	  0.30124	  0.16285	 -0.01983	  0.67385	712.10999	 23.40	
 16.990	174.179	  0.59166	 -0.03826	  0.59556	  0.27005	  0.19655	 -0.02200	  0.67893	712.06000	 23.40	
 18.709	174.675	  0.56688	 -0.07435	  0.61115	  0.25044	  0.17981	 -0.02959	  0.67561	712.13000	 23.40	
 18.703	169.441	  0.56881	 -0.07253	  0.60940	  0.28517	  0.14894	 -0.02848	  0.67903	712.08002	 23.40	
 18.691	164.085	  0.56481	 -0.06600	  0.59619	  0.31948	  0.11917	 -0.02589	  0.67486	712.03003	 23.40	
 18.706	158.818	  0.56372	 -0.05970	  0.58379	  0.35205	  0.09084	 -0.02731	  0.67550	712.07001	 23.40	
 18.695	153.537	  0.56020	 -0.05080	  0.56461	  0.38360	  0.06486	 -0.02560	  0.67212	712.13000	 23.40	
 18.704	148.255	  0.56116	 -0.03998	  0.54731	  0.41765	  0.04101	 -0.02821	  0.67246	712.09998	 23.40	
 18.698	142.952	  0.56188	 -0.02636	  0.52644	  0.44953	  0.02077	 -0.02312	  0.67407	711.96997	 23.40	
 18.699	137.625	  0.56343	 -0.01293	  0.50401	  0.47982	  0.00026	 -0.02637	  0.67684	712.01001	 23.40	
 18.705	132.343	  0.55815	  0.00610	  0.47266	  0.50457	 -0.01731	 -0.02428	  0.67242	712.10999	 23.40	
 18.713	127.067	  0.55574	  0.02520	  0.44162	  0.52798	 -0.03292	 -0.02288	  0.66988	712.14001	 23.40	
 18.700	121.794	  0.56047	  0.04701	  0.41469	  0.55539	 -0.04682	 -0.02198	  0.67681	712.03003	 23.40	
 18.698	116.504	  0.55622	  0.07065	  0.38151	  0.57164	 -0.05691	 -0.02048	  0.67334	711.96002	 23.40	
 18.707	111.165	  0.55770	  0.09590	  0.34878	  0.58877	 -0.06712	 -0.01975	  0.67625	712.03998	 23.40	
 18.690	105.863	  0.55338	  0.12257	  0.31397	  0.59720	 -0.07292	 -0.02110	  0.67143	712.03003	 23.40	
 18.696	100.583	  0.55445	  0.15225	  0.28072	  0.60902	 -0.07862	 -0.01991	  0.67383	712.09003	 23.40	
 18.700	 95.309	  0.55540	  0.18170	  0.24844	  0.61598	 -0.08175	 -0.02043	  0.67458	712.09003	 23.40	
 18.700	 90.000	  0.55545	  0.21425	  0.21598	  0.61863	 -0.08258	 -0.01773	  0.67656	712.01001	 23.40	
 18.700	 84.691	  0.55749	  0.24775	  0.18486	  0.61976	 -0.08267	 -0.01274	  0.67845	711.96002	 23.40	
 18.696	 79.417	  0.55214	  0.27971	  0.15223	  0.60984	 -0.07899	 -0.01397	  0.67321	712.03998	 23.40	
 18.690	 74.137	  0.55417	  0.31477	  0.12379	  0.60274	 -0.07477	 -0.01666	  0.67631	712.03998	 23.40	
 18.707	 68.835	  0.54881	  0.34473	  0.09596	  0.58638	 -0.06780	 -0.01510	  0.67033	712.03003	 23.40	
 18.698	 63.496	  0.55645	  0.38421	  0.07028	  0.57659	 -0.05813	 -0.01697	  0.67938	712.10999	 23.40	
 18.700	 58.206	  0.55226	  0.41379	  0.04680	  0.55401	 -0.04631	 -0.02077	  0.67290	712.10999	 23.40	
 18.713	 52.933	  0.55273	  0.44437	  0.02361	  0.53337	 -0.03651	 -0.02054	  0.67467	712.03003	 23.40	
 18.705	 47.657	  0.55469	  0.47585	  0.00325	  0.51138	 -0.02139	 -0.01857	  0.67813	712.09003	 23.40	
 18.699	 42.375	  0.55230	  0.50167	 -0.01329	  0.48156	 -0.00290	 -0.02017	  0.67463	712.03003	 23.40	
 18.698	 37.048	  0.55336	  0.52704	 -0.02978	  0.45112	  0.01807	 -0.01940	  0.67400	711.98999	 23.40	
 18.704	 31.745	  0.55409	  0.55032	 -0.04273	  0.42198	  0.03888	 -0.01816	  0.67574	712.07001	 23.40	
 18.695	 26.463	  0.55731	  0.57246	 -0.05592	  0.39085	  0.06296	 -0.01796	  0.67910	711.94000	 23.40	
 18.706	 21.182	  0.55495	  0.58634	 -0.06468	  0.35542	  0.08808	 -0.01797	  0.67571	711.98999	 23.40	
 18.691	 15.915	  0.55563	  0.59876	 -0.07318	  0.32145	  0.11595	 -0.02096	  0.67595	712.08002	 23.40	
 18.703	 10.559	  0.55680	  0.60935	 -0.07828	  0.28704	  0.14411	 -0.02284	  0.67749	711.96997	 23.40	
 18.709	  5.325	  0.55683	  0.61518	 -0.08046	  0.25372	  0.17638	 -0.02391	  0.67608	711.97998	 23.40	
 18.700	  0.000	  0.55199	  0.61119	 -0.08098	  0.21841	  0.20622	 -0.02384	  0.67008	711.98999	 23.40	
 18.709	 -5.325	  0.55804	  0.61618	 -0.08177	  0.18592	  0.24158	 -0.02479	  0.67722	711.96002	 23.40	
 18.703	-10.559	  0.55792	  0.61067	 -0.07891	  0.15659	  0.27529	 -0.02440	  0.67643	711.95001	 23.40	
 18.691	-15.915	  0.55611	  0.60024	 -0.07331	  0.12639	  0.30690	 -0.02741	  0.67315	711.97998	 23.40	
 18.706	-21.182	  0.55645	  0.58836	 -0.06710	  0.09743	  0.34092	 -0.02744	  0.67239	711.96002	 23.40	
 18.695	-26.463	  0.55627	  0.57321	 -0.05761	  0.07213	  0.37388	 -0.03137	  0.67272	711.98999	 23.40	
 18.704	-31.745	  0.55867	  0.55647	 -0.04725	  0.04822	  0.40587	 -0.02862	  0.67513	711.87000	 23.40	
 18.698	-37.048	  0.55841	  0.53331	 -0.03192	  0.02633	  0.43839	 -0.03040	  0.67302	711.96997	 23.40	
 18.699	-42.375	  0.55922	  0.50884	 -0.01562	  0.00753	  0.46732	 -0.03510	  0.67160	712.02002	 23.40	
 18.705	-47.657	  0.56235	  0.48398	  0.00109	 -0.01243	  0.49827	 -0.03489	  0.67505	711.94000	 23.40	
 18.713	-52.933	  0.56292	  0.45644	  0.01883	 -0.02912	  0.52298	 -0.03475	  0.67642	711.96002	 23.40	
 18.700	-58.206	  0.56171	  0.42393	  0.04133	 -0.04058	  0.54242	 -0.03555	  0.67222	711.92999	 23.40	
 18.698	-63.496	  0.56431	  0.39339	  0.06763	 -0.05085	  0.56361	 -0.03703	  0.67520	711.91998	 23.40	
 18.707	-68.835	  0.56118	  0.35713	  0.09330	 -0.06059	  0.57625	 -0.03769	  0.67053	712.01001	 23.40	
 18.690	-74.137	  0.56664	  0.32569	  0.12153	 -0.06924	  0.59379	 -0.03623	  0.67620	711.98999	 23.40	
 18.696	-79.417	  0.56652	  0.29142	  0.14943	 -0.07461	  0.60248	 -0.03600	  0.67524	711.95001	 23.40	
 18.700	-84.691	  0.56736	  0.25862	  0.18339	 -0.07487	  0.60783	 -0.03881	  0.67568	711.96002	 23.40	
 18.700	-90.000	  0.56799	  0.22463	  0.21418	 -0.07688	  0.60877	 -0.03813	  0.67450	711.94000	 23.40	
 18.700	-95.309	  0.56744	  0.19222	  0.24675	 -0.07637	  0.60642	 -0.03797	  0.67367	711.96997	 23.40	
 18.696	-100.583	  0.57372	  0.16307	  0.28332	 -0.07382	  0.60619	 -0.03638	  0.67951	711.90997	 23.40	
 18.690	-105.863	  0.56715	  0.13228	  0.31302	 -0.06856	  0.59086	 -0.03680	  0.67189	712.03003	 23.40	
 18.707	-111.165	  0.57233	  0.10582	  0.34969	 -0.06146	  0.58347	 -0.03695	  0.67650	712.01001	 23.30	
 18.698	-116.504	  0.56896	  0.07906	  0.38118	 -0.05115	  0.56376	 -0.03562	  0.67237	712.01001	 23.40	
 18.700	-121.794	  0.56744	  0.05573	  0.41264	 -0.03866	  0.54272	 -0.03780	  0.67003	712.01001	 23.40	
 18.713	-127.067	  0.57137	  0.03233	  0.44635	 -0.02820	  0.52517	 -0.03683	  0.67451	711.95001	 23.40	
 18.705	-132.343	  0.57141	  0.01162	  0.47576	 -0.01216	  0.50024	 -0.03528	  0.67550	711.94000	 23.40	
 18.699	-137.625	  0.57157	 -0.00493	  0.50216	  0.00633	  0.47225	 -0.04092	  0.67403	711.97998	 23.40	
 18.698	-142.952	  0.57236	 -0.02153	  0.52753	  0.02510	  0.44359	 -0.03595	  0.67475	711.96997	 23.40	
 18.704	-148.255	  0.57328	 -0.03671	  0.55070	  0.04541	  0.41429	 -0.03608	  0.67664	712.07001	 23.40	
 18.695	-153.537	  0.57244	 -0.04755	  0.56903	  0.07023	  0.38206	 -0.03597	  0.67629	712.01001	 23.40	
 18.706	-158.818	  0.56766	 -0.05581	  0.58033	  0.09645	  0.34490	 -0.03405	  0.66987	711.96002	 23.40	
 18.691	-164.085	  0.57129	 -0.06333	  0.59659	  0.12472	  0.31426	 -0.03546	  0.67602	711.94000	 23.40	
 18.703	-169.441	  0.56795	 -0.06963	  0.60368	  0.15331	  0.27878	 -0.03314	  0.67297	711.90997	 23.40	
 18.709	-174.675	  0.56935	 -0.07402	  0.61162	  0.18498	  0.24657	 -0.03368	  0.67557	711.94000	 23.40	
 18.700	180.000	  0.56832	 -0.07455	  0.61137	  0.21745	  0.21175	 -0.03232	  0.67515	712.01001	 23.30	
 20.400	180.000	  0.54901	 -0.11280	  0.63376	  0.19970	  0.19512	 -0.03857	  0.68165	712.03003	 23.30	
 20.401	-175.153	  0.54756	 -0.11061	  0.62915	  0.16775	  0.22759	 -0.03951	  0.67711	711.81000	 23.40	
 20.407	-170.264	  0.54612	 -0.10758	  0.62315	  0.13598	  0.26030	 -0.04618	  0.67605	711.90997	 23.40	
 20.410	-165.423	  0.54576	 -0.10115	  0.61349	  0.10793	  0.29302	 -0.04406	  0.67293	711.78003	 23.40	
 20.392	-160.496	  0.54666	 -0.09593	  0.60197	  0.07803	  0.32750	 -0.04457	  0.67442	712.03003	 23.30	
 20.401	-155.705	  0.54468	 -0.08736	  0.58615	  0.05206	  0.35888	 -0.04376	  0.67133	712.00000	 23.30	
 20.405	-150.835	  0.54560	 -0.07746	  0.56855	  0.02815	  0.39202	 -0.04436	  0.67247	711.96002	 23.30	
 20.397	-145.903	  0.54892	 -0.06496	  0.55189	  0.00668	  0.42651	 -0.04748	  0.67642	711.90997	 23.40	
 20.392	-141.062	  0.55290	 -0.05028	  0.53152	 -0.01518	  0.46103	 -0.04849	  0.67994	712.03003	 23.30	
 20.396	-136.227	  0.55179	 -0.03264	  0.50438	 -0.03136	  0.48891	 -0.04895	  0.67851	712.09003	 23.30	
 20.408	-131.372	  0.55015	 -0.01385	  0.47514	 -0.04724	  0.51345	 -0.04660	  0.67520	711.95001	 23.30	
 20.410	-126.511	  0.54889	  0.00383	  0.44495	 -0.06279	  0.53641	 -0.04646	  0.67556	711.96002	 23.30	
 20.400	-121.604	  0.54979	  0.02631	  0.41399	 -0.07555	  0.55998	 -0.04394	  0.67640	712.01001	 23.30	
 20.403	-116.741	  0.54799	  0.04927	  0.38107	 -0.08654	  0.57959	 -0.04000	  0.67569	711.95001	 23.30	
 20.413	-111.900	  0.54975	  0.07674	  0.34909	 -0.09480	  0.59689	 -0.04365	  0.67909	712.02002	 23.30	
 20.398	-107.004	  0.55057	  0.10266	  0.31591	 -0.10186	  0.61024	 -0.04098	  0.67992	711.89001	 23.30	
 20.394	-102.132	  0.54670	  0.13140	  0.28127	 -0.10427	  0.61572	 -0.04214	  0.67576	711.94000	 23.30	
 20.403	-97.332	  0.54370	  0.15961	  0.24698	 -0.10745	  0.61979	 -0.04191	  0.67259	711.90997	 23.30	
 20.392	-92.440	  0.54145	  0.19151	  0.21205	 -0.10939	  0.61964	 -0.04185	  0.66932	711.89001	 23.30	
 20.392	-87.560	  0.54826	  0.22766	  0.18239	 -0.11147	  0.62995	 -0.04502	  0.68005	711.90997	 23.30	
 20.403	-82.668	  0.54233	  0.25773	  0.14909	 -0.10914	  0.61953	 -0.04478	  0.67472	711.96997	 23.30	
 20.394	-77.868	  0.54036	  0.28912	  0.11946	 -0.10575	  0.61245	 -0.04481	  0.67165	711.98999	 23.30	
 20.398	-72.996	  0.54004	  0.32261	  0.09056	 -0.10141	  0.60306	 -0.04408	  0.67295	711.94000	 23.30	
 20.413	-68.100	  0.54214	  0.35755	  0.06296	 -0.09553	  0.59322	 -0.04598	  0.67551	711.94000	 23.30	
 20.403	-63.259	  0.53939	  0.38931	  0.03799	 -0.08678	  0.57454	 -0.04401	  0.67358	711.90997	 23.30	
 20.400	-58.396	  0.53718	  0.42079	  0.01577	 -0.07476	  0.55468	 -0.04190	  0.67227	712.03003	 23.30	
 20.410	-53.489	  0.53852	  0.45332	 -0.00832	 -0.06404	  0.53498	 -0.04045	  0.67498	711.98999	 23.30	
 20.408	-48.628	  0.54161	  0.48586	 -0.02878	 -0.05059	  0.51255	 -0.04173	  0.68020	711.88000	 23.30	
 20.396	-43.773	  0.53537	  0.50903	 -0.04570	 -0.03253	  0.48071	 -0.03977	  0.67468	711.97998	 23.30	
 20.392	-38.938	  0.53571	  0.53488	 -0.06089	 -0.01451	  0.45338	 -0.04032	  0.67512	711.95001	 23.30	
 20.397	-34.097	  0.53768	  0.56042	 -0.07617	  0.00519	  0.42513	 -0.03859	  0.67865	711.94000	 23.30	
 20.405	-29.165	  0.53398	  0.57820	 -0.08847	  0.02827	  0.39002	 -0.03969	  0.67632	712.02002	 23.30	
 20.401	-24.295	  0.53188	  0.59331	 -0.09743	  0.05200	  0.35624	 -0.03908	  0.67364	712.04999	 23.30	
 20.392	-19.504	  0.53406	  0.60912	 -0.10575	  0.07949	  0.32374	 -0.03767	  0.67550	711.96002	 23.30	
 20.410	-14.577	  0.52664	  0.61303	 -0.11065	  0.10682	  0.28545	 -0.03226	  0.66736	712.03998	 23.30	
 20.407	 -9.736	  0.52986	  0.62516	 -0.11599	  0.13657	  0.25463	 -0.03544	  0.67300	712.08002	 23.30	
 20.401	 -4.847	  0.53103	  0.63065	 -0.11885	  0.16842	  0.22146	 -0.03160	  0.67525	712.00000	 23.30	
 20.400	  0.000	  0.53220	  0.63523	 -0.12151	  0.20015	  0.18955	 -0.03235	  0.67816	712.07001	 23.30	
 20.401	  4.847	  0.52963	  0.62884	 -0.11903	  0.23235	  0.15661	 -0.03316	  0.67347	712.08002	 23.30	
 20.407	  9.736	  0.52969	  0.62501	 -0.11490	  0.26717	  0.12619	 -0.03260	  0.67512	711.96002	 23.30	
 20.410	 14.577	  0.52995	  0.61797	 -0.11159	  0.30177	  0.09612	 -0.03244	  0.67718	712.01001	 23.30	
 20.392	 19.504	  0.53246	  0.60810	 -0.10457	  0.33718	  0.06969	 -0.03294	  0.67929	712.04999	 23.30	
 20.401	 24.295	  0.52986	  0.59111	 -0.09750	  0.36974	  0.04255	 -0.03391	  0.67812	712.08002	 23.30	
 20.405	 29.165	  0.52729	  0.56979	 -0.08663	  0.40114	  0.01787	 -0.03249	  0.67352	712.02002	 23.30	
 20.397	 34.097	  0.52814	  0.55034	 -0.07487	  0.43495	 -0.00436	 -0.02784	  0.67537	712.03003	 23.30	
 20.392	 38.938	  0.52837	  0.52653	 -0.06035	  0.46454	 -0.02351	 -0.02971	  0.67550	711.90997	 23.30	
 20.396	 43.773	  0.52744	  0.50110	 -0.04568	  0.49326	 -0.04194	 -0.03093	  0.67620	712.09003	 23.30	
 20.408	 48.628	  0.52809	  0.47273	 -0.02750	  0.51987	 -0.05828	 -0.03296	  0.67622	712.16998	 23.30	
 20.410	 53.489	  0.52691	  0.44284	 -0.00945	  0.54419	 -0.07300	 -0.03150	  0.67622	712.03998	 23.30	
 20.400	 58.396	  0.52154	  0.40781	  0.01312	  0.56158	 -0.08474	 -0.03156	  0.66942	712.04999	 23.30	
 20.403	 63.259	  0.52812	  0.38025	  0.03572	  0.58850	 -0.09761	 -0.02729	  0.67825	712.06000	 23.30	
 20.413	 68.100	  0.52658	  0.34449	  0.06255	  0.60161	 -0.10535	 -0.02432	  0.67451	712.02002	 23.30	
 20.398	 72.996	  0.52626	  0.31023	  0.09044	  0.61232	 -0.11043	 -0.02318	  0.67390	712.02002	 23.30	
 20.394	 77.868	  0.53074	  0.27869	  0.11956	  0.62674	 -0.11582	 -0.02415	  0.67811	712.01001	 23.30	
 20.403	 82.668	  0.53077	  0.24455	  0.14934	  0.63305	 -0.11995	 -0.02698	  0.67774	711.98999	 23.30	
 20.392	 87.560	  0.52897	  0.20984	  0.18038	  0.63358	 -0.12116	 -0.02738	  0.67603	711.96997	 23.30	
 20.392	 92.440	  0.52715	  0.17692	  0.21175	  0.63072	 -0.12066	 -0.02570	  0.67257	712.02002	 23.30	
 20.403	 97.332	  0.52999	  0.14639	  0.24607	  0.63001	 -0.12005	 -0.02812	  0.67531	712.02002	 23.30	
 20.394	102.132	  0.53324	  0.11744	  0.27974	  0.62602	 -0.11722	 -0.02886	  0.67839	712.01001	 23.30	
 20.398	107.004	  0.53450	  0.08964	  0.31363	  0.61766	 -0.11280	 -0.02897	  0.67900	711.98999	 23.30	
 20.413	111.900	  0.53228	  0.06212	  0.34554	  0.60132	 -0.10519	 -0.02921	  0.67534	711.91998	 23.30	
 20.403	116.741	  0.53334	  0.03652	  0.37942	  0.58396	 -0.09598	 -0.03235	  0.67460	712.01001	 23.30	
 20.400	121.604	  0.53282	  0.01459	  0.41074	  0.56340	 -0.08385	 -0.02979	  0.67292	711.94000	 23.30	
 20.410	126.511	  0.53401	 -0.00717	  0.44174	  0.54221	 -0.07249	 -0.03307	  0.67318	711.97998	 23.30	
 20.408	131.372	  0.53499	 -0.02734	  0.47303	  0.51676	 -0.05760	 -0.03264	  0.67430	711.98999	 23.30	
 20.396	136.227	  0.53811	 -0.04352	  0.50093	  0.49132	 -0.04040	 -0.03292	  0.67665	711.95001	 23.30	
 20.392	141.062	  0.53778	 -0.05772	  0.52749	  0.46271	 -0.02008	 -0.03451	  0.67666	711.98999	 23.30	
 20.397	145.903	  0.53994	 -0.07107	  0.55095	  0.43352	 -0.00085	 -0.03361	  0.67678	711.90997	 23.30	
 20.405	150.835	  0.53868	 -0.08322	  0.57082	  0.39916	  0.02133	 -0.03423	  0.67568	711.98999	 23.30	
 20.401	155.705	  0.54013	 -0.09249	  0.58780	  0.36665	  0.04630	 -0.03321	  0.67515	712.00000	 23.30	
 20.392	160.496	  0.54012	 -0.10053	  0.60152	  0.33223	  0.07251	 -0.03481	  0.67481	711.87000	 23.30	
 20.410	165.423	  0.54312	 -0.10689	  0.61536	  0.29923	  0.09977	 -0.03943	  0.67650	711.96997	 23.30	
 20.407	170.264	  0.54388	 -0.11183	  0.62413	  0.26519	  0.12871	 -0.04171	  0.67679	712.02002	 23.30	
 20.401	175.153	  0.54125	 -0.11137	  0.62437	  0.22992	  0.16085	 -0.04089	  0.67127	711.92999	 23.30	
  0.141	 45.000	  0.67979	  0.31463	  0.30959	  0.31598	  0.30648	  0.04545	  0.67891	711.90997	 23.30	
  4.001	128.691	  0.67475	  0.25920	  0.35551	  0.37414	  0.24099	  0.04278	  0.67757	711.96997	 23.30	
  4.002	 76.995	  0.67121	  0.32454	  0.28543	  0.38922	  0.22654	  0.04524	  0.67362	711.82001	 23.30	
  4.002	 25.892	  0.67067	  0.38096	  0.23764	  0.34334	  0.26490	  0.04567	  0.67257	711.94000	 23.30	
  4.002	-25.892	  0.67748	  0.38471	  0.23922	  0.27596	  0.33468	  0.04039	  0.67911	711.90002	 23.30	
  4.002	-76.995	  0.67182	  0.32571	  0.28760	  0.23690	  0.37686	  0.03684	  0.67363	711.92999	 23.30	
  4.001	-128.691	  0.67380	  0.26345	  0.35468	  0.25271	  0.36218	  0.03490	  0.67406	711.84003	 23.30	
  4.000	180.000	  0.66989	  0.23521	  0.38367	  0.30621	  0.29775	  0.03788	  0.67189	711.90002	 23.30	
  8.000	180.000	  0.66244	  0.15009	  0.46128	  0.29482	  0.28615	  0.02375	  0.67500	711.96997	 23.30	
  7.991	-152.370	  0.66231	  0.16596	  0.44007	  0.22306	  0.36209	  0.01923	  0.67486	711.96002	 23.30	
  7.997	-124.550	  0.65831	  0.21026	  0.38226	  0.17304	  0.42086	  0.01867	  0.66843	711.98999	 23.30	
  8.006	-96.837	  0.66196	  0.27768	  0.30922	  0.15032	  0.45365	  0.01776	  0.67491	711.92999	 23.30	
  7.988	-69.228	  0.66086	  0.35533	  0.23613	  0.15765	  0.44199	  0.01796	  0.67397	711.97998	 23.30	
  7.997	-41.563	  0.65901	  0.42172	  0.17755	  0.19338	  0.39562	  0.02368	  0.67332	711.91998	 23.30	
  8.008	-13.821	  0.66048	  0.46303	  0.14671	  0.25684	  0.32381	  0.02898	  0.67607	711.96997	 23.30	
  8.008	 13.821	  0.65480	  0.45829	  0.14643	  0.33298	  0.24535	  0.03380	  0.67226	711.88000	 23.30	
  7.997	 41.563	  0.65750	  0.41940	  0.17780	  0.40832	  0.18350	  0.03821	  0.67577	711.96002	 23.30	
  7.988	 69.228	  0.65785	  0.35101	  0.23447	  0.45684	  0.14544	  0.03711	  0.67471	711.94000	 23.30	
  8.006	 96.837	  0.66433	  0.27547	  0.31206	  0.47020	  0.13924	  0.03425	  0.68280	711.90997	 23.30	
  7.997	124.550	  0.65642	  0.20371	  0.38342	  0.43278	  0.16179	  0.03282	  0.67215	711.94000	 23.30	
  7.991	152.370	  0.65835	  0.16175	  0.43973	  0.37095	  0.21357	  0.02845	  0.67274	712.02002	 23.30	
 12.009	161.059	  0.63565	  0.06996	  0.51214	  0.35197	  0.18922	  0.00902	  0.67574	711.96997	 23.30	
 12.013	142.081	  0.63648	  0.09874	  0.47169	  0.42856	  0.12722	  0.01050	  0.67847	712.01001	 23.30	
 12.006	123.113	  0.63159	  0.14743	  0.40530	  0.48785	  0.08267	  0.01471	  0.67476	711.83002	 23.30	
 12.007	104.200	  0.62846	  0.21084	  0.32625	  0.52378	  0.05542	  0.01743	  0.67359	711.96002	 23.30	
 11.989	 85.301	  0.63013	  0.28940	  0.24919	  0.53346	  0.05217	  0.02099	  0.67743	711.90002	 23.30	
 12.013	 66.294	  0.62803	  0.36746	  0.17610	  0.50990	  0.06678	  0.02251	  0.67389	711.96002	 23.30	
 12.012	 47.388	  0.63136	  0.44293	  0.12040	  0.46401	  0.10185	  0.02190	  0.67661	711.91998	 23.30	
 11.990	 28.440	  0.62944	  0.49724	  0.07907	  0.39252	  0.15535	  0.02008	  0.67565	711.92999	 23.30	
 11.991	  9.464	  0.62581	  0.52425	  0.05845	  0.31114	  0.22328	  0.01450	  0.67096	711.96997	 23.30	
 11.991	 -9.464	  0.63286	  0.52936	  0.05788	  0.23521	  0.30234	  0.00931	  0.67571	712.03003	 23.30	
 11.990	-28.440	  0.63306	  0.50069	  0.07789	  0.16584	  0.38105	  0.00590	  0.67550	712.07001	 23.30	
 12.012	-47.388	  0.63457	  0.44677	  0.11832	  0.10937	  0.45075	  0.00150	  0.67556	712.00000	 23.30	
 12.013	-66.294	  0.63966	  0.37799	  0.17715	  0.07629	  0.50106	 -0.00391	  0.67806	712.06000	 23.30	
 11.989	-85.301	  0.63629	  0.29465	  0.24806	  0.06088	  0.51941	 -0.00566	  0.67404	712.08002	 23.30	
 12.007	-104.200	  0.63835	  0.21858	  0.32881	  0.06527	  0.51441	 -0.00615	  0.67483	712.09003	 23.30	
 12.006	-123.113	  0.64002	  0.15348	  0.40559	  0.09052	  0.47872	 -0.00594	  0.67622	712.04999	 23.30	
 12.013	-142.081	  0.63901	  0.10402	  0.47017	  0.13577	  0.41804	 -0.00080	  0.67484	712.01001	 23.30	
 12.009	-161.059	  0.64126	  0.07338	  0.51336	  0.19789	  0.34428	  0.00060	  0.67681	711.96997	 23.30	
 16.000	180.000	  0.60207	 -0.02196	  0.58322	  0.24149	  0.23570	 -0.01924	  0.67725	712.13000	 23.30	
 15.990	-165.604	  0.60582	 -0.01340	  0.57474	  0.16757	  0.31698	 -0.01971	  0.67943	712.04999	 23.30	
 16.002	-151.165	  0.60294	  0.00766	  0.53784	  0.10125	  0.39354	 -0.02281	  0.67535	712.03998	 23.30	
 16.002	-136.836	  0.60576	  0.04224	  0.48714	  0.04876	  0.46583	 -0.02526	  0.67881	711.98999	 23.30	
 15.995	-122.439	  0.60427	  0.09336	  0.41670	  0.01068	  0.52285	 -0.02664	  0.67771	712.08002	 23.30	
 15.993	-107.966	  0.60278	  0.15600	  0.33885	 -0.01366	  0.56070	 -0.02620	  0.67579	711.97998	 23.30	
 16.005	-93.629	  0.59890	  0.22878	  0.25758	 -0.02386	  0.57539	 -0.02643	  0.67408	712.06000	 23.30	
 15.992	-79.234	  0.59922	  0.30683	  0.18149	 -0.02080	  0.57063	 -0.02618	  0.67445	712.15002	 23.30	
 16.009	-64.774	  0.59646	  0.38651	  0.11355	 -0.00341	  0.54248	 -0.02666	  0.67542	712.12000	 23.30	
 15.997	-50.364	  0.59364	  0.45747	  0.05822	  0.02883	  0.49055	 -0.02392	  0.67243	712.09998	 23.30	
 15.997	-36.045	  0.59328	  0.51912	  0.01544	  0.07485	  0.42577	 -0.01885	  0.67436	712.01001	 23.30	
 16.000	-21.597	  0.58932	  0.55933	 -0.01160	  0.13553	  0.34777	 -0.01801	  0.67144	711.98999	 23.30	
 16.003	 -7.169	  0.59038	  0.58256	 -0.02402	  0.20625	  0.27130	 -0.01340	  0.67376	711.95001	 23.30	
 16.003	  7.169	  0.58983	  0.58245	 -0.02510	  0.28374	  0.19465	 -0.00391	  0.67536	711.98999	 23.30	
 16.000	 21.597	  0.59070	  0.56033	 -0.00955	  0.36507	  0.12546	 -0.00529	  0.67774	711.95001	 23.30	
 15.997	 36.045	  0.59177	  0.51668	  0.01828	  0.44406	  0.06495	 -0.00265	  0.67928	711.95001	 23.30	
 15.997	 50.364	  0.58787	  0.45154	  0.06167	  0.50572	  0.02157	 -0.00461	  0.67412	711.97998	 23.30	
 16.009	 64.774	  0.58429	  0.37558	  0.11653	  0.55222	 -0.00910	 -0.00103	  0.67352	711.92999	 23.30	
 15.992	 79.234	  0.58724	  0.29709	  0.18370	  0.58207	 -0.02607	 -0.00171	  0.67478	711.90997	 23.30	
 16.005	 93.629	  0.58725	  0.21918	  0.25883	  0.58572	 -0.02882	 -0.00364	  0.67430	711.95001	 23.30	
 15.993	107.966	  0.59207	  0.14999	  0.33943	  0.57178	 -0.01761	 -0.00417	  0.67656	712.07001	 23.30	
 15.995	122.439	  0.59224	  0.08813	  0.41552	  0.53070	  0.00561	 -0.00578	  0.67585	712.09003	 23.30	
 16.002	136.836	  0.59365	  0.04044	  0.48337	  0.47206	  0.04407	 -0.01125	  0.67515	712.09998	 23.30	
 16.002	151.165	  0.59554	  0.00519	  0.53681	  0.40049	  0.09481	 -0.01274	  0.67372	712.03003	 23.30	
 15.990	165.604	  0.59793	 -0.01305	  0.56973	  0.32225	  0.16133	 -0.01304	  0.67398	711.96002	 23.30	
 20.003	168.362	  0.54774	 -0.09957	  0.61604	  0.28203	  0.12360	 -0.03352	  0.67482	711.90002	 23.30	
 20.008	156.764	  0.54440	 -0.08668	  0.58834	  0.35996	  0.05826	 -0.03156	  0.67369	712.01001	 23.30	
 20.000	145.147	  0.54484	 -0.06109	  0.54497	  0.43670	  0.00400	 -0.03202	  0.67538	712.01001	 23.30	
 19.995	133.545	  0.54528	 -0.02795	  0.48872	  0.50865	 -0.04324	 -0.03058	  0.68048	712.02002	 23.30	
 20.009	121.926	  0.54245	  0.01884	  0.41716	  0.56429	 -0.07699	 -0.03127	  0.67882	712.01001	 23.30	
 20.005	110.327	  0.53829	  0.07650	  0.33849	  0.60317	 -0.09880	 -0.02810	  0.67629	712.02002	 23.30	
 19.989	 98.733	  0.53569	  0.14263	  0.25882	  0.62512	 -0.11080	 -0.02753	  0.67546	711.98999	 23.30	
 19.999	 87.075	  0.53244	  0.21662	  0.18077	  0.62884	 -0.11416	 -0.02176	  0.67340	712.09998	 23.30	
 19.992	 75.457	  0.53231	  0.29475	  0.11175	  0.61632	 -0.10619	 -0.01997	  0.67420	712.08002	 23.30	
 20.009	 63.844	  0.53389	  0.37534	  0.05033	  0.58552	 -0.08816	 -0.02619	  0.67521	712.02002	 23.30	
 19.989	 52.269	  0.53131	  0.44700	 -0.00286	  0.53312	 -0.05940	 -0.02570	  0.67143	712.03003	 23.30	
 19.999	 40.602	  0.53281	  0.51399	 -0.04540	  0.47394	 -0.02281	 -0.02522	  0.67319	712.08002	 23.30	
 20.004	 29.051	  0.53581	  0.57009	 -0.07757	  0.40289	  0.02601	 -0.02854	  0.67696	712.09003	 23.30	
 20.005	 17.433	  0.53514	  0.60555	 -0.09811	  0.32392	  0.08510	 -0.03000	  0.67586	712.03998	 23.30	
 20.006	  5.780	  0.53589	  0.62481	 -0.10871	  0.24412	  0.15601	 -0.03054	  0.67563	712.02002	 23.30	
 20.006	 -5.780	  0.53748	  0.62600	 -0.10751	  0.16931	  0.23143	 -0.03151	  0.67441	712.01001	 23.30	
 20.005	-17.433	  0.53969	  0.61034	 -0.09823	  0.09953	  0.31106	 -0.03465	  0.67451	712.04999	 23.30	
 20.004	-29.051	  0.54304	  0.57821	 -0.07756	  0.03953	  0.39107	 -0.03865	  0.67835	712.03003	 23.30	
 19.999	-40.602	  0.54785	  0.53030	 -0.04773	 -0.01194	  0.46735	 -0.03934	  0.68255	712.03003	 23.30	
 19.989	-52.269	  0.54324	  0.45907	 -0.00372	 -0.04887	  0.52241	 -0.04094	  0.67240	712.03003	 23.30	
 20.009	-63.844	  0.54790	  0.38867	  0.04830	 -0.07924	  0.57617	 -0.04255	  0.67687	711.94000	 23.30	
 19.992	-75.457	  0.54509	  0.30809	  0.11176	 -0.09498	  0.60381	 -0.04227	  0.67124	712.01001	 23.30	
 19.999	-87.075	  0.55165	  0.23152	  0.18503	 -0.10260	  0.62213	 -0.03866	  0.67691	711.96002	 23.30	
 19.989	-98.733	  0.54961	  0.15705	  0.26032	 -0.09799	  0.61352	 -0.03985	  0.67239	712.03998	 23.30	
 20.005	-110.327	  0.55396	  0.09109	  0.33970	 -0.08668	  0.59472	 -0.04041	  0.67615	711.90002	 23.30	
 20.009	-121.926	  0.55477	  0.03256	  0.41764	 -0.06545	  0.55482	 -0.04215	  0.67555	711.96002	 23.30	
 19.995	-133.545	  0.55360	 -0.01512	  0.48697	 -0.03276	  0.49930	 -0.04057	  0.67454	711.22998	 23.30	
 20.000	-145.147	  0.55587	 -0.05313	  0.54646	  0.01100	  0.43110	 -0.03871	  0.67535	711.98999	 23.30	
 20.008	-156.764	  0.55007	 -0.08003	  0.58683	  0.06530	  0.35361	 -0.04158	  0.67096	711.95001	 23.30	
 20.003	-168.362	  0.55024	 -0.09699	  0.61503	  0.12923	  0.27513	 -0.03672	  0.67298	711.96002	 23.30	
 20.000	180.000	  0.55085	 -0.10398	  0.62633	  0.20269	  0.19772	 -0.03744	  0.67611	711.62000	 23.30	
