FileType=PCF
NHL=14
Date=03/12/19	12:12:15
Facility=APL
Serial=16071-11
Customer=NASA
NP=6
Mach=0.150000
Calibration=1:1
CalPts=490
TstPts=95
PortNumbering=AP Standard
Units=Torr C m/s kg/m^3 deg mm 
Theta[deg]	Phi[deg]	P1[Torr]	P2[Torr]	P3[Torr]	P4[Torr]	P5[Torr]	P6[Torr]	Pt[Torr]	Ps[Abs,Torr]	Ts[C]	
  0.000	  0.000	 10.97307	  4.67510	  4.65034	  4.70962	  4.51020	  0.23091	 10.96760	712.20001	 27.20	
  1.691	128.401	 10.96514	  4.31284	  4.98889	  5.14113	  4.06484	  0.21494	 10.96210	712.22998	 27.20	
  1.692	 77.194	 10.96448	  4.76297	  4.51841	  5.23003	  3.96349	  0.23052	 10.96186	712.16998	 27.20	
  1.699	 26.182	 10.97145	  5.18470	  4.13501	  4.94424	  4.24806	  0.24076	 10.96919	712.06000	 27.20	
  1.699	-26.182	 10.97101	  5.16495	  4.14735	  4.46422	  4.72027	  0.23624	 10.96729	712.00000	 27.20	
  1.692	-77.194	 10.96800	  4.79958	  4.51089	  4.14293	  5.07199	  0.21699	 10.96480	712.13000	 27.20	
  1.691	-128.401	 10.96400	  4.32469	  4.99108	  4.24808	  4.95240	  0.20567	 10.95912	712.14001	 27.20	
  1.700	180.000	 10.96924	  4.10651	  5.21579	  4.69055	  4.50325	  0.20584	 10.96605	712.07001	 27.20	
  3.400	180.000	 10.95183	  3.53827	  5.76342	  4.63104	  4.46779	  0.15297	 10.96575	712.04999	 27.10	
  3.388	-152.325	 10.95441	  3.68172	  5.60738	  4.13332	  4.98560	  0.15279	 10.96069	712.07001	 27.10	
  3.397	-124.529	 10.95326	  4.01131	  5.24809	  3.74319	  5.38915	  0.16217	 10.95855	712.07001	 27.10	
  3.399	-96.763	 10.96016	  4.51228	  4.72117	  3.55001	  5.62452	  0.17541	 10.96404	712.25000	 27.10	
  3.394	-69.283	 10.95920	  5.00506	  4.21623	  3.58516	  5.57913	  0.19178	 10.96798	712.21997	 27.10	
  3.400	-41.398	 10.95182	  5.49154	  3.76854	  3.88880	  5.21882	  0.20191	 10.96271	712.15997	 27.10	
  3.401	-14.021	 10.94994	  5.77999	  3.51646	  4.37427	  4.69085	  0.21971	 10.96752	712.25000	 27.10	
  3.401	 14.021	 10.93665	  5.76849	  3.51624	  4.93345	  4.13436	  0.22492	 10.95912	712.20001	 27.10	
  3.400	 41.398	 10.93895	  5.50628	  3.73358	  5.40508	  3.70221	  0.21687	 10.96221	712.12000	 27.10	
  3.394	 69.283	 10.93490	  5.01436	  4.17949	  5.74613	  3.40999	  0.20359	 10.96007	712.19000	 27.00	
  3.399	 96.763	 10.92955	  4.44317	  4.72751	  5.81801	  3.34243	  0.20070	 10.95700	712.28003	 27.00	
  3.397	124.529	 10.93918	  3.97934	  5.23959	  5.61603	  3.53687	  0.17629	 10.96315	712.17999	 27.00	
  3.388	152.325	 10.94409	  3.65583	  5.62062	  5.18311	  3.93492	  0.16766	 10.96397	712.27002	 27.00	
  5.099	161.165	 10.89235	  2.99797	  6.21730	  5.12715	  3.82862	  0.08287	 10.95925	712.21997	 27.00	
  5.109	142.013	 10.88080	  3.21725	  5.93513	  5.66012	  3.33224	  0.10571	 10.96086	712.33002	 27.00	
  5.095	123.033	 10.87763	  3.60538	  5.47849	  6.09357	  2.96348	  0.10669	 10.96216	712.22998	 27.00	
  5.105	104.191	 10.87245	  4.07392	  4.94656	  6.34884	  2.74672	  0.14173	 10.96418	712.32001	 27.00	
  5.093	 85.207	 10.86459	  4.64831	  4.36275	  6.39957	  2.69994	  0.13927	 10.95967	712.22998	 27.00	
  5.104	 66.290	 10.86081	  5.22444	  3.80545	  6.24888	  2.81350	  0.15531	 10.95744	712.16998	 26.90	
  5.094	 47.331	 10.86519	  5.74690	  3.34195	  5.90535	  3.10157	  0.16957	 10.95996	712.22998	 26.90	
  5.089	 28.397	 10.87011	  6.14314	  3.01933	  5.41409	  3.52162	  0.19817	 10.95665	712.20001	 26.90	
  5.096	  9.576	 10.87229	  6.34497	  2.86518	  4.84743	  4.05401	  0.18117	 10.95752	712.16998	 26.90	
  5.096	 -9.576	 10.89279	  6.36105	  2.87169	  4.27913	  4.62475	  0.17265	 10.97079	712.21997	 26.90	
  5.089	-28.397	 10.89396	  6.16011	  3.04523	  3.74701	  5.18977	  0.16210	 10.95977	712.15002	 26.90	
  5.094	-47.331	 10.90039	  5.77711	  3.36893	  3.30833	  5.68878	  0.14567	 10.95922	712.28003	 26.90	
  5.104	-66.290	 10.90391	  5.27125	  3.82416	  3.02821	  6.04719	  0.14146	 10.96135	712.27002	 26.90	
  5.093	-85.207	 10.91562	  4.72559	  4.36139	  2.93520	  6.17167	  0.11179	 10.96079	712.15002	 26.90	
  5.105	-104.191	 10.91751	  4.15635	  4.93281	  2.97905	  6.12359	  0.10190	 10.96025	712.10999	 26.90	
  5.095	-123.033	 10.90921	  3.63840	  5.48062	  3.18650	  5.86484	  0.09090	 10.94983	712.19000	 26.90	
  5.109	-142.013	 10.91126	  3.24774	  5.94020	  3.54083	  5.44713	  0.09353	 10.95484	712.15002	 26.80	
  5.099	-161.165	 10.90614	  3.01201	  6.21498	  4.01213	  4.92585	  0.07739	 10.95667	712.32001	 26.80	
  5.100	180.000	 10.89358	  2.92207	  6.32106	  4.54612	  4.37336	  0.08551	 10.95033	712.27002	 26.80	
  6.800	180.000	 10.80633	  2.27885	  6.86192	  4.43775	  4.25617	 -0.00487	 10.95087	712.23999	 26.80	
  6.796	-166.229	 10.82313	  2.35339	  6.79093	  3.89736	  4.82356	 -0.00662	 10.95931	712.25000	 26.80	
  6.808	-152.311	 10.82941	  2.52841	  6.57349	  3.38724	  5.38052	 -0.00257	 10.95636	712.25000	 26.80	
  6.795	-138.383	 10.83645	  2.81720	  6.22979	  2.96991	  5.87030	  0.00599	 10.96119	712.17999	 26.80	
  6.792	-124.591	 10.83104	  3.19962	  5.77546	  2.65267	  6.26468	  0.00601	 10.95070	712.21997	 26.80	
  6.787	-110.754	 10.83282	  3.67221	  5.24957	  2.41944	  6.55876	  0.01174	 10.95232	712.19000	 26.80	
  6.800	-96.985	 10.83217	  4.19966	  4.68857	  2.29602	  6.71609	  0.02341	 10.95860	712.29999	 26.80	
  6.800	-83.015	 10.82563	  4.76597	  4.11745	  2.28414	  6.71966	  0.02842	 10.95722	712.23999	 26.80	
  6.787	-69.246	 10.82376	  5.32519	  3.59408	  2.40192	  6.56712	  0.04469	 10.95798	712.28998	 26.70	
  6.792	-55.409	 10.81018	  5.84790	  3.11707	  2.62476	  6.27353	  0.06105	 10.95453	712.23999	 26.70	
  6.795	-41.617	 10.80354	  6.29851	  2.73212	  2.95675	  5.87227	  0.07436	 10.95772	712.21997	 26.70	
  6.808	-27.689	 10.79094	  6.64840	  2.43720	  3.38960	  5.37206	  0.08848	 10.95402	712.21002	 26.70	
  6.796	-13.771	 10.78381	  6.86251	  2.25981	  3.90847	  4.80630	  0.10503	 10.95522	712.21997	 26.70	
  6.800	  0.000	 10.77117	  6.92545	  2.19509	  4.46727	  4.23592	  0.11184	 10.95396	712.21997	 26.70	
  6.796	 13.771	 10.76812	  6.84305	  2.25304	  5.03030	  3.69571	  0.11621	 10.95927	712.21997	 26.70	
  6.808	 27.689	 10.75913	  6.61679	  2.41734	  5.59505	  3.17166	  0.11670	 10.95960	712.28003	 26.70	
  6.795	 41.617	 10.75060	  6.24818	  2.70677	  6.10037	  2.73247	  0.10346	 10.95638	712.21997	 26.70	
  6.792	 55.409	 10.74565	  5.78791	  3.09507	  6.49664	  2.40353	  0.08818	 10.95492	712.23999	 26.70	
  6.787	 69.246	 10.75296	  5.24945	  3.58419	  6.78553	  2.18126	  0.08009	 10.96189	712.29999	 26.70	
  6.800	 83.015	 10.74534	  4.67684	  4.10888	  6.93216	  2.05318	  0.06528	 10.95802	712.25000	 26.70	
  6.800	 96.985	 10.75454	  4.10158	  4.68665	  6.93236	  2.05247	  0.04244	 10.95603	712.31000	 26.60	
  6.787	110.754	 10.75888	  3.57424	  5.24604	  6.77436	  2.18237	  0.04968	 10.95725	712.28003	 26.60	
  6.792	124.591	 10.76745	  3.11563	  5.76913	  6.48561	  2.41499	  0.02900	 10.95209	712.28998	 26.60	
  6.795	138.383	 10.77787	  2.74534	  6.22028	  6.07659	  2.75554	  0.01282	 10.95456	712.28003	 26.60	
  6.808	152.311	 10.78493	  2.47745	  6.57398	  5.56666	  3.19871	 -0.00067	 10.95174	712.19000	 26.60	
  6.796	166.229	 10.80388	  2.32626	  6.79712	  5.00316	  3.71671	  0.00202	 10.96237	712.22998	 26.60	
  8.491	168.704	 10.66878	  1.64214	  7.32354	  4.88181	  3.55268	 -0.09894	 10.95317	712.20001	 26.60	
  8.502	157.493	 10.65825	  1.76528	  7.14460	  5.46905	  3.01592	 -0.10076	 10.95556	712.21002	 26.60	
  8.494	146.194	 10.64782	  1.98458	  6.83920	  6.01724	  2.53784	 -0.09750	 10.95597	712.20001	 26.60	
  8.495	135.039	 10.63540	  2.28993	  6.43938	  6.49795	  2.14019	 -0.07543	 10.95267	712.15997	 26.60	
  8.487	123.723	 10.62741	  2.68400	  5.95938	  6.91242	  1.80500	 -0.06488	 10.95481	712.28003	 26.60	
  8.492	112.575	 10.60557	  3.14277	  5.41999	  7.21678	  1.55821	 -0.06937	 10.95047	712.15002	 26.60	
  8.510	101.220	 10.59774	  3.67713	  4.83422	  7.41641	  1.40387	 -0.06586	 10.95271	712.12000	 26.60	
  8.500	 90.000	 10.58845	  4.24091	  4.25502	  7.48236	  1.35319	 -0.04791	 10.95110	712.13000	 26.50	
  8.510	 78.780	 10.58224	  4.82739	  3.68835	  7.42946	  1.39444	 -0.02864	 10.95054	712.26001	 26.50	
  8.492	 67.425	 10.58309	  5.41765	  3.15004	  7.23082	  1.55352	 -0.02434	 10.95371	712.22998	 26.50	
  8.487	 56.277	 10.58948	  5.96747	  2.68043	  6.93330	  1.79704	 -0.01373	 10.95449	712.22998	 26.50	
  8.495	 44.961	 10.59425	  6.45754	  2.27387	  6.52806	  2.12387	  0.00910	 10.95372	712.27002	 26.50	
  8.494	 33.806	 10.59787	  6.86526	  1.94859	  6.05451	  2.52127	  0.03065	 10.95377	712.20001	 26.50	
  8.502	 22.507	 10.60114	  7.18330	  1.70757	  5.50297	  2.99710	  0.03189	 10.95024	712.17999	 26.50	
  8.491	 11.296	 10.61661	  7.37964	  1.57539	  4.92137	  3.53769	  0.02927	 10.95591	712.21997	 26.50	
  8.500	  0.000	 10.62504	  7.45621	  1.52726	  4.33572	  4.10725	  0.02599	 10.95817	712.22998	 26.50	
  8.491	-11.296	 10.63696	  7.39782	  1.58645	  3.76041	  4.69411	  0.02621	 10.95687	712.20001	 26.50	
  8.502	-22.507	 10.64548	  7.22825	  1.72947	  3.21829	  5.27453	  0.00234	 10.95401	712.21997	 26.50	
  8.494	-33.806	 10.65456	  6.92312	  1.97518	  2.74652	  5.81758	 -0.01305	 10.95215	712.29999	 26.50	
  8.495	-44.961	 10.66486	  6.52644	  2.30136	  2.34909	  6.30124	 -0.02334	 10.95028	712.27002	 26.50	
  8.487	-56.277	 10.67754	  6.04870	  2.70566	  2.01856	  6.71226	 -0.03590	 10.95295	712.21997	 26.50	
  8.492	-67.425	 10.68448	  5.51601	  3.17143	  1.77645	  7.01862	 -0.05548	 10.95364	712.21997	 26.40	
  8.510	-78.780	 10.69076	  4.93234	  3.70427	  1.63090	  7.21618	 -0.07264	 10.95578	712.28003	 26.40	
  8.500	-90.000	 10.69819	  4.35258	  4.27264	  1.59299	  7.27551	 -0.07046	 10.95615	712.34998	 26.40	
  8.510	-101.220	 10.70675	  3.78673	  4.85056	  1.64098	  7.21613	 -0.07985	 10.95323	712.34003	 26.40	
  8.492	-112.575	 10.70602	  3.24851	  5.43698	  1.78807	  7.01373	 -0.09135	 10.95107	712.26001	 26.40	
  8.487	-123.723	 10.71120	  2.79210	  5.96856	  2.02024	  6.71642	 -0.09282	 10.95436	712.27002	 26.40	
  8.495	-135.039	 10.71372	  2.39329	  6.44460	  2.34209	  6.30702	 -0.08283	 10.95314	712.27002	 26.40	
  8.494	-146.194	 10.71057	  2.07385	  6.84400	  2.73203	  5.82964	 -0.08698	 10.95420	712.27002	 26.40	
  8.502	-157.493	 10.69904	  1.82413	  7.14284	  3.19726	  5.28686	 -0.09768	 10.95397	712.20001	 26.40	
  8.491	-168.704	 10.68734	  1.67377	  7.32359	  3.72904	  4.70664	 -0.10541	 10.95000	712.28003	 26.40	
  8.500	180.000	 10.68258	  1.60474	  7.39399	  4.29645	  4.12087	 -0.09871	 10.95485	712.22998	 26.40	
 10.200	180.000	 10.51517	  0.95487	  7.88188	  4.13904	  3.95996	 -0.20281	 10.95156	712.35999	 26.40	
 10.191	-170.497	 10.52361	  1.00830	  7.82632	  3.55886	  4.55256	 -0.20570	 10.95178	712.23999	 26.40	
 10.210	-161.034	 10.53381	  1.12832	  7.67679	  3.01056	  5.15280	 -0.20212	 10.95287	712.22998	 26.40	
 10.194	-151.526	 10.54450	  1.33329	  7.41583	  2.51506	  5.71768	 -0.18992	 10.95221	712.28003	 26.40	
 10.190	-142.105	 10.55263	  1.61431	  7.06586	  2.08539	  6.24460	 -0.17947	 10.95162	712.21997	 26.40	
 10.215	-132.646	 10.54829	  1.95251	  6.62735	  1.69714	  6.72813	 -0.18610	 10.94956	712.22998	 26.30	
 10.203	-123.092	 10.54448	  2.36591	  6.12294	  1.39380	  7.13263	 -0.19204	 10.94827	712.28998	 26.30	
 10.192	-113.678	 10.54149	  2.82969	  5.57660	  1.16619	  7.43960	 -0.19176	 10.94827	712.20001	 26.30	
 10.208	-104.249	 10.53927	  3.34609	  5.00313	  1.01118	  7.65555	 -0.17669	 10.95167	712.13000	 26.30	
 10.210	-94.801	 10.53539	  3.91082	  4.41248	  0.93166	  7.76497	 -0.16952	 10.95453	712.17999	 26.30	
 10.210	-85.199	 10.52776	  4.50306	  3.82041	  0.92649	  7.76413	 -0.16992	 10.95083	712.15997	 26.30	
 10.208	-75.751	 10.51656	  5.09625	  3.25799	  0.99927	  7.65435	 -0.17023	 10.94962	712.16998	 26.30	
 10.192	-66.322	 10.51150	  5.67465	  2.73435	  1.15763	  7.43754	 -0.15713	 10.95142	712.15002	 26.30	
 10.203	-56.908	 10.49514	  6.21723	  2.26035	  1.39055	  7.12595	 -0.14307	 10.94938	712.23999	 26.30	
 10.215	-47.354	 10.48762	  6.72083	  1.84498	  1.70629	  6.72406	 -0.13723	 10.95223	712.15002	 26.30	
 10.190	-37.895	 10.47708	  7.15071	  1.49997	  2.09928	  6.23598	 -0.12663	 10.94937	712.19000	 26.30	
 10.194	-28.474	 10.46301	  7.49808	  1.22642	  2.53694	  5.70806	 -0.11343	 10.94858	712.23999	 26.30	
 10.210	-18.966	 10.44525	  7.75262	  1.01973	  3.03749	  5.13102	 -0.09386	 10.94906	712.21997	 26.30	
 10.191	 -9.503	 10.44153	  7.89563	  0.90914	  3.60016	  4.53555	 -0.07363	 10.94923	712.23999	 26.30	
 10.200	  0.000	 10.42573	  7.94183	  0.86167	  4.17930	  3.93864	 -0.07155	 10.94647	712.12000	 26.30	
 10.191	  9.503	 10.41949	  7.87562	  0.90757	  4.77451	  3.36701	 -0.06711	 10.94787	712.27002	 26.30	
 10.210	 18.966	 10.41124	  7.71400	  1.01594	  5.37117	  2.81613	 -0.06473	 10.95303	712.21997	 26.30	
 10.194	 28.474	 10.39975	  7.43148	  1.21577	  5.94195	  2.31289	 -0.05932	 10.94984	712.15997	 26.20	
 10.190	 37.895	 10.40102	  7.07614	  1.49030	  6.46712	  1.88357	 -0.06741	 10.95619	712.26001	 26.20	
 10.215	 47.354	 10.39188	  6.62547	  1.83587	  6.94554	  1.49127	 -0.09990	 10.95394	712.17999	 26.20	
 10.203	 56.908	 10.38285	  6.10790	  2.24900	  7.34687	  1.17864	 -0.12479	 10.95214	712.31000	 26.20	
 10.192	 66.322	 10.38893	  5.55405	  2.72715	  7.65280	  0.95045	 -0.13738	 10.95752	712.29999	 26.20	
 10.208	 75.751	 10.38740	  4.96816	  3.24807	  7.86464	  0.78496	 -0.13866	 10.95646	712.28003	 26.20	
 10.210	 85.199	 10.39184	  4.37324	  3.81055	  7.96765	  0.70976	 -0.14522	 10.95354	712.23999	 26.20	
 10.210	 94.801	 10.39826	  3.78397	  4.39689	  7.96119	  0.71181	 -0.16425	 10.95148	712.27002	 26.20	
 10.208	104.249	 10.40493	  3.22563	  4.98816	  7.84465	  0.79771	 -0.17552	 10.94944	712.31000	 26.20	
 10.192	113.678	 10.42309	  2.71294	  5.56927	  7.63071	  0.96342	 -0.17685	 10.95415	712.20001	 26.20	
 10.203	123.092	 10.42638	  2.24744	  6.11130	  7.31071	  1.19291	 -0.16891	 10.94455	712.28003	 26.20	
 10.215	132.646	 10.44295	  1.83826	  6.61858	  6.90482	  1.50982	 -0.17621	 10.94849	712.33002	 26.20	
 10.190	142.105	 10.45710	  1.51062	  7.05396	  6.41758	  1.90121	 -0.19200	 10.94747	712.31000	 26.20	
 10.194	151.526	 10.46641	  1.25079	  7.40784	  5.89275	  2.33319	 -0.19875	 10.94691	712.19000	 26.20	
 10.210	161.034	 10.48404	  1.07562	  7.67413	  5.32168	  2.83377	 -0.20126	 10.95081	712.26001	 26.20	
 10.191	170.497	 10.50428	  0.98129	  7.83043	  4.72637	  3.39056	 -0.19550	 10.95401	712.25000	 26.10	
 11.899	171.783	 10.29320	  0.33589	  8.29556	  4.53609	  3.20551	 -0.28960	 10.95047	712.19000	 26.10	
 11.890	163.610	 10.27898	  0.42122	  8.15375	  5.13594	  2.65159	 -0.29664	 10.94671	712.28003	 26.10	
 11.889	155.445	 10.26669	  0.56764	  7.92132	  5.72030	  2.13624	 -0.30434	 10.94779	712.23999	 26.10	
 11.909	147.299	 10.24354	  0.77093	  7.60647	  6.27212	  1.67424	 -0.30329	 10.94276	712.34998	 26.10	
 11.902	139.148	 10.23454	  1.05278	  7.21824	  6.80035	  1.26027	 -0.29704	 10.94779	712.40002	 26.10	
 11.894	130.867	 10.22250	  1.40087	  6.75171	  7.27877	  0.89983	 -0.28642	 10.94963	712.34998	 26.10	
 11.897	122.732	 10.21742	  1.80292	  6.24156	  7.68110	  0.60906	 -0.28026	 10.95978	712.38000	 26.10	
 11.903	114.597	 10.19269	  2.25069	  5.68805	  7.99179	  0.37763	 -0.28198	 10.94864	712.38000	 26.10	
 11.893	106.346	 10.18320	  2.76476	  5.10449	  8.22706	  0.21582	 -0.28778	 10.94680	712.40002	 26.10	
 11.892	 98.155	 10.17272	  3.31439	  4.50312	  8.37351	  0.11492	 -0.28526	 10.94990	712.47998	 26.10	
 11.900	 90.000	 10.16252	  3.88402	  3.91571	  8.43196	  0.07375	 -0.27280	 10.94934	712.44000	 26.10	
 11.892	 81.845	 10.15064	  4.46671	  3.34551	  8.38230	  0.10491	 -0.25564	 10.94425	712.29999	 26.10	
 11.893	 73.654	 10.14953	  5.07465	  2.79037	  8.25086	  0.20006	 -0.25569	 10.95328	712.29999	 26.10	
 11.903	 65.403	 10.14725	  5.66509	  2.27551	  8.02128	  0.36349	 -0.25421	 10.94916	712.20001	 26.10	
 11.897	 57.268	 10.14584	  6.22184	  1.81085	  7.71079	  0.58820	 -0.24510	 10.94896	712.21997	 26.10	
 11.894	 49.133	 10.14978	  6.74305	  1.40278	  7.32244	  0.87634	 -0.21927	 10.95107	712.35999	 26.10	
 11.902	 40.852	 10.15435	  7.22548	  1.03935	  6.85348	  1.23952	 -0.18499	 10.94854	712.22998	 26.10	
 11.909	 32.701	 10.16497	  7.62960	  0.74933	  6.33845	  1.64757	 -0.16701	 10.95269	712.17999	 26.00	
 11.889	 24.555	 10.17126	  7.94738	  0.52338	  5.78063	  2.11083	 -0.16439	 10.95251	712.15002	 26.00	
 11.890	 16.390	 10.18416	  8.19061	  0.36032	  5.20151	  2.61957	 -0.17122	 10.95202	712.22998	 26.00	
 11.899	  8.217	 10.18918	  8.34066	  0.26063	  4.59227	  3.17848	 -0.16990	 10.94685	712.17999	 26.00	
 11.900	  0.000	 10.20147	  8.39988	  0.23217	  3.99788	  3.75532	 -0.17117	 10.95120	712.22998	 26.00	
 11.899	 -8.217	 10.22021	  8.36668	  0.26715	  3.41194	  4.36011	 -0.17552	 10.95639	712.19000	 26.00	
 11.890	-16.390	 10.23077	  8.22876	  0.37049	  2.85697	  4.95652	 -0.19025	 10.95136	712.16998	 26.00	
 11.889	-24.555	 10.23265	  8.00860	  0.52862	  2.34142	  5.53696	 -0.21143	 10.94136	712.19000	 26.00	
 11.909	-32.701	 10.24947	  7.71455	  0.75069	  1.86743	  6.10371	 -0.22605	 10.95449	712.15997	 26.00	
 11.902	-40.852	 10.25899	  7.32638	  1.04548	  1.45003	  6.62642	 -0.23161	 10.94729	712.21002	 26.00	
 11.894	-49.133	 10.27090	  6.86194	  1.40987	  1.08378	  7.10337	 -0.23698	 10.95060	712.22998	 26.00	
 11.897	-57.268	 10.28689	  6.35710	  1.82674	  0.80441	  7.49461	 -0.23920	 10.95035	712.29999	 26.00	
 11.903	-65.403	 10.29654	  5.81337	  2.28904	  0.56863	  7.81597	 -0.24566	 10.95377	712.16998	 26.00	
 11.893	-73.654	 10.30674	  5.22682	  2.80603	  0.39961	  8.05288	 -0.25426	 10.95119	712.27002	 26.00	
 11.892	-81.845	 10.31369	  4.62080	  3.36217	  0.30248	  8.19630	 -0.25594	 10.94661	712.20001	 26.00	
 11.900	-90.000	 10.31956	  4.03256	  3.93428	  0.27306	  8.24365	 -0.25124	 10.94859	712.14001	 26.00	
 11.892	-98.155	 10.33286	  3.46040	  4.52379	  0.30794	  8.20032	 -0.24540	 10.95252	712.15002	 26.00	
 11.893	-106.346	 10.33917	  2.90391	  5.12389	  0.40536	  8.05858	 -0.25365	 10.95332	712.21002	 26.00	
 11.903	-114.597	 10.34167	  2.38908	  5.70661	  0.56499	  7.82342	 -0.26298	 10.95033	712.21997	 26.00	
 11.897	-122.732	 10.35094	  1.93181	  6.25911	  0.79275	  7.50401	 -0.27024	 10.95201	712.38000	 26.00	
 11.894	-130.867	 10.34895	  1.51840	  6.76987	  1.07062	  7.11276	 -0.26981	 10.95191	712.22998	 25.90	
 11.902	-139.148	 10.34658	  1.16181	  7.23825	  1.42710	  6.63747	 -0.26288	 10.94668	712.16998	 25.90	
 11.909	-147.299	 10.34484	  0.86956	  7.62831	  1.83971	  6.12138	 -0.26615	 10.95116	712.27002	 25.90	
 11.889	-155.445	 10.34082	  0.64293	  7.93900	  2.30950	  5.56082	 -0.28258	 10.95284	712.23999	 25.90	
 11.890	-163.610	 10.32735	  0.47175	  8.15885	  2.81299	  4.97994	 -0.29515	 10.94678	712.28998	 25.90	
 11.899	-171.783	 10.31538	  0.36645	  8.29569	  3.36702	  4.37875	 -0.30164	 10.94699	712.27002	 25.90	
 11.900	180.000	 10.30549	  0.31858	  8.34443	  3.94747	  3.77950	 -0.29479	 10.94830	712.31000	 25.90	
 13.600	180.000	 10.06395	 -0.31271	  8.78041	  3.72955	  3.57124	 -0.37422	 10.95424	712.38000	 25.90	
 13.608	-172.853	 10.07331	 -0.28348	  8.74441	  3.15657	  4.15918	 -0.38117	 10.94800	712.33002	 25.90	
 13.611	-165.583	 10.08056	 -0.18993	  8.61971	  2.59064	  4.77012	 -0.36752	 10.94839	712.29999	 25.90	
 13.601	-158.353	 10.09046	 -0.03759	  8.41124	  2.07846	  5.35863	 -0.35456	 10.94322	712.29999	 25.90	
 13.609	-151.210	 10.10658	  0.15738	  8.14042	  1.60415	  5.93863	 -0.33879	 10.94856	712.28003	 25.90	
 13.611	-143.999	 10.11229	  0.41447	  7.77724	  1.16576	  6.49709	 -0.32108	 10.95212	712.23999	 25.90	
 13.601	-136.825	 10.11191	  0.71610	  7.36156	  0.78336	  6.99963	 -0.31602	 10.94910	712.40997	 25.90	
 13.596	-129.640	 10.11606	  1.07129	  6.88917	  0.46478	  7.45005	 -0.31381	 10.95503	712.39001	 25.90	
 13.611	-122.431	 10.10840	  1.47328	  6.36076	  0.18052	  7.84924	 -0.31528	 10.95074	712.26001	 25.90	
 13.604	-115.211	 10.10455	  1.93452	  5.79616	 -0.04018	  8.18235	 -0.31257	 10.95500	712.40997	 25.90	
 13.595	-108.042	 10.09725	  2.43049	  5.21371	 -0.20227	  8.43125	 -0.30185	 10.95513	712.34003	 25.90	
 13.607	-100.793	 10.08154	  2.96618	  4.61252	 -0.31518	  8.59819	 -0.29407	 10.94956	712.35999	 25.90	
 13.601	-93.617	 10.07768	  3.53466	  4.01279	 -0.37030	  8.68227	 -0.29696	 10.95106	712.26001	 25.90	
 13.601	-86.383	 10.07016	  4.12380	  3.42650	 -0.36835	  8.68180	 -0.30163	 10.95225	712.33002	 25.90	
 13.607	-79.207	 10.05762	  4.71721	  2.86367	 -0.32354	  8.59585	 -0.31006	 10.95321	712.37000	 25.80	
 13.595	-71.958	 10.05274	  5.32578	  2.32234	 -0.20914	  8.42762	 -0.31223	 10.95673	712.26001	 25.80	
 13.604	-64.789	 10.03955	  5.90373	  1.82561	 -0.03563	  8.17271	 -0.31207	 10.95107	712.23999	 25.80	
 13.611	-57.569	 10.02989	  6.46333	  1.36254	  0.18940	  7.84191	 -0.30852	 10.94959	712.28003	 25.80	
 13.596	-50.360	 10.02221	  6.98785	  0.95634	  0.47567	  7.44518	 -0.31137	 10.95683	712.31000	 25.80	
 13.601	-43.175	 10.00354	  7.45248	  0.59392	  0.79927	  6.98722	 -0.32197	 10.95034	712.33002	 25.80	
 13.611	-36.001	  9.99750	  7.87076	  0.29143	  1.18516	  6.48136	 -0.32284	 10.95996	712.21997	 25.80	
 13.609	-28.790	  9.98691	  8.22056	  0.04424	  1.63440	  5.91959	 -0.31729	 10.95213	712.26001	 25.80	
 13.601	-21.647	  9.97176	  8.49051	 -0.14438	  2.11464	  5.34527	 -0.30694	 10.95190	712.21997	 25.80	
 13.611	-14.417	  9.95491	  8.68705	 -0.29395	  2.63397	  4.74800	 -0.29464	 10.95181	712.27002	 25.80	
 13.608	 -7.147	  9.94908	  8.80745	 -0.37500	  3.20115	  4.13555	 -0.27618	 10.95678	712.21997	 25.80	
 13.600	  0.000	  9.93722	  8.83250	 -0.40140	  3.78296	  3.54633	 -0.27343	 10.95621	712.10999	 25.80	
 13.608	  7.147	  9.92195	  8.78265	 -0.37972	  4.36751	  2.96940	 -0.27969	 10.95297	712.28003	 25.80	
 13.611	 14.417	  9.91209	  8.64585	 -0.29467	  4.98214	  2.40798	 -0.27754	 10.95803	712.29999	 25.80	
 13.601	 21.647	  9.90899	  8.42273	 -0.14947	  5.58441	  1.88840	 -0.27349	 10.95836	712.26001	 25.80	
 13.609	 28.790	  9.89771	  8.13065	  0.04747	  6.15228	  1.42190	 -0.27102	 10.95043	712.35999	 25.80	
 13.611	 36.001	  9.88251	  7.76235	  0.29136	  6.70161	  0.98383	 -0.28000	 10.95046	712.34003	 25.80	
 13.601	 43.175	  9.87808	  7.32971	  0.59502	  7.20506	  0.60461	 -0.30490	 10.95162	712.28003	 25.80	
 13.596	 50.360	  9.87483	  6.84207	  0.95240	  7.65144	  0.28131	 -0.34206	 10.94987	712.26001	 25.80	
 13.611	 57.569	  9.87002	  6.30835	  1.36289	  8.04408	  0.00620	 -0.37189	 10.95017	712.31000	 25.80	
 13.604	 64.789	  9.87261	  5.73981	  1.82321	  8.36472	 -0.21420	 -0.38063	 10.95259	712.28003	 25.80	
 13.595	 71.958	  9.87477	  5.15589	  2.31938	  8.60723	 -0.37665	 -0.37933	 10.95075	712.40002	 25.80	
 13.607	 79.207	  9.87186	  4.54403	  2.85180	  8.77071	 -0.48887	 -0.37823	 10.94626	712.32001	 25.80	
 13.601	 86.383	  9.88005	  3.94900	  3.41927	  8.84751	 -0.53740	 -0.38284	 10.94789	712.32001	 25.80	
 13.601	 93.617	  9.89440	  3.36674	  4.00550	  8.84800	 -0.53740	 -0.39974	 10.95240	712.23999	 25.80	
 13.607	100.793	  9.90304	  2.80677	  4.60066	  8.76259	 -0.48469	 -0.40988	 10.95052	712.23999	 25.70	
 13.595	108.042	  9.91605	  2.27253	  5.19390	  8.58221	 -0.36464	 -0.40635	 10.94599	712.42999	 25.70	
 13.604	115.211	  9.92239	  1.78459	  5.76591	  8.32951	 -0.20062	 -0.39386	 10.94339	712.41998	 25.70	
 13.611	122.431	  9.94181	  1.33465	  6.33373	  8.00472	  0.02148	 -0.38501	 10.94714	712.29999	 25.70	
 13.596	129.640	  9.96146	  0.94067	  6.86352	  7.60798	  0.30229	 -0.39067	 10.95015	712.21997	 25.70	
 13.601	136.825	  9.96694	  0.59658	  7.32908	  7.15027	  0.62064	 -0.40492	 10.94495	712.16998	 25.70	
 13.611	143.999	  9.98510	  0.30072	  7.75547	  6.64175	  1.00615	 -0.41298	 10.94717	712.21997	 25.70	
 13.609	151.210	 10.00350	  0.06765	  8.11677	  6.08591	  1.44838	 -0.41520	 10.94729	712.17999	 25.70	
 13.601	158.353	 10.02090	 -0.10975	  8.40145	  5.51659	  1.91830	 -0.40091	 10.95273	712.12000	 25.70	
 13.611	165.583	 10.03051	 -0.23871	  8.61008	  4.91785	  2.43310	 -0.38699	 10.95309	712.15002	 25.70	
 13.608	172.853	 10.03982	 -0.30342	  8.73175	  4.30662	  2.99832	 -0.37317	 10.94356	712.10999	 25.70	
 15.298	173.587	  9.76611	 -0.90754	  9.12926	  4.06622	  2.77142	 -0.44097	 10.94829	712.21997	 25.70	
 15.291	167.167	  9.75065	 -0.84922	  9.01646	  4.66731	  2.21566	 -0.45560	 10.94579	712.20001	 25.70	
 15.307	160.676	  9.73123	 -0.75471	  8.82695	  5.26547	  1.68509	 -0.48431	 10.94757	712.25000	 25.70	
 15.300	154.261	  9.71350	 -0.60583	  8.56428	  5.84662	  1.20595	 -0.51639	 10.94228	712.23999	 25.70	
 15.288	147.854	  9.70261	 -0.40212	  8.23955	  6.41849	  0.76284	 -0.52089	 10.94685	712.26001	 25.70	
 15.293	141.428	  9.68741	 -0.15338	  7.84829	  6.95380	  0.36590	 -0.51865	 10.94145	712.39001	 25.70	
 15.299	134.985	  9.67835	  0.14575	  7.40941	  7.45331	  0.01994	 -0.50555	 10.94647	712.20001	 25.70	
 15.305	128.583	  9.66329	  0.48305	  6.92109	  7.90399	 -0.28921	 -0.50065	 10.94642	712.19000	 25.70	
 15.309	122.142	  9.64008	  0.86456	  6.38959	  8.30314	 -0.55692	 -0.49585	 10.94856	712.20001	 25.70	
 15.304	115.711	  9.62559	  1.30212	  5.81894	  8.63142	 -0.76767	 -0.51176	 10.94371	712.29999	 25.70	
 15.297	109.291	  9.61482	  1.77973	  5.24174	  8.89923	 -0.92863	 -0.52911	 10.94934	712.22998	 25.70	
 15.293	102.897	  9.60091	  2.29406	  4.65697	  9.08637	 -1.04789	 -0.53817	 10.94795	712.27002	 25.70	
 15.293	 96.458	  9.59258	  2.84391	  4.05789	  9.20481	 -1.11119	 -0.53318	 10.95221	712.32001	 25.70	
 15.300	 90.000	  9.57708	  3.41147	  3.46772	  9.24288	 -1.13607	 -0.51819	 10.94673	712.28998	 25.70	
 15.293	 83.542	  9.56434	  3.99356	  2.89876	  9.20740	 -1.11920	 -0.51075	 10.94410	712.29999	 25.70	
 15.293	 77.103	  9.55944	  4.59933	  2.34693	  9.10602	 -1.05375	 -0.51249	 10.94741	712.21002	 25.60	
 15.297	 70.709	  9.55749	  5.19380	  1.83332	  8.92377	 -0.94006	 -0.51618	 10.95115	712.28003	 25.60	
 15.304	 64.289	  9.55125	  5.77854	  1.35269	  8.67098	 -0.77990	 -0.51898	 10.94312	712.31000	 25.60	
 15.309	 57.858	  9.55546	  6.35643	  0.90419	  8.34798	 -0.57169	 -0.50762	 10.94740	712.21997	 25.60	
 15.305	 51.417	  9.55681	  6.89507	  0.50244	  7.95286	 -0.30921	 -0.47319	 10.94924	712.35999	 25.60	
 15.299	 45.015	  9.56634	  7.39199	  0.15792	  7.51070	 -0.00491	 -0.43837	 10.94774	712.37000	 25.60	
 15.293	 38.572	  9.57026	  7.84096	 -0.14552	  7.02658	  0.34116	 -0.40959	 10.94809	712.44000	 25.60	
 15.288	 32.146	  9.57375	  8.23587	 -0.40795	  6.48431	  0.73773	 -0.39582	 10.94528	712.32001	 25.60	
 15.300	 25.739	  9.58183	  8.57690	 -0.62293	  5.91927	  1.17746	 -0.38613	 10.94326	712.37000	 25.60	
 15.307	 19.324	  9.59209	  8.84879	 -0.78966	  5.34004	  1.65359	 -0.38403	 10.95197	712.35999	 25.60	
 15.291	 12.833	  9.60844	  9.04568	 -0.90073	  4.73547	  2.18193	 -0.39040	 10.94971	712.38000	 25.60	
 15.298	  6.413	  9.61641	  9.16701	 -0.97478	  4.13390	  2.73136	 -0.38335	 10.95072	712.40997	 25.60	
 15.300	  0.000	  9.62875	  9.21674	 -0.99880	  3.54485	  3.30872	 -0.37382	 10.94882	712.37000	 25.60	
 15.298	 -6.413	  9.63974	  9.18935	 -0.97114	  2.96710	  3.90577	 -0.37198	 10.94818	712.41998	 25.60	
 15.291	-12.833	  9.65727	  9.09127	 -0.90287	  2.40699	  4.51335	 -0.37372	 10.95532	712.34998	 25.60	
 15.307	-19.324	  9.66044	  8.91697	 -0.79341	  1.88171	  5.10652	 -0.38099	 10.94633	712.35999	 25.60	
 15.300	-25.739	  9.67272	  8.67017	 -0.63660	  1.39292	  5.69554	 -0.38481	 10.94883	712.37000	 25.60	
 15.288	-32.146	  9.67949	  8.35150	 -0.42520	  0.93759	  6.26428	 -0.38544	 10.94139	712.29999	 25.60	
 15.293	-38.572	  9.70058	  7.97479	 -0.15689	  0.53456	  6.80673	 -0.38023	 10.94548	712.28998	 25.60	
 15.299	-45.015	  9.70828	  7.53467	  0.14586	  0.17494	  7.29838	 -0.37024	 10.94211	712.33002	 25.60	
 15.305	-51.417	  9.71917	  7.05282	  0.49804	 -0.14295	  7.75030	 -0.35344	 10.94628	712.40997	 25.60	
 15.309	-57.858	  9.73061	  6.52568	  0.89938	 -0.40735	  8.15575	 -0.34638	 10.94758	712.45001	 25.60	
 15.304	-64.289	  9.74237	  5.95833	  1.34967	 -0.62233	  8.48985	 -0.33852	 10.94594	712.38000	 25.60	
 15.297	-70.709	  9.75789	  5.38339	  1.84006	 -0.78461	  8.74809	 -0.33467	 10.94680	712.38000	 25.60	
 15.293	-77.103	  9.76960	  4.79068	  2.35822	 -0.89597	  8.92621	 -0.33041	 10.94507	712.42999	 25.60	
 15.293	-83.542	  9.77264	  4.18640	  2.91306	 -0.95977	  9.03760	 -0.31660	 10.94083	712.34003	 25.60	
 15.300	-90.000	  9.79091	  3.59754	  3.49038	 -0.98137	  9.08446	 -0.31453	 10.94742	712.37000	 25.60	
 15.293	-96.458	  9.79905	  3.02420	  4.08301	 -0.96144	  9.04935	 -0.30121	 10.95213	712.33002	 25.60	
 15.293	-102.897	  9.80463	  2.47107	  4.68205	 -0.89753	  8.93796	 -0.30263	 10.94851	712.23999	 25.60	
 15.297	-109.291	  9.81392	  1.95256	  5.26954	 -0.79258	  8.75899	 -0.30921	 10.95276	712.42999	 25.50	
 15.304	-115.711	  9.82008	  1.46732	  5.85259	 -0.63320	  8.49869	 -0.31564	 10.95191	712.45001	 25.60	
 15.309	-122.142	  9.83102	  1.01341	  6.42485	 -0.42345	  8.16948	 -0.32371	 10.95530	712.45001	 25.50	
 15.305	-128.583	  9.82920	  0.61891	  6.95117	 -0.15938	  7.77023	 -0.32888	 10.94780	712.42999	 25.50	
 15.299	-134.985	  9.83533	  0.27120	  7.44082	  0.15076	  7.32095	 -0.33724	 10.95159	712.46997	 25.50	
 15.293	-141.428	  9.82927	 -0.03735	  7.87877	  0.50555	  6.81637	 -0.34431	 10.94157	712.40002	 25.50	
 15.288	-147.854	  9.82954	 -0.30229	  8.26959	  0.90540	  6.28783	 -0.36076	 10.94857	712.40002	 25.50	
 15.300	-154.261	  9.82145	 -0.51892	  8.59339	  1.35113	  5.71691	 -0.38153	 10.94762	712.44000	 25.50	
 15.307	-160.676	  9.81610	 -0.68731	  8.84843	  1.83885	  5.12978	 -0.40551	 10.94766	712.33002	 25.50	
 15.291	-167.167	  9.80268	 -0.80940	  9.02537	  2.35964	  4.52655	 -0.42338	 10.94562	712.35999	 25.50	
 15.298	-173.587	  9.79308	 -0.88987	  9.13737	  2.91586	  3.91979	 -0.43700	 10.95348	712.34003	 25.50	
 15.300	180.000	  9.78267	 -0.91800	  9.17065	  3.48789	  3.33712	 -0.43563	 10.95140	712.37000	 25.50	
 17.000	180.000	  9.46455	 -1.50890	  9.52781	  3.22631	  3.07966	 -0.47299	 10.95091	712.29999	 25.50	
 16.990	-174.179	  9.47716	 -1.48291	  9.49302	  2.65370	  3.66823	 -0.46062	 10.94600	712.38000	 25.50	
 17.009	-168.383	  9.48467	 -1.42264	  9.40010	  2.09717	  4.26518	 -0.44321	 10.94374	712.26001	 25.50	
 17.000	-162.596	  9.49949	 -1.31423	  9.23797	  1.58739	  4.86046	 -0.41667	 10.94566	712.35999	 25.50	
 16.990	-156.759	  9.50709	 -1.16561	  9.00347	  1.09668	  5.46158	 -0.39367	 10.94436	712.35999	 25.50	
 16.995	-150.919	  9.51693	 -0.98057	  8.70980	  0.64065	  6.05202	 -0.37315	 10.95321	712.44000	 25.50	
 16.988	-145.161	  9.52199	 -0.76018	  8.36027	  0.24257	  6.59483	 -0.35098	 10.94753	712.42999	 25.50	
 17.014	-139.343	  9.51876	 -0.49999	  7.95196	 -0.14154	  7.11980	 -0.33684	 10.94781	712.35999	 25.50	
 17.007	-133.546	  9.51778	 -0.18569	  7.48925	 -0.47160	  7.60839	 -0.32453	 10.94469	712.41998	 25.50	
 17.001	-127.699	  9.51874	  0.16879	  6.98068	 -0.75814	  8.05462	 -0.31456	 10.94685	712.44000	 25.50	
 17.006	-121.937	  9.50882	  0.55695	  6.44588	 -1.00166	  8.43865	 -0.30296	 10.94345	712.40002	 25.50	
 17.002	-116.134	  9.50867	  0.99440	  5.88260	 -1.19761	  8.77227	 -0.30285	 10.94811	712.29999	 25.50	
 17.001	-110.310	  9.50038	  1.46757	  5.30087	 -1.35206	  9.03952	 -0.29202	 10.94986	712.31000	 25.50	
 16.988	-104.517	  9.48980	  1.96714	  4.70886	 -1.46454	  9.23964	 -0.28609	 10.94581	712.40002	 25.50	
 17.008	-98.662	  9.47419	  2.49863	  4.10161	 -1.55257	  9.38106	 -0.28905	 10.94738	712.33002	 25.50	
 16.996	-92.909	  9.46291	  3.05836	  3.51254	 -1.57951	  9.43652	 -0.29300	 10.93949	712.31000	 25.50	
 16.996	-87.091	  9.45761	  3.63619	  2.93627	 -1.57932	  9.44045	 -0.29851	 10.94605	712.39001	 25.50	
 17.012	-81.253	  9.44595	  4.23029	  2.36920	 -1.55050	  9.37715	 -0.30828	 10.94753	712.39001	 25.50	
 16.988	-75.483	  9.44319	  4.82627	  1.83988	 -1.47014	  9.24095	 -0.31641	 10.95288	712.31000	 25.50	
 17.001	-69.690	  9.43151	  5.41514	  1.34033	 -1.34406	  9.03363	 -0.33024	 10.94853	712.32001	 25.50	
 17.002	-63.866	  9.41964	  5.99526	  0.86916	 -1.18578	  8.76478	 -0.33612	 10.95244	712.28003	 25.50	
 17.006	-58.063	  9.40320	  6.55928	  0.42613	 -0.98765	  8.43091	 -0.34482	 10.95205	712.33002	 25.50	
 17.001	-52.301	  9.39161	  7.08492	  0.04683	 -0.74220	  8.04401	 -0.35923	 10.94756	712.21002	 25.50	
 17.007	-46.454	  9.38074	  7.58652	 -0.30784	 -0.45472	  7.59657	 -0.38426	 10.94918	712.21997	 25.40	
 17.014	-40.657	  9.36934	  8.04473	 -0.62112	 -0.11733	  7.10508	 -0.40395	 10.94823	712.34003	 25.40	
 16.988	-34.839	  9.35320	  8.44482	 -0.87735	  0.26530	  6.56921	 -0.41740	 10.94645	712.34003	 25.40	
 16.995	-29.081	  9.34628	  8.79544	 -1.09684	  0.67815	  6.02440	 -0.43203	 10.95334	712.20001	 25.50	
 16.990	-23.241	  9.33194	  9.07903	 -1.27263	  1.14200	  5.43803	 -0.44023	 10.94478	712.28003	 25.40	
 17.000	-17.404	  9.32543	  9.30312	 -1.40049	  1.63908	  4.84766	 -0.44080	 10.95098	712.38000	 25.40	
 17.009	-11.617	  9.30588	  9.45256	 -1.50131	  2.15351	  4.24843	 -0.44188	 10.94345	712.28998	 25.40	
 16.990	 -5.821	  9.30022	  9.54284	 -1.55553	  2.71354	  3.64967	 -0.44479	 10.94539	712.28998	 25.40	
 17.000	  0.000	  9.29185	  9.56963	 -1.57667	  3.28641	  3.06065	 -0.46390	 10.95253	712.34998	 25.40	
 16.990	  5.821	  9.27751	  9.52165	 -1.55369	  3.86922	  2.49332	 -0.47866	 10.94757	712.29999	 25.40	
 17.009	 11.617	  9.25932	  9.40617	 -1.49421	  4.46988	  1.92913	 -0.49393	 10.94192	712.28998	 25.40	
 17.000	 17.404	  9.25543	  9.23164	 -1.39633	  5.06729	  1.41984	 -0.50053	 10.94866	712.37000	 25.40	
 16.990	 23.241	  9.25050	  8.98964	 -1.25430	  5.65834	  0.94213	 -0.50287	 10.95345	712.34003	 25.40	
 16.995	 29.081	  9.23187	  8.67550	 -1.07428	  6.23434	  0.48564	 -0.50910	 10.94429	712.37000	 25.40	
 16.988	 34.839	  9.22983	  8.31439	 -0.85302	  6.78683	  0.08822	 -0.52448	 10.94938	712.39001	 25.40	
 17.014	 40.657	  9.21927	  7.89828	 -0.58968	  7.30647	 -0.28211	 -0.54880	 10.94838	712.34003	 25.40	
 17.007	 46.454	  9.21413	  7.42200	 -0.28239	  7.78821	 -0.60498	 -0.57697	 10.94759	712.27002	 25.40	
 17.001	 52.301	  9.21236	  6.90914	  0.06258	  8.23305	 -0.88798	 -0.61677	 10.94955	712.26001	 25.40	
 17.006	 58.063	  9.20284	  6.37302	  0.44463	  8.60643	 -1.13109	 -0.64467	 10.94203	712.26001	 25.40	
 17.002	 63.866	  9.20776	  5.80248	  0.87752	  8.93810	 -1.32441	 -0.65234	 10.94813	712.27002	 25.40	
 17.001	 69.690	  9.20710	  5.21754	  1.34783	  9.19715	 -1.47630	 -0.64857	 10.94890	712.27002	 25.40	
 16.988	 75.483	  9.21910	  4.63053	  1.84662	  9.39346	 -1.58356	 -0.64582	 10.94691	712.29999	 25.40	
 17.012	 81.253	  9.21826	  4.03539	  2.36920	  9.53094	 -1.67553	 -0.64846	 10.94710	712.33002	 25.40	
 16.996	 87.091	  9.22603	  3.43996	  2.92803	  9.58386	 -1.70668	 -0.64613	 10.94105	712.23999	 25.40	
 16.996	 92.909	  9.24413	  2.87245	  3.50298	  9.58645	 -1.71090	 -0.65985	 10.95019	712.38000	 25.40	
 17.008	 98.662	  9.24588	  2.31408	  4.08302	  9.51490	 -1.67946	 -0.67039	 10.94819	712.34003	 25.40	
 16.988	104.517	  9.26891	  1.79078	  4.68699	  9.37556	 -1.58950	 -0.66431	 10.95088	712.31000	 25.40	
 17.001	110.310	  9.28013	  1.28885	  5.27336	  9.17262	 -1.47219	 -0.65277	 10.94690	712.28003	 25.40	
 17.002	116.134	  9.28954	  0.82607	  5.85775	  8.89800	 -1.31632	 -0.63347	 10.94479	712.28003	 25.40	
 17.006	121.937	  9.30226	  0.40401	  6.41244	  8.56513	 -1.12367	 -0.61820	 10.94626	712.19000	 25.40	
 17.001	127.699	  9.32889	  0.02836	  6.94939	  8.18052	 -0.87717	 -0.61161	 10.95645	712.23999	 25.40	
 17.007	133.546	  9.34167	 -0.31069	  7.45182	  7.73422	 -0.59672	 -0.61605	 10.94955	712.25000	 25.40	
 17.014	139.343	  9.35846	 -0.61147	  7.91790	  7.24332	 -0.26216	 -0.61782	 10.95200	712.21997	 25.40	
 16.988	145.161	  9.37076	 -0.86254	  8.32462	  6.71553	  0.10530	 -0.61636	 10.94879	712.16998	 25.40	
 16.995	150.919	  9.38479	 -1.07450	  8.68129	  6.16822	  0.51260	 -0.60408	 10.95133	712.29999	 25.40	
 16.990	156.759	  9.39900	 -1.23257	  8.97548	  5.57696	  0.97208	 -0.57945	 10.93942	712.21997	 25.40	
 17.000	162.596	  9.42141	 -1.36158	  9.21939	  4.99216	  1.45890	 -0.54326	 10.95259	712.25000	 25.40	
 17.009	168.383	  9.43078	 -1.45101	  9.38584	  4.39679	  1.96852	 -0.51400	 10.94525	712.23999	 25.40	
 16.990	174.179	  9.44685	 -1.49856	  9.48825	  3.79893	  2.51872	 -0.48844	 10.94864	712.38000	 25.40	
 18.709	174.675	  9.09519	 -2.07802	  9.81898	  3.50518	  2.25046	 -0.52205	 10.95096	712.38000	 25.40	
 18.703	169.441	  9.07743	 -2.03622	  9.72090	  4.09566	  1.70740	 -0.55682	 10.94871	712.25000	 25.40	
 18.691	164.085	  9.06280	 -1.95999	  9.56293	  4.69335	  1.19367	 -0.57952	 10.94398	712.29999	 25.40	
 18.706	158.818	  9.04702	 -1.84825	  9.34950	  5.28027	  0.71899	 -0.61990	 10.94759	712.22998	 25.40	
 18.695	153.537	  9.03879	 -1.69984	  9.07651	  5.87054	  0.27593	 -0.65375	 10.95160	712.38000	 25.40	
 18.704	148.255	  9.01606	 -1.52295	  8.73958	  6.43149	 -0.14018	 -0.68467	 10.94068	712.29999	 25.30	
 18.698	142.952	  9.01093	 -1.30232	  8.36329	  6.97538	 -0.50926	 -0.69480	 10.94696	712.35999	 25.30	
 18.699	137.625	  8.99175	 -1.04825	  7.93041	  7.49444	 -0.86275	 -0.70860	 10.94876	712.40002	 25.40	
 18.705	132.343	  8.96878	 -0.75225	  7.44951	  7.96869	 -1.16469	 -0.71295	 10.93551	712.34003	 25.30	
 18.713	127.067	  8.95949	 -0.41918	  6.94580	  8.40643	 -1.42823	 -0.72001	 10.94374	712.34998	 25.30	
 18.700	121.794	  8.95206	 -0.04526	  6.41926	  8.78912	 -1.64489	 -0.72962	 10.94678	712.33002	 25.30	
 18.698	116.504	  8.92762	  0.35038	  5.85780	  9.11969	 -1.84423	 -0.74446	 10.94206	712.35999	 25.30	
 18.707	111.165	  8.91473	  0.80278	  5.27077	  9.40922	 -1.99851	 -0.76274	 10.94396	712.40997	 25.30	
 18.690	105.863	  8.89917	  1.28054	  4.68285	  9.62318	 -2.11170	 -0.77744	 10.94382	712.35999	 25.30	
 18.696	100.583	  8.88351	  1.78051	  4.10028	  9.78467	 -2.20122	 -0.78829	 10.94375	712.31000	 25.30	
 18.700	 95.309	  8.87181	  2.31741	  3.51310	  9.87982	 -2.25030	 -0.78475	 10.94538	712.28003	 25.30	
 18.700	 90.000	  8.85430	  2.87776	  2.93407	  9.91072	 -2.26653	 -0.78314	 10.94298	712.39001	 25.30	
 18.700	 84.691	  8.84721	  3.44841	  2.37951	  9.88541	 -2.25089	 -0.77510	 10.94706	712.37000	 25.30	
 18.696	 79.417	  8.83544	  4.03711	  1.84348	  9.79638	 -2.19912	 -0.77400	 10.93857	712.32001	 25.30	
 18.690	 74.137	  8.83976	  4.62899	  1.33963	  9.65484	 -2.11508	 -0.78012	 10.94771	712.31000	 25.30	
 18.707	 68.835	  8.82538	  5.21183	  0.86209	  9.44087	 -1.99996	 -0.77986	 10.94136	712.29999	 25.30	
 18.698	 63.496	  8.82738	  5.80145	  0.40728	  9.16329	 -1.84796	 -0.77938	 10.94211	712.34003	 25.30	
 18.700	 58.206	  8.82893	  6.36833	 -0.00986	  8.83594	 -1.66458	 -0.76543	 10.94295	712.32001	 25.30	
 18.713	 52.933	  8.82849	  6.90740	 -0.38989	  8.46287	 -1.44581	 -0.74803	 10.94365	712.33002	 25.30	
 18.705	 47.657	  8.83271	  7.41853	 -0.71876	  8.03450	 -1.18541	 -0.71275	 10.94247	712.32001	 25.30	
 18.699	 42.375	  8.84042	  7.90773	 -1.02597	  7.57309	 -0.88689	 -0.68485	 10.94812	712.29999	 25.30	
 18.698	 37.048	  8.84118	  8.34505	 -1.29724	  7.05859	 -0.54278	 -0.66551	 10.94258	712.31000	 25.30	
 18.704	 31.745	  8.85354	  8.73272	 -1.52048	  6.53090	 -0.17149	 -0.64398	 10.94634	712.28998	 25.30	
 18.695	 26.463	  8.86252	  9.06497	 -1.70540	  5.97138	  0.23975	 -0.62956	 10.94195	712.28998	 25.30	
 18.706	 21.182	  8.86951	  9.35208	 -1.86433	  5.38354	  0.68997	 -0.61219	 10.94010	712.33002	 25.30	
 18.691	 15.915	  8.88522	  9.57953	 -1.98620	  4.79868	  1.16131	 -0.59622	 10.94573	712.28003	 25.30	
 18.703	 10.559	  8.88720	  9.74368	 -2.07340	  4.19095	  1.68102	 -0.57780	 10.94011	712.21997	 25.30	
 18.709	  5.325	  8.89783	  9.84578	 -2.12510	  3.58647	  2.21881	 -0.56233	 10.94108	712.29999	 25.30	
 18.700	  0.000	  8.91492	  9.88857	 -2.14152	  3.01105	  2.78085	 -0.53347	 10.94567	712.21997	 25.30	
 18.709	 -5.325	  8.92286	  9.86767	 -2.13269	  2.43735	  3.35946	 -0.51802	 10.94515	712.15997	 25.30	
 18.703	-10.559	  8.93824	  9.78876	 -2.08830	  1.89202	  3.93518	 -0.50210	 10.94377	712.19000	 25.30	
 18.691	-15.915	  8.94875	  9.64556	 -1.99311	  1.37909	  4.53346	 -0.48235	 10.94280	712.32001	 25.30	
 18.706	-21.182	  8.95944	  9.44897	 -1.88138	  0.88496	  5.12718	 -0.46763	 10.94753	712.37000	 25.30	
 18.695	-26.463	  8.97216	  9.18235	 -1.72399	  0.42600	  5.71468	 -0.45305	 10.94355	712.28003	 25.30	
 18.704	-31.745	  8.98279	  8.86615	 -1.54315	  0.00513	  6.27871	 -0.43209	 10.94177	712.28998	 25.30	
 18.698	-37.048	  8.99713	  8.49419	 -1.31993	 -0.37975	  6.82886	 -0.41487	 10.93926	712.33002	 25.30	
 18.699	-42.375	  9.00417	  8.06419	 -1.05793	 -0.73265	  7.35406	 -0.39121	 10.93898	712.32001	 25.30	
 18.705	-47.657	  9.01675	  7.59571	 -0.75290	 -1.04324	  7.84108	 -0.37396	 10.94187	712.29999	 25.30	
 18.713	-52.933	  9.02863	  7.09321	 -0.41192	 -1.30622	  8.27572	 -0.34972	 10.93950	712.32001	 25.30	
 18.700	-58.206	  9.04642	  6.56801	 -0.03242	 -1.52772	  8.66108	 -0.33919	 10.94521	712.22998	 25.30	
 18.698	-63.496	  9.05273	  6.00940	  0.37912	 -1.72639	  8.99783	 -0.32136	 10.94275	712.34003	 25.30	
 18.707	-68.835	  9.06430	  5.42014	  0.83857	 -1.89681	  9.28536	 -0.31840	 10.94407	712.23999	 25.30	
 18.690	-74.137	  9.07741	  4.83232	  1.32719	 -2.01271	  9.50075	 -0.29522	 10.94408	712.38000	 25.30	
 18.696	-79.417	  9.08717	  4.24387	  1.83905	 -2.10230	  9.65773	 -0.28580	 10.94421	712.27002	 25.20	
 18.700	-84.691	  9.09867	  3.65055	  2.38230	 -2.15910	  9.75125	 -0.28432	 10.94446	712.34003	 25.20	
 18.700	-90.000	  9.10643	  3.07780	  2.93622	 -2.18175	  9.78451	 -0.28059	 10.94384	712.39001	 25.20	
 18.700	-95.309	  9.11458	  2.51207	  3.51490	 -2.17462	  9.75994	 -0.27586	 10.94426	712.40002	 25.20	
 18.696	-100.583	  9.12664	  1.97677	  4.11439	 -2.12249	  9.66656	 -0.27449	 10.94643	712.32001	 25.20	
 18.690	-105.863	  9.13676	  1.46644	  4.70369	 -2.03864	  9.51032	 -0.27465	 10.94211	712.33002	 25.20	
 18.707	-111.165	  9.14831	  0.97563	  5.29900	 -1.92017	  9.29931	 -0.27733	 10.94612	712.34003	 25.20	
 18.698	-116.504	  9.15827	  0.51167	  5.89053	 -1.76107	  9.01196	 -0.27927	 10.94238	712.32001	 25.20	
 18.700	-121.794	  9.16962	  0.09797	  6.45365	 -1.56768	  8.68238	 -0.28718	 10.94224	712.38000	 25.20	
 18.713	-127.067	  9.16751	 -0.28552	  6.98794	 -1.35117	  8.29622	 -0.29186	 10.93682	712.39001	 25.20	
 18.705	-132.343	  9.17316	 -0.63498	  7.49782	 -1.09428	  7.86877	 -0.30284	 10.94700	712.32001	 25.20	
 18.699	-137.625	  9.17270	 -0.94439	  7.96999	 -0.78619	  7.38622	 -0.31591	 10.94325	712.33002	 25.20	
 18.698	-142.952	  9.17959	 -1.20636	  8.40408	 -0.43258	  6.86832	 -0.32935	 10.95018	712.28003	 25.20	
 18.704	-148.255	  9.17569	 -1.43432	  8.78173	 -0.04314	  6.32388	 -0.35104	 10.94223	712.23999	 25.20	
 18.695	-153.537	  9.17009	 -1.61968	  9.10348	  0.37698	  5.76304	 -0.37120	 10.94309	712.34998	 25.20	
 18.706	-158.818	  9.15976	 -1.78681	  9.37953	  0.83213	  5.17628	 -0.39408	 10.94936	712.34998	 25.20	
 18.691	-164.085	  9.15138	 -1.91005	  9.58457	  1.31763	  4.57922	 -0.42009	 10.94357	712.31000	 25.20	
 18.703	-169.441	  9.13191	 -2.00423	  9.73216	  1.82758	  3.98330	 -0.44455	 10.94449	712.31000	 25.20	
 18.709	-174.675	  9.12367	 -2.06379	  9.82325	  2.36609	  3.39327	 -0.46471	 10.94667	712.37000	 25.20	
 18.700	180.000	  9.10793	 -2.07965	  9.84418	  2.93338	  2.80332	 -0.48657	 10.94041	712.39001	 25.20	
 20.400	180.000	  8.72144	 -2.64945	 10.12479	  2.61610	  2.52507	 -0.47795	 10.94457	712.33002	 25.20	
 20.401	-175.153	  8.73302	 -2.63170	 10.10344	  2.06348	  3.08894	 -0.44394	 10.94439	712.41998	 25.20	
 20.407	-170.264	  8.75133	 -2.57121	 10.02949	  1.53021	  3.68381	 -0.41953	 10.94541	712.29999	 25.20	
 20.410	-165.423	  8.75836	 -2.49262	  9.89302	  1.03931	  4.26130	 -0.39400	 10.94035	712.26001	 25.20	
 20.392	-160.496	  8.77227	 -2.37924	  9.69593	  0.55325	  4.87828	 -0.36748	 10.94081	712.28998	 25.20	
 20.401	-155.705	  8.78667	 -2.24234	  9.45759	  0.10342	  5.46391	 -0.36328	 10.94739	712.38000	 25.20	
 20.405	-150.835	  8.78985	 -2.07853	  9.15634	 -0.30865	  6.02925	 -0.34081	 10.94371	712.25000	 25.20	
 20.397	-145.903	  8.79897	 -1.87241	  8.80098	 -0.69907	  6.60010	 -0.32084	 10.94861	712.34998	 25.20	
 20.392	-141.062	  8.79894	 -1.64056	  8.39999	 -1.05905	  7.13090	 -0.30230	 10.94623	712.34003	 25.20	
 20.396	-136.227	  8.79649	 -1.37469	  7.96202	 -1.36537	  7.62357	 -0.29705	 10.94395	712.41998	 25.20	
 20.408	-131.372	  8.79130	 -1.06823	  7.48063	 -1.64822	  8.08515	 -0.28170	 10.93565	712.38000	 25.20	
 20.410	-126.511	  8.79072	 -0.72872	  6.96068	 -1.89521	  8.50912	 -0.26675	 10.94094	712.41998	 25.20	
 20.400	-121.604	  8.78576	 -0.35049	  6.41417	 -2.11088	  8.89724	 -0.25649	 10.94574	712.34003	 25.20	
 20.403	-116.741	  8.77435	  0.04911	  5.85689	 -2.29275	  9.23269	 -0.26523	 10.94206	712.39001	 25.20	
 20.413	-111.900	  8.76327	  0.48072	  5.27757	 -2.44784	  9.51395	 -0.25364	 10.94417	712.28998	 25.20	
 20.398	-107.004	  8.75561	  0.96612	  4.68371	 -2.55826	  9.73525	 -0.25804	 10.94434	712.25000	 25.20	
 20.394	-102.132	  8.74405	  1.45602	  4.09599	 -2.64186	  9.90059	 -0.26016	 10.94199	712.28003	 25.20	
 20.403	-97.332	  8.73805	  1.96738	  3.52169	 -2.68880	 10.00903	 -0.26317	 10.94458	712.33002	 25.20	
 20.392	-92.440	  8.73391	  2.52055	  2.93926	 -2.71290	 10.06150	 -0.26473	 10.94575	712.35999	 25.20	
 20.392	-87.560	  8.72267	  3.07881	  2.37781	 -2.71248	 10.06605	 -0.26683	 10.95069	712.37000	 25.20	
 20.403	-82.668	  8.70601	  3.65737	  1.82182	 -2.68549	 10.00626	 -0.28154	 10.94561	712.34998	 25.20	
 20.394	-77.868	  8.69481	  4.23861	  1.30524	 -2.62931	  9.89330	 -0.27531	 10.94282	712.45001	 25.20	
 20.398	-72.996	  8.68045	  4.81820	  0.80994	 -2.54397	  9.72727	 -0.27933	 10.94408	712.41998	 25.20	
 20.413	-68.100	  8.66256	  5.39978	  0.33019	 -2.43419	  9.50085	 -0.29800	 10.94509	712.41998	 25.20	
 20.403	-63.259	  8.65259	  5.97440	 -0.10430	 -2.27891	  9.21628	 -0.31114	 10.94639	712.42999	 25.20	
 20.400	-58.396	  8.63946	  6.53497	 -0.50798	 -2.09062	  8.87759	 -0.32171	 10.94877	712.40997	 25.20	
 20.410	-53.489	  8.63278	  7.07574	 -0.86983	 -1.86929	  8.48832	 -0.34542	 10.95054	712.40002	 25.20	
 20.408	-48.628	  8.61748	  7.58873	 -1.20498	 -1.61534	  8.04766	 -0.35357	 10.94403	712.33002	 25.20	
 20.396	-43.773	  8.61101	  8.06023	 -1.49988	 -1.33145	  7.58315	 -0.38087	 10.94757	712.39001	 25.20	
 20.392	-38.938	  8.59966	  8.49574	 -1.75758	 -1.01244	  7.07619	 -0.39255	 10.94586	712.40997	 25.10	
 20.397	-34.097	  8.58509	  8.88411	 -1.98029	 -0.65401	  6.53839	 -0.40873	 10.94494	712.32001	 25.10	
 20.405	-29.165	  8.57018	  9.23828	 -2.17875	 -0.25785	  5.96951	 -0.43355	 10.94228	712.47998	 25.10	
 20.401	-24.295	  8.55665	  9.52700	 -2.34250	  0.15777	  5.39717	 -0.46303	 10.94413	712.46002	 25.10	
 20.392	-19.504	  8.55271	  9.76920	 -2.46599	  0.60822	  4.81846	 -0.48158	 10.94520	712.35999	 25.10	
 20.410	-14.577	  8.53760	  9.95408	 -2.57054	  1.10499	  4.21600	 -0.50207	 10.94382	712.39001	 25.20	
 20.407	 -9.736	  8.52524	 10.07650	 -2.64049	  1.60518	  3.63289	 -0.52505	 10.94408	712.34998	 25.10	
 20.401	 -4.847	  8.51610	 10.14705	 -2.68051	  2.14999	  3.04280	 -0.55134	 10.94439	712.42999	 25.10	
 20.400	  0.000	  8.50437	 10.16093	 -2.69171	  2.70627	  2.47398	 -0.58271	 10.94668	712.26001	 25.10	
 20.401	  4.847	  8.48966	 10.12233	 -2.67956	  3.29934	  1.93959	 -0.61139	 10.94149	712.39001	 25.10	
 20.407	  9.736	  8.47867	 10.03214	 -2.63723	  3.89303	  1.40744	 -0.64048	 10.94835	712.35999	 25.10	
 20.410	 14.577	  8.46302	  9.88044	 -2.56742	  4.47319	  0.90419	 -0.65938	 10.93764	712.32001	 25.10	
 20.392	 19.504	  8.46681	  9.67899	 -2.46728	  5.07327	  0.42242	 -0.69236	 10.95137	712.40002	 25.10	
 20.401	 24.295	  8.44728	  9.41635	 -2.33171	  5.65119	 -0.02560	 -0.71987	 10.94505	712.40002	 25.10	
 20.405	 29.165	  8.43756	  9.10239	 -2.16513	  6.21525	 -0.43125	 -0.74516	 10.94776	712.35999	 25.10	
 20.397	 34.097	  8.43792	  8.73219	 -1.95783	  6.77569	 -0.81350	 -0.76662	 10.94571	712.41998	 25.10	
 20.392	 38.938	  8.42740	  8.32450	 -1.73834	  7.30080	 -1.16650	 -0.78727	 10.94377	712.34003	 25.10	
 20.396	 43.773	  8.41903	  7.87749	 -1.47621	  7.79133	 -1.48044	 -0.80909	 10.94736	712.22998	 25.10	
 20.408	 48.628	  8.41719	  7.39623	 -1.19318	  8.24521	 -1.76333	 -0.83286	 10.94894	712.20001	 25.10	
 20.410	 53.489	  8.41602	  6.87418	 -0.85674	  8.66323	 -2.00325	 -0.85486	 10.94913	712.32001	 25.10	
 20.400	 58.396	  8.40717	  6.31677	 -0.48478	  9.03696	 -2.21665	 -0.87421	 10.94125	712.33002	 25.10	
 20.403	 63.259	  8.40841	  5.75896	 -0.09196	  9.37298	 -2.40220	 -0.88578	 10.94711	712.39001	 25.10	
 20.413	 68.100	  8.40535	  5.17638	  0.34076	  9.65271	 -2.54867	 -0.89848	 10.95004	712.26001	 25.10	
 20.398	 72.996	  8.41002	  4.59117	  0.81491	  9.86927	 -2.66077	 -0.89240	 10.94895	712.28003	 25.10	
 20.394	 77.868	  8.41789	  4.00195	  1.29954	 10.03074	 -2.74798	 -0.88865	 10.94821	712.27002	 25.10	
 20.403	 82.668	  8.42229	  3.42720	  1.81000	 10.13300	 -2.80663	 -0.89409	 10.94426	712.39001	 25.10	
 20.392	 87.560	  8.43497	  2.85772	  2.35550	 10.18055	 -2.82946	 -0.89758	 10.94441	712.33002	 25.10	
 20.392	 92.440	  8.45064	  2.29518	  2.92178	 10.17796	 -2.82423	 -0.89223	 10.94619	712.34998	 25.10	
 20.403	 97.332	  8.45678	  1.74258	  3.50194	 10.12189	 -2.80720	 -0.89335	 10.94573	712.37000	 25.10	
 20.394	102.132	  8.47680	  1.23709	  4.07827	 10.01069	 -2.74544	 -0.89101	 10.94705	712.40002	 25.10	
 20.398	107.004	  8.48958	  0.74878	  4.65871	  9.84116	 -2.66682	 -0.88014	 10.94851	712.38000	 25.10	
 20.413	111.900	  8.49932	  0.28696	  5.24504	  9.61113	 -2.55365	 -0.86733	 10.94817	712.29999	 25.10	
 20.403	116.741	  8.51951	 -0.13456	  5.81887	  9.32649	 -2.40107	 -0.85102	 10.94515	712.41998	 25.10	
 20.400	121.604	  8.54210	 -0.52094	  6.37951	  8.99265	 -2.22100	 -0.83474	 10.94589	712.34003	 25.10	
 20.410	126.511	  8.55399	 -0.89125	  6.92221	  8.60731	 -2.01097	 -0.82001	 10.94517	712.34003	 25.10	
 20.408	131.372	  8.56623	 -1.22175	  7.43596	  8.17638	 -1.77088	 -0.79970	 10.94540	712.37000	 25.10	
 20.396	136.227	  8.58757	 -1.51551	  7.91534	  7.71674	 -1.49519	 -0.78234	 10.94945	712.42999	 25.10	
 20.392	141.062	  8.60545	 -1.75322	  8.35588	  7.21200	 -1.15968	 -0.76237	 10.94903	712.37000	 25.10	
 20.397	145.903	  8.61814	 -1.98564	  8.75875	  6.67925	 -0.81936	 -0.73464	 10.94778	712.34003	 25.10	
 20.405	150.835	  8.63102	 -2.17808	  9.12053	  6.11933	 -0.44243	 -0.71021	 10.95047	712.28003	 25.10	
 20.401	155.705	  8.64420	 -2.33205	  9.42282	  5.54471	 -0.02141	 -0.67792	 10.94874	712.34998	 25.10	
 20.392	160.496	  8.66843	 -2.44549	  9.67238	  4.96808	  0.43023	 -0.63259	 10.94940	712.37000	 25.10	
 20.410	165.423	  8.68126	 -2.54026	  9.87529	  4.37097	  0.91810	 -0.59432	 10.94965	712.41998	 25.10	
 20.407	170.264	  8.69778	 -2.59992	 10.02006	  3.78944	  1.42823	 -0.55485	 10.95261	712.38000	 25.10	
 20.401	175.153	  8.70993	 -2.61956	 10.09664	  3.19421	  1.97852	 -0.51362	 10.94367	712.37000	 25.10	
  0.141	 45.000	 10.96054	  4.70558	  4.62049	  4.74179	  4.47182	  0.23656	 10.94827	712.34998	 25.10	
  4.001	128.691	 10.91555	  3.76446	  5.42583	  5.70743	  3.40060	  0.15157	 10.94991	712.34998	 25.10	
  4.002	 76.995	 10.90890	  4.86687	  4.25889	  6.00022	  3.13379	  0.18757	 10.95224	712.45001	 25.10	
  4.002	 25.892	 10.91007	  5.85610	  3.38127	  5.23315	  3.80793	  0.22744	 10.94768	712.42999	 25.10	
  4.002	-25.892	 10.92871	  5.86836	  3.38654	  4.02696	  4.99851	  0.19995	 10.94808	712.28998	 25.10	
  4.002	-76.995	 10.93867	  4.92733	  4.25190	  3.34790	  5.78145	  0.17458	 10.94955	712.41998	 25.10	
  4.001	-128.691	 10.93803	  3.80514	  5.43054	  3.60552	  5.49373	  0.14106	 10.95037	712.46002	 25.10	
  4.000	180.000	 10.92714	  3.31863	  5.96110	  4.59459	  4.43703	  0.13753	 10.94772	712.48999	 25.10	
  8.000	180.000	 10.71976	  1.80536	  7.23910	  4.34079	  4.15603	 -0.06750	 10.94598	712.51001	 25.10	
  7.991	-152.370	 10.75081	  2.11318	  6.89246	  3.10312	  5.49498	 -0.06294	 10.95476	712.52002	 25.10	
  7.997	-124.550	 10.74898	  2.89212	  5.93486	  2.22455	  6.56341	 -0.05874	 10.94474	712.37000	 25.10	
  8.006	-96.837	 10.74025	  4.06529	  4.64384	  1.81705	  7.09090	 -0.04162	 10.94709	712.44000	 25.10	
  7.988	-69.228	 10.73867	  5.39820	  3.35968	  1.94792	  6.91349	 -0.02072	 10.95366	712.44000	 25.10	
  7.997	-41.563	 10.71036	  6.55257	  2.35699	  2.61287	  6.07816	  0.01126	 10.95093	712.45001	 25.10	
  8.008	-13.821	 10.68680	  7.22264	  1.80323	  3.71394	  4.82470	  0.04999	 10.95147	712.40002	 25.10	
  8.008	 13.821	 10.66028	  7.20348	  1.78418	  5.05020	  3.48762	  0.05327	 10.94887	712.46997	 25.10	
  7.997	 41.563	 10.64379	  6.49365	  2.32811	  6.30848	  2.37645	  0.04570	 10.94891	712.52002	 25.10	
  7.988	 69.228	 10.63819	  5.30862	  3.33533	  7.13590	  1.70793	  0.00933	 10.95258	712.47998	 25.10	
  8.006	 96.837	 10.64132	  3.95229	  4.62859	  7.30698	  1.56202	 -0.02584	 10.94705	712.47998	 25.10	
  7.997	124.550	 10.66590	  2.77779	  5.93270	  6.77020	  1.98616	 -0.03251	 10.94856	712.48999	 25.10	
  7.991	152.370	 10.69995	  2.03268	  6.89390	  5.68146	  2.90559	 -0.06491	 10.95547	712.48999	 25.00	
 12.009	161.059	 10.26437	  0.41393	  8.12415	  5.32597	  2.45314	 -0.30611	 10.94886	712.46002	 25.00	
 12.013	142.081	 10.22540	  0.90431	  7.38753	  6.63129	  1.36328	 -0.30470	 10.95019	712.53998	 25.00	
 12.006	123.113	 10.19744	  1.74579	  6.27686	  7.68409	  0.57744	 -0.28221	 10.94897	712.42999	 25.00	
 12.007	104.200	 10.16272	  2.87845	  4.94337	  8.30427	  0.13723	 -0.29349	 10.94414	712.50000	 25.00	
 11.989	 85.301	 10.14704	  4.20760	  3.57620	  8.44513	  0.04442	 -0.26533	 10.95016	712.44000	 25.00	
 12.013	 66.294	 10.13436	  5.60217	  2.30436	  8.08134	  0.29570	 -0.26251	 10.95167	712.52002	 25.00	
 12.012	 47.388	 10.13486	  6.86453	  1.28708	  7.25133	  0.90345	 -0.21751	 10.94850	712.57001	 25.00	
 11.990	 28.440	 10.16443	  7.82510	  0.59829	  6.06369	  1.86209	 -0.16925	 10.95397	712.53998	 25.00	
 11.991	  9.464	 10.18311	  8.34787	  0.24525	  4.68709	  3.07628	 -0.17768	 10.95127	712.45001	 25.00	
 11.991	 -9.464	 10.21300	  8.37975	  0.24661	  3.31364	  4.44915	 -0.18151	 10.95398	712.37000	 25.00	
 11.990	-28.440	 10.23569	  7.90589	  0.59688	  2.09196	  5.81376	 -0.22166	 10.94509	712.19000	 25.00	
 12.012	-47.388	 10.25787	  6.98707	  1.29298	  1.11740	  7.02687	 -0.24304	 10.94741	712.02002	 25.00	
 12.013	-66.294	 10.28412	  5.75469	  2.31666	  0.50863	  7.86752	 -0.25645	 10.94485	712.46002	 25.00	
 11.989	-85.301	 10.30670	  4.36339	  3.58962	  0.24886	  8.25173	 -0.25667	 10.94272	712.40002	 25.00	
 12.007	-104.200	 10.32575	  3.02499	  4.96636	  0.33004	  8.13578	 -0.25544	 10.95342	711.67999	 25.00	
 12.006	-123.113	 10.34175	  1.88071	  6.29564	  0.76960	  7.50635	 -0.27057	 10.94888	712.41998	 25.00	
 12.013	-142.081	 10.33435	  1.01677	  7.40125	  1.53554	  6.47148	 -0.27836	 10.94298	712.51001	 25.00	
 12.009	-161.059	 10.32401	  0.47809	  8.12808	  2.62432	  5.16628	 -0.29446	 10.94759	712.46002	 25.00	
 16.000	180.000	  9.66080	 -1.16506	  9.32130	  3.37640	  3.23261	 -0.45461	 10.95112	712.47998	 25.00	
 15.990	-165.604	  9.69064	 -1.02188	  9.13185	  2.07393	  4.63086	 -0.42278	 10.94635	712.38000	 25.00	
 16.002	-151.165	  9.71295	 -0.66278	  8.57508	  0.93201	  6.01258	 -0.36926	 10.95389	711.72998	 25.00	
 16.002	-136.836	  9.71929	 -0.04633	  7.65589	  0.02593	  7.25097	 -0.33546	 10.95040	711.96002	 25.00	
 15.995	-122.439	  9.71845	  0.80209	  6.47532	 -0.64863	  8.26778	 -0.31746	 10.95785	711.69000	 25.00	
 15.993	-107.966	  9.69718	  1.90156	  5.11529	 -1.05887	  8.93963	 -0.30118	 10.95015	712.09003	 25.00	
 16.005	-93.629	  9.67144	  3.16002	  3.72560	 -1.22952	  9.23076	 -0.30388	 10.95108	712.41998	 25.00	
 15.992	-79.234	  9.65602	  4.54025	  2.39570	 -1.17513	  9.13340	 -0.32312	 10.95810	712.41998	 25.00	
 16.009	-64.774	  9.62078	  5.92431	  1.19683	 -0.87842	  8.64171	 -0.33768	 10.94865	712.47998	 25.00	
 15.997	-50.364	  9.59452	  7.19379	  0.22340	 -0.32634	  7.78012	 -0.36121	 10.95097	712.07001	 25.00	
 15.997	-36.045	  9.56817	  8.24215	 -0.50609	  0.47699	  6.64677	 -0.39836	 10.95427	712.46002	 25.00	
 16.000	-21.597	  9.53391	  8.97811	 -0.98517	  1.53068	  5.30119	 -0.40971	 10.94752	712.53003	 25.00	
 16.003	 -7.169	  9.51053	  9.33862	 -1.21743	  2.76598	  3.90233	 -0.40109	 10.95100	712.51001	 25.00	
 16.003	  7.169	  9.48211	  9.31000	 -1.21253	  4.12585	  2.53825	 -0.42501	 10.94691	712.41998	 25.00	
 16.000	 21.597	  9.45438	  8.89052	 -0.97486	  5.52329	  1.31110	 -0.43307	 10.94063	712.46002	 25.00	
 15.997	 36.045	  9.44433	  8.11182	 -0.48646	  6.86099	  0.28346	 -0.45407	 10.95486	712.50000	 25.00	
 15.997	 50.364	  9.43150	  7.03339	  0.23794	  7.98042	 -0.48676	 -0.52250	 10.95283	712.48999	 25.00	
 16.009	 64.774	  9.42388	  5.73403	  1.20481	  8.82839	 -1.03681	 -0.57191	 10.95516	712.46997	 25.00	
 15.992	 79.234	  9.43377	  4.34399	  2.38665	  9.29635	 -1.31458	 -0.56525	 10.95129	712.42999	 25.00	
 16.005	 93.629	  9.45522	  2.97798	  3.70654	  9.38591	 -1.36996	 -0.58118	 10.94826	712.51001	 25.00	
 15.993	107.966	  9.48194	  1.72592	  5.08335	  9.08676	 -1.19860	 -0.58621	 10.94938	712.46002	 25.00	
 15.995	122.439	  9.51717	  0.65568	  6.43408	  8.40200	 -0.78045	 -0.54549	 10.95279	712.44000	 25.00	
 16.002	136.836	  9.56287	 -0.16776	  7.62183	  7.38842	 -0.10407	 -0.55307	 10.95560	712.40997	 25.00	
 16.002	151.165	  9.59127	 -0.74906	  8.54213	  6.14113	  0.79759	 -0.55293	 10.95253	712.41998	 25.00	
 15.990	165.604	  9.62565	 -1.07130	  9.12005	  4.76869	  1.93289	 -0.49203	 10.94386	712.34998	 25.00	
 20.003	168.362	  8.78609	 -2.43879	  9.89877	  4.06873	  1.32376	 -0.57778	 10.94528	712.42999	 25.00	
 20.008	156.764	  8.74197	 -2.21792	  9.42571	  5.44039	  0.20669	 -0.65642	 10.94343	712.40997	 25.00	
 20.000	145.147	  8.71753	 -1.81266	  8.66026	  6.76310	 -0.72886	 -0.72715	 10.94817	712.35999	 25.00	
 19.995	133.545	  8.67705	 -1.22452	  7.63636	  7.95250	 -1.49308	 -0.77023	 10.94962	712.45001	 25.00	
 20.009	121.926	  8.64302	 -0.42716	  6.42115	  8.92775	 -2.06265	 -0.80785	 10.94669	712.64001	 25.00	
 20.005	110.327	  8.60553	  0.54713	  5.08888	  9.64237	 -2.44331	 -0.85040	 10.95105	712.54999	 25.00	
 19.989	 98.733	  8.57457	  1.69106	  3.72584	 10.04134	 -2.65027	 -0.86646	 10.95254	712.50000	 25.00	
 19.999	 87.075	  8.53822	  2.98008	  2.38652	 10.12519	 -2.68977	 -0.86707	 10.94798	712.53998	 25.00	
 19.992	 75.457	  8.51213	  4.33989	  1.15826	  9.89902	 -2.57175	 -0.87030	 10.94383	712.53003	 25.00	
 20.009	 63.844	  8.50888	  5.70952	  0.08084	  9.36239	 -2.28359	 -0.86402	 10.94830	712.44000	 25.00	
 19.989	 52.269	  8.52410	  7.00164	 -0.79769	  8.52838	 -1.80442	 -0.82003	 10.94694	712.47998	 25.00	
 19.999	 40.602	  8.53242	  8.15766	 -1.51226	  7.46966	 -1.15745	 -0.77233	 10.95445	712.50000	 25.00	
 20.004	 29.051	  8.54700	  9.07197	 -2.03302	  6.22567	 -0.32043	 -0.71490	 10.95314	712.54999	 25.00	
 20.005	 17.433	  8.57290	  9.72610	 -2.38421	  4.86109	  0.71591	 -0.66292	 10.95706	712.40997	 25.00	
 20.006	  5.780	  8.59212	 10.05871	 -2.55061	  3.47374	  1.92188	 -0.60252	 10.95219	712.47998	 25.00	
 20.006	 -5.780	  8.61821	 10.07890	 -2.55020	  2.13112	  3.20573	 -0.53739	 10.94668	712.40002	 25.00	
 20.005	-17.433	  8.64806	  9.80663	 -2.39224	  0.91436	  4.60097	 -0.48814	 10.95556	712.40002	 25.00	
 20.004	-29.051	  8.67619	  9.20565	 -2.05706	 -0.13640	  5.96932	 -0.43423	 10.95220	712.50000	 25.00	
 19.999	-40.602	  8.70508	  8.32709	 -1.54985	 -1.00398	  7.24385	 -0.38916	 10.95416	712.56000	 25.00	
 19.989	-52.269	  8.74056	  7.20582	 -0.83564	 -1.67290	  8.34564	 -0.34958	 10.95343	712.47998	 24.90	
 20.009	-63.844	  8.75720	  5.93371	  0.05107	 -2.17031	  9.20881	 -0.30881	 10.95839	712.46997	 24.90	
 19.992	-75.457	  8.78505	  4.56785	  1.14604	 -2.46434	  9.75910	 -0.28077	 10.94629	712.50000	 25.00	
 19.999	-87.075	  8.82093	  3.20307	  2.39940	 -2.58728	 10.00446	 -0.27141	 10.95662	712.54999	 24.90	
 19.989	-98.733	  8.83953	  1.91100	  3.74620	 -2.54302	  9.92573	 -0.26268	 10.95204	712.34998	 24.90	
 20.005	-110.327	  8.86151	  0.73750	  5.11676	 -2.35832	  9.54383	 -0.26534	 10.95211	712.44000	 24.90	
 20.009	-121.926	  8.88138	 -0.26374	  6.45552	 -1.97397	  8.83802	 -0.26672	 10.94846	712.47998	 24.90	
 19.995	-133.545	  8.89902	 -1.08854	  7.68600	 -1.40035	  7.86714	 -0.29000	 10.95355	712.38000	 24.90	
 20.000	-145.147	  8.89633	 -1.70586	  8.70065	 -0.64038	  6.68647	 -0.32980	 10.94656	712.40002	 24.90	
 20.008	-156.764	  8.87279	 -2.14794	  9.46232	  0.30792	  5.36149	 -0.36809	 10.94486	712.44000	 25.00	
 20.003	-168.362	  8.85200	 -2.40262	  9.92071	  1.43593	  3.96317	 -0.41486	 10.94511	712.20001	 24.90	
 20.000	180.000	  8.82698	 -2.50098	 10.06864	  2.70697	  2.59874	 -0.47994	 10.95164	712.41998	 24.90	
