FileType=PCF
NHL=14
Date=03/19/19	15:08:00
Facility=APL
Serial=16071-7
Customer=NASA
NP=6
Mach=0.080000
Calibration=1:1
CalPts=490
TstPts=95
PortNumbering=AP Standard
Units=Torr C m/s kg/m^3 deg mm 
Theta[deg]	Phi[deg]	P1[Torr]	P2[Torr]	P3[Torr]	P4[Torr]	P5[Torr]	P6[Torr]	Pt[Torr]	Ps[Abs,Torr]	Ts[C]	
  0.000	  0.000	  3.11750	  1.31525	  1.36971	  1.34830	  1.34526	  0.05873	  3.10636	712.71997	 24.20	
  1.691	128.401	  3.11382	  1.22565	  1.43663	  1.45551	  1.22093	  0.05380	  3.10334	712.84003	 24.20	
  1.692	 77.194	  3.11555	  1.33435	  1.33022	  1.47888	  1.19799	  0.06059	  3.10516	712.75000	 24.10	
  1.699	 26.182	  3.11511	  1.44192	  1.23081	  1.39576	  1.27592	  0.06048	  3.10479	712.75000	 24.10	
  1.699	-26.182	  3.11321	  1.42941	  1.23764	  1.27854	  1.39084	  0.05781	  3.10243	712.84998	 24.10	
  1.692	-77.194	  3.11455	  1.32662	  1.33904	  1.20407	  1.47341	  0.05343	  3.10341	712.78003	 24.10	
  1.691	-128.401	  3.11555	  1.21765	  1.45883	  1.23601	  1.44695	  0.05140	  3.10459	712.83002	 24.10	
  1.700	180.000	  3.11520	  1.16851	  1.49565	  1.33713	  1.33404	  0.05123	  3.10450	712.73999	 24.10	
  3.400	180.000	  3.10922	  0.99294	  1.65766	  1.32332	  1.30259	  0.03609	  3.10604	712.78998	 24.10	
  3.388	-152.325	  3.11191	  1.02311	  1.62501	  1.18367	  1.44770	  0.03507	  3.10691	712.85999	 24.10	
  3.397	-124.529	  3.11119	  1.11133	  1.52010	  1.08312	  1.56611	  0.03432	  3.10571	712.84003	 24.10	
  3.399	-96.763	  3.11225	  1.24182	  1.38277	  1.03709	  1.62740	  0.03671	  3.10667	712.85999	 24.10	
  3.394	-69.283	  3.11494	  1.38777	  1.24504	  1.05095	  1.61460	  0.04071	  3.10874	712.85999	 24.10	
  3.400	-41.398	  3.11113	  1.51750	  1.12823	  1.12291	  1.52637	  0.04650	  3.10512	712.81000	 24.10	
  3.401	-14.021	  3.11580	  1.59909	  1.06427	  1.24429	  1.39752	  0.05278	  3.10959	712.87000	 24.10	
  3.401	 14.021	  3.11100	  1.60414	  1.05449	  1.38858	  1.25082	  0.05733	  3.10459	712.96997	 24.10	
  3.400	 41.398	  3.11099	  1.53440	  1.11209	  1.52391	  1.12599	  0.05827	  3.10486	712.82001	 24.10	
  3.394	 69.283	  3.11157	  1.40366	  1.22772	  1.61917	  1.04260	  0.05538	  3.10585	712.92999	 24.10	
  3.399	 96.763	  3.11146	  1.25816	  1.36686	  1.64624	  1.02073	  0.05215	  3.10572	712.90002	 24.10	
  3.397	124.529	  3.10961	  1.11939	  1.50725	  1.58857	  1.06461	  0.04678	  3.10481	712.82001	 24.10	
  3.388	152.325	  3.10960	  1.02605	  1.61482	  1.46998	  1.16611	  0.04081	  3.10528	712.92999	 24.10	
  5.099	161.165	  3.09374	  0.83599	  1.78533	  1.46146	  1.12703	  0.02123	  3.10515	712.84003	 24.10	
  5.109	142.013	  3.09266	  0.90523	  1.69780	  1.61032	  0.99496	  0.02656	  3.10403	712.84003	 24.10	
  5.095	123.033	  3.09494	  1.01752	  1.57263	  1.72187	  0.90495	  0.03419	  3.10472	712.87000	 24.00	
  5.105	104.191	  3.09636	  1.15640	  1.42173	  1.78944	  0.85210	  0.03931	  3.10547	712.89001	 24.00	
  5.093	 85.207	  3.09858	  1.31270	  1.26375	  1.80084	  0.84116	  0.04119	  3.10709	712.84003	 24.00	
  5.104	 66.290	  3.10095	  1.47251	  1.11588	  1.75694	  0.87855	  0.04488	  3.10761	712.87000	 24.00	
  5.094	 47.331	  3.09886	  1.61378	  0.99197	  1.65938	  0.95890	  0.04765	  3.10751	712.87000	 24.00	
  5.089	 28.397	  3.09967	  1.71559	  0.91384	  1.52297	  1.08315	  0.04841	  3.10665	712.87000	 24.00	
  5.096	  9.576	  3.10209	  1.76944	  0.87548	  1.37057	  1.22822	  0.04692	  3.10979	712.90997	 24.00	
  5.096	 -9.576	  3.09808	  1.76203	  0.88180	  1.21185	  1.38538	  0.04204	  3.10592	712.89001	 24.00	
  5.089	-28.397	  3.09662	  1.69981	  0.93138	  1.07504	  1.53414	  0.03528	  3.10529	712.84003	 24.00	
  5.094	-47.331	  3.09698	  1.59131	  1.02194	  0.96277	  1.66556	  0.02832	  3.10646	712.96002	 24.00	
  5.104	-66.290	  3.09507	  1.44991	  1.14351	  0.88832	  1.75538	  0.02134	  3.10425	712.87000	 24.00	
  5.093	-85.207	  3.09533	  1.29414	  1.28947	  0.85841	  1.79326	  0.01791	  3.10450	712.87000	 24.00	
  5.105	-104.191	  3.09735	  1.13888	  1.44644	  0.86762	  1.77750	  0.01280	  3.10689	712.85999	 24.00	
  5.095	-123.033	  3.09599	  1.00247	  1.59395	  0.92279	  1.70339	  0.01168	  3.10658	712.78003	 24.00	
  5.109	-142.013	  3.09439	  0.89899	  1.71631	  1.01766	  1.58676	  0.01316	  3.10601	712.94000	 24.00	
  5.099	-161.165	  3.09795	  0.83472	  1.79776	  1.15242	  1.43762	  0.01513	  3.11057	712.87000	 24.00	
  5.100	180.000	  3.09697	  0.81533	  1.81871	  1.30303	  1.28234	  0.01681	  3.10923	712.89001	 24.00	
  6.800	180.000	  3.06768	  0.62806	  1.97316	  1.27452	  1.24752	 -0.00504	  3.10696	712.84998	 24.00	
  6.796	-166.229	  3.07181	  0.64365	  1.95893	  1.12804	  1.40146	 -0.00847	  3.10961	712.90997	 24.00	
  6.808	-152.311	  3.06901	  0.68873	  1.90174	  0.98496	  1.55767	 -0.01000	  3.10762	712.88000	 24.00	
  6.795	-138.383	  3.06744	  0.76546	  1.80525	  0.86552	  1.69832	 -0.01200	  3.10727	712.75000	 24.00	
  6.792	-124.591	  3.06831	  0.86673	  1.68423	  0.77425	  1.81485	 -0.01310	  3.10788	712.85999	 23.90	
  6.787	-110.754	  3.06973	  0.99446	  1.53955	  0.71269	  1.89624	 -0.01237	  3.10754	712.90002	 23.90	
  6.800	-96.985	  3.06861	  1.14110	  1.38388	  0.67803	  1.94360	 -0.00973	  3.10647	712.78998	 24.00	
  6.800	-83.015	  3.06827	  1.29741	  1.22783	  0.67592	  1.94816	 -0.00953	  3.10360	712.82001	 23.90	
  6.787	-69.246	  3.06863	  1.45416	  1.08060	  0.70623	  1.90834	 -0.00479	  3.10455	712.84998	 23.90	
  6.792	-55.409	  3.07137	  1.60483	  0.95197	  0.76456	  1.83546	  0.00258	  3.10558	712.83002	 23.90	
  6.795	-41.617	  3.06842	  1.73185	  0.84306	  0.85179	  1.72595	  0.00719	  3.10436	712.90997	 23.90	
  6.808	-27.689	  3.07113	  1.83625	  0.76107	  0.96752	  1.59000	  0.01262	  3.10569	712.77002	 23.90	
  6.796	-13.771	  3.07162	  1.90286	  0.70887	  1.10663	  1.43684	  0.02195	  3.10647	712.78003	 23.90	
  6.800	  0.000	  3.07109	  1.92935	  0.68565	  1.25238	  1.28126	  0.02777	  3.10803	712.81000	 23.90	
  6.796	 13.771	  3.07370	  1.91359	  0.69503	  1.41206	  1.12573	  0.03063	  3.10875	712.79999	 23.90	
  6.808	 27.689	  3.07352	  1.85650	  0.73529	  1.56821	  0.98014	  0.03296	  3.10789	712.90997	 23.90	
  6.795	 41.617	  3.07410	  1.76018	  0.80984	  1.70942	  0.85761	  0.03149	  3.10880	712.92999	 23.90	
  6.792	 55.409	  3.07253	  1.63380	  0.91402	  1.82415	  0.76062	  0.02783	  3.10799	712.71002	 23.90	
  6.787	 69.246	  3.07276	  1.48252	  1.04596	  1.90783	  0.69343	  0.02802	  3.10710	712.75000	 23.90	
  6.800	 83.015	  3.07246	  1.32781	  1.18860	  1.95413	  0.65757	  0.02386	  3.10842	712.82001	 23.90	
  6.800	 96.985	  3.07101	  1.16879	  1.34729	  1.95729	  0.65638	  0.01973	  3.10652	712.84998	 23.90	
  6.787	110.754	  3.07183	  1.01966	  1.50290	  1.91719	  0.68762	  0.01445	  3.10737	712.82001	 23.90	
  6.792	124.591	  3.06768	  0.88576	  1.64956	  1.83740	  0.74721	  0.01306	  3.10416	712.89001	 23.90	
  6.795	138.383	  3.06843	  0.77734	  1.77903	  1.72728	  0.83866	  0.00582	  3.10637	712.76001	 23.90	
  6.808	152.311	  3.06624	  0.69685	  1.88166	  1.59069	  0.95352	  0.00189	  3.10566	712.78998	 23.90	
  6.796	166.229	  3.06655	  0.64695	  1.94722	  1.43618	  1.09366	  0.00055	  3.10609	712.87000	 23.90	
  8.491	168.704	  3.02432	  0.45341	  2.09696	  1.40501	  1.04534	 -0.02605	  3.10302	712.89001	 23.90	
  8.502	157.493	  3.02706	  0.49366	  2.04363	  1.56596	  0.89949	 -0.02427	  3.10483	712.84998	 23.90	
  8.494	146.194	  3.02698	  0.56150	  1.95323	  1.71598	  0.77097	 -0.02318	  3.10585	712.87000	 23.90	
  8.495	135.039	  3.02292	  0.65023	  1.83404	  1.84674	  0.65923	 -0.01781	  3.10070	712.82001	 23.90	
  8.487	123.723	  3.02940	  0.76722	  1.70059	  1.96066	  0.57612	 -0.01123	  3.10542	712.77002	 23.90	
  8.492	112.575	  3.02924	  0.89806	  1.54844	  2.04286	  0.51216	 -0.01139	  3.10549	712.90002	 23.90	
  8.510	101.220	  3.02929	  1.05086	  1.38459	  2.09454	  0.47265	 -0.00793	  3.10399	712.82001	 23.90	
  8.500	 90.000	  3.02822	  1.20682	  1.22324	  2.10806	  0.46038	 -0.00318	  3.10291	712.76001	 23.90	
  8.510	 78.780	  3.02822	  1.36964	  1.06629	  2.08770	  0.47411	  0.00076	  3.10306	712.91998	 23.90	
  8.492	 67.425	  3.02953	  1.53591	  0.91948	  2.03067	  0.51888	  0.00370	  3.10377	712.82001	 23.90	
  8.487	 56.277	  3.03175	  1.68611	  0.79229	  1.94357	  0.58935	  0.00251	  3.10552	712.84003	 23.90	
  8.495	 44.961	  3.03315	  1.82232	  0.68626	  1.82761	  0.68673	  0.01076	  3.10652	712.77002	 23.80	
  8.494	 33.806	  3.03487	  1.93531	  0.59916	  1.69214	  0.80170	  0.01409	  3.10780	712.81000	 23.80	
  8.502	 22.507	  3.03115	  2.01717	  0.53713	  1.54033	  0.93336	  0.01068	  3.10482	712.81000	 23.80	
  8.491	 11.296	  3.02952	  2.06339	  0.50482	  1.37850	  1.08242	  0.00729	  3.10265	712.85999	 23.80	
  8.500	  0.000	  3.03193	  2.07745	  0.49725	  1.21338	  1.24503	  0.00437	  3.10415	712.90997	 23.80	
  8.491	-11.296	  3.02914	  2.05256	  0.51626	  1.05929	  1.40507	 -0.00014	  3.10311	712.85999	 23.80	
  8.502	-22.507	  3.03091	  1.99889	  0.56014	  0.91408	  1.56936	 -0.00866	  3.10450	712.82001	 23.80	
  8.494	-33.806	  3.03123	  1.90742	  0.63249	  0.78414	  1.72097	 -0.01782	  3.10522	712.83002	 23.80	
  8.495	-44.961	  3.02829	  1.79198	  0.71990	  0.67888	  1.84881	 -0.02266	  3.10452	712.79999	 23.80	
  8.487	-56.277	  3.03047	  1.65389	  0.83528	  0.59373	  1.95815	 -0.02682	  3.10707	712.79999	 23.80	
  8.492	-67.425	  3.03262	  1.50295	  0.96781	  0.53212	  2.04263	 -0.03349	  3.10762	712.82001	 23.80	
  8.510	-78.780	  3.02904	  1.33749	  1.11397	  0.49209	  2.09073	 -0.03880	  3.10732	712.89001	 23.80	
  8.500	-90.000	  3.03254	  1.17850	  1.27563	  0.48471	  2.10672	 -0.03891	  3.10837	712.84003	 23.80	
  8.510	-101.220	  3.03014	  1.02123	  1.43311	  0.49677	  2.08432	 -0.04116	  3.10916	712.88000	 23.80	
  8.492	-112.575	  3.03083	  0.87366	  1.59620	  0.54229	  2.02474	 -0.04006	  3.10921	712.87000	 23.80	
  8.487	-123.723	  3.03032	  0.74852	  1.74117	  0.60821	  1.93414	 -0.04140	  3.10981	712.82001	 23.80	
  8.495	-135.039	  3.03007	  0.64163	  1.87291	  0.69976	  1.81917	 -0.03785	  3.10711	712.88000	 23.80	
  8.494	-146.194	  3.02678	  0.55006	  1.98042	  0.80400	  1.68200	 -0.03756	  3.10565	712.78998	 23.80	
  8.502	-157.493	  3.02772	  0.48749	  2.06139	  0.93780	  1.52720	 -0.03793	  3.10592	712.92999	 23.80	
  8.491	-168.704	  3.02815	  0.45258	  2.10872	  1.08534	  1.36754	 -0.03519	  3.10636	712.84003	 23.80	
  8.500	180.000	  3.02639	  0.43690	  2.12126	  1.23862	  1.20470	 -0.03219	  3.10650	712.90997	 23.80	
 10.200	180.000	  2.97623	  0.25412	  2.25787	  1.19769	  1.15600	 -0.05917	  3.10640	712.90997	 23.80	
 10.191	-170.497	  2.97604	  0.26126	  2.24941	  1.03974	  1.31749	 -0.06442	  3.10758	712.82001	 23.80	
 10.210	-161.034	  2.97624	  0.28985	  2.20999	  0.88681	  1.48400	 -0.06434	  3.10592	712.89001	 23.80	
 10.194	-151.526	  2.97800	  0.34505	  2.14046	  0.74896	  1.64801	 -0.06236	  3.10757	712.85999	 23.80	
 10.190	-142.105	  2.97460	  0.41511	  2.04676	  0.62834	  1.79310	 -0.06477	  3.10539	712.91998	 23.80	
 10.215	-132.646	  2.97370	  0.50720	  1.92647	  0.52042	  1.92987	 -0.06862	  3.10531	712.85999	 23.80	
 10.203	-123.092	  2.97528	  0.62209	  1.78788	  0.43506	  2.04785	 -0.06947	  3.10565	712.94000	 23.80	
 10.192	-113.678	  2.97552	  0.75004	  1.63601	  0.37148	  2.13678	 -0.06800	  3.10611	712.89001	 23.80	
 10.208	-104.249	  2.97856	  0.89188	  1.47960	  0.32389	  2.20744	 -0.06562	  3.10836	712.94000	 23.80	
 10.210	-94.801	  2.97572	  1.04585	  1.31232	  0.29780	  2.23954	 -0.06600	  3.10661	712.89001	 23.80	
 10.210	-85.199	  2.97741	  1.21088	  1.14918	  0.29676	  2.24521	 -0.06575	  3.10751	712.78998	 23.80	
 10.208	-75.751	  2.97939	  1.37540	  0.99376	  0.31515	  2.22059	 -0.06504	  3.10782	712.90002	 23.80	
 10.192	-66.322	  2.97841	  1.54051	  0.84614	  0.35530	  2.16392	 -0.06043	  3.10695	712.84998	 23.80	
 10.203	-56.908	  2.98022	  1.69613	  0.71501	  0.41677	  2.08052	 -0.05658	  3.10820	712.78998	 23.80	
 10.215	-47.354	  2.98036	  1.84122	  0.59804	  0.50060	  1.97134	 -0.05351	  3.10767	712.75000	 23.80	
 10.190	-37.895	  2.98070	  1.96768	  0.50233	  0.60477	  1.83915	 -0.04889	  3.10684	712.85999	 23.80	
 10.194	-28.474	  2.97984	  2.07237	  0.42380	  0.72058	  1.69678	 -0.04464	  3.10725	712.81000	 23.70	
 10.210	-18.966	  2.97983	  2.15221	  0.36360	  0.85848	  1.53668	 -0.03630	  3.10708	712.84003	 23.70	
 10.191	 -9.503	  2.98279	  2.20072	  0.32871	  1.00999	  1.37155	 -0.02737	  3.10777	712.88000	 23.70	
 10.200	  0.000	  2.98244	  2.22273	  0.31290	  1.16656	  1.20724	 -0.02245	  3.10839	712.90997	 23.70	
 10.191	  9.503	  2.98387	  2.21296	  0.31835	  1.33352	  1.04339	 -0.01961	  3.10697	712.91998	 23.80	
 10.210	 18.966	  2.98082	  2.17132	  0.34146	  1.49791	  0.88806	 -0.01601	  3.10622	712.88000	 23.70	
 10.194	 28.474	  2.98266	  2.10059	  0.39264	  1.65533	  0.75122	 -0.01123	  3.10585	713.01001	 23.80	
 10.190	 37.895	  2.98341	  2.00247	  0.46433	  1.80548	  0.62447	 -0.01042	  3.10810	712.92999	 23.70	
 10.215	 47.354	  2.98266	  1.87930	  0.55814	  1.94312	  0.51100	 -0.01759	  3.10693	712.88000	 23.70	
 10.203	 56.908	  2.98238	  1.73822	  0.66703	  2.05931	  0.41858	 -0.02168	  3.10718	712.91998	 23.70	
 10.192	 66.322	  2.98448	  1.58438	  0.79592	  2.14816	  0.35256	 -0.02360	  3.10856	712.78998	 23.70	
 10.208	 75.751	  2.98576	  1.42110	  0.93995	  2.21069	  0.30775	 -0.02592	  3.10795	712.82001	 23.70	
 10.210	 85.199	  2.98732	  1.25637	  1.09717	  2.24562	  0.28624	 -0.02640	  3.10968	712.90002	 23.70	
 10.210	 94.801	  2.98327	  1.08714	  1.25852	  2.24706	  0.28083	 -0.03284	  3.10841	712.82001	 23.70	
 10.208	104.249	  2.98084	  0.92694	  1.42326	  2.21859	  0.30024	 -0.03777	  3.10582	712.91998	 23.70	
 10.192	113.678	  2.97876	  0.78063	  1.58341	  2.15940	  0.34192	 -0.04136	  3.10428	712.94000	 23.70	
 10.203	123.092	  2.97847	  0.64894	  1.73716	  2.07921	  0.40122	 -0.03961	  3.10632	712.85999	 23.70	
 10.215	132.646	  2.97723	  0.53005	  1.88144	  1.96929	  0.48262	 -0.04480	  3.10687	712.90002	 23.70	
 10.190	142.105	  2.97688	  0.43500	  2.00702	  1.83647	  0.58954	 -0.04898	  3.10731	712.89001	 23.70	
 10.194	151.526	  2.97591	  0.35785	  2.11124	  1.68910	  0.70921	 -0.04810	  3.10693	712.90002	 23.70	
 10.210	161.034	  2.97317	  0.29825	  2.18852	  1.53009	  0.84221	 -0.05325	  3.10549	712.94000	 23.70	
 10.191	170.497	  2.97459	  0.26486	  2.23691	  1.36400	  0.99404	 -0.05529	  3.10587	712.87000	 23.70	
 11.899	171.783	  2.91203	  0.08070	  2.37032	  1.31561	  0.93812	 -0.08451	  3.10689	712.76001	 23.70	
 11.890	163.610	  2.91627	  0.11133	  2.32575	  1.48515	  0.78811	 -0.08101	  3.10909	712.88000	 23.70	
 11.889	155.445	  2.91558	  0.16122	  2.25681	  1.64634	  0.65131	 -0.07913	  3.10869	712.89001	 23.70	
 11.909	147.299	  2.91338	  0.22306	  2.16362	  1.80326	  0.51905	 -0.07989	  3.10764	712.95001	 23.70	
 11.902	139.148	  2.91229	  0.30482	  2.04817	  1.94564	  0.40340	 -0.07793	  3.10599	712.98999	 23.70	
 11.894	130.867	  2.91352	  0.40706	  1.91402	  2.07250	  0.30942	 -0.07501	  3.10511	712.98999	 23.70	
 11.897	122.732	  2.91597	  0.52489	  1.76954	  2.18153	  0.23373	 -0.06996	  3.10521	712.84003	 23.70	
 11.903	114.597	  2.91881	  0.65621	  1.61457	  2.26927	  0.17227	 -0.07081	  3.10627	712.78998	 23.70	
 11.893	106.346	  2.91719	  0.80046	  1.45024	  2.33104	  0.12641	 -0.06894	  3.10576	712.89001	 23.70	
 11.892	 98.155	  2.91954	  0.95926	  1.28191	  2.36762	  0.10325	 -0.06605	  3.10581	712.90997	 23.70	
 11.900	 90.000	  2.91928	  1.12052	  1.11755	  2.37800	  0.09489	 -0.06141	  3.10391	712.91998	 23.70	
 11.892	 81.845	  2.92070	  1.28735	  0.95945	  2.36090	  0.10807	 -0.05816	  3.10450	712.94000	 23.70	
 11.893	 73.654	  2.91888	  1.45604	  0.80710	  2.31504	  0.14006	 -0.05596	  3.10211	712.90002	 23.70	
 11.903	 65.403	  2.92108	  1.62362	  0.66532	  2.24915	  0.18825	 -0.05411	  3.10408	712.95001	 23.70	
 11.897	 57.268	  2.92312	  1.77694	  0.54323	  2.15782	  0.25877	 -0.05115	  3.10600	712.87000	 23.70	
 11.894	 49.133	  2.92150	  1.92232	  0.43078	  2.04581	  0.34126	 -0.04694	  3.10377	712.96997	 23.70	
 11.902	 40.852	  2.91972	  2.05362	  0.33108	  1.91302	  0.44328	 -0.04186	  3.10540	712.89001	 23.70	
 11.909	 32.701	  2.91951	  2.16118	  0.25644	  1.76420	  0.56458	 -0.03753	  3.10435	712.95001	 23.70	
 11.889	 24.555	  2.91914	  2.24579	  0.19769	  1.60728	  0.69661	 -0.04225	  3.10379	712.98999	 23.70	
 11.890	 16.390	  2.91995	  2.30751	  0.15906	  1.44818	  0.83987	 -0.04429	  3.10463	713.00000	 23.70	
 11.899	  8.217	  2.91990	  2.34565	  0.13577	  1.28134	  0.99643	 -0.04567	  3.10566	713.08002	 23.70	
 11.900	  0.000	  2.92043	  2.35525	  0.13468	  1.11579	  1.16204	 -0.04941	  3.10621	712.96997	 23.70	
 11.899	 -8.217	  2.91662	  2.33280	  0.14680	  0.95596	  1.32468	 -0.05423	  3.10315	712.89001	 23.70	
 11.890	-16.390	  2.91855	  2.28942	  0.17813	  0.80505	  1.49250	 -0.06110	  3.10557	712.87000	 23.70	
 11.889	-24.555	  2.91839	  2.21974	  0.22593	  0.66064	  1.65725	 -0.06975	  3.10678	712.90997	 23.70	
 11.909	-32.701	  2.91226	  2.12650	  0.29032	  0.53480	  1.80580	 -0.07727	  3.10124	712.96002	 23.70	
 11.902	-40.852	  2.91320	  2.01190	  0.37277	  0.42248	  1.94806	 -0.07908	  3.10451	712.94000	 23.70	
 11.894	-49.133	  2.91474	  1.87688	  0.47616	  0.32455	  2.08114	 -0.07961	  3.10694	712.90002	 23.70	
 11.897	-57.268	  2.91431	  1.72765	  0.59204	  0.24510	  2.18877	 -0.08111	  3.10561	712.87000	 23.70	
 11.903	-65.403	  2.91495	  1.57359	  0.72262	  0.18669	  2.27229	 -0.08320	  3.10678	712.85999	 23.70	
 11.893	-73.654	  2.91729	  1.40721	  0.87000	  0.14682	  2.33310	 -0.08617	  3.10811	712.77002	 23.70	
 11.892	-81.845	  2.91416	  1.23918	  1.02531	  0.12381	  2.36776	 -0.08810	  3.10619	712.89001	 23.70	
 11.900	-90.000	  2.91254	  1.07321	  1.18268	  0.11728	  2.37343	 -0.08648	  3.10506	712.90002	 23.60	
 11.892	-98.155	  2.91335	  0.91354	  1.34690	  0.12748	  2.35783	 -0.08398	  3.10573	712.90997	 23.60	
 11.893	-106.346	  2.91511	  0.76233	  1.51431	  0.15770	  2.31488	 -0.08444	  3.10902	712.84003	 23.60	
 11.903	-114.597	  2.91034	  0.61907	  1.67409	  0.20298	  2.24221	 -0.08864	  3.10517	712.90002	 23.70	
 11.897	-122.732	  2.90871	  0.49159	  1.82699	  0.26553	  2.15033	 -0.09049	  3.10477	712.88000	 23.60	
 11.894	-130.867	  2.90915	  0.38109	  1.96829	  0.34808	  2.03414	 -0.08891	  3.10347	712.83002	 23.60	
 11.902	-139.148	  2.91081	  0.28041	  2.09878	  0.44839	  1.89800	 -0.08731	  3.10535	712.92999	 23.60	
 11.909	-147.299	  2.90993	  0.20188	  2.20379	  0.56352	  1.74871	 -0.08545	  3.10316	712.84003	 23.60	
 11.889	-155.445	  2.91051	  0.14755	  2.28193	  0.69055	  1.59719	 -0.08694	  3.10408	712.90997	 23.60	
 11.890	-163.610	  2.91116	  0.10286	  2.34240	  0.83490	  1.43022	 -0.09003	  3.10396	712.89001	 23.60	
 11.899	-171.783	  2.91081	  0.07629	  2.37926	  0.98827	  1.26326	 -0.08788	  3.10462	712.90002	 23.60	
 11.900	180.000	  2.90657	  0.06662	  2.38618	  1.14721	  1.09597	 -0.08675	  3.10069	712.95001	 23.60	
 13.600	180.000	  2.83758	 -0.11233	  2.50729	  1.09243	  1.03535	 -0.10881	  3.10598	712.83002	 23.60	
 13.608	-172.853	  2.83337	 -0.11006	  2.50069	  0.93277	  1.19448	 -0.11378	  3.10196	712.78998	 23.60	
 13.611	-165.583	  2.83335	 -0.08715	  2.46909	  0.77614	  1.36435	 -0.11221	  3.10110	712.82001	 23.60	
 13.601	-158.353	  2.83526	 -0.05065	  2.41843	  0.63082	  1.53264	 -0.10894	  3.10290	712.84003	 23.60	
 13.609	-151.210	  2.83417	  0.00253	  2.34244	  0.49944	  1.69173	 -0.10740	  3.10131	712.82001	 23.60	
 13.611	-143.999	  2.83361	  0.06677	  2.24671	  0.37605	  1.84772	 -0.10464	  3.10262	712.78998	 23.60	
 13.601	-136.825	  2.83524	  0.15179	  2.13167	  0.26901	  1.99566	 -0.10505	  3.10326	712.81000	 23.60	
 13.596	-129.640	  2.83357	  0.24666	  1.99968	  0.17579	  2.12420	 -0.10261	  3.10291	712.76001	 23.60	
 13.611	-122.431	  2.83415	  0.35886	  1.85430	  0.09958	  2.23846	 -0.10287	  3.10399	712.84998	 23.60	
 13.604	-115.211	  2.83458	  0.48571	  1.69770	  0.03631	  2.33466	 -0.10272	  3.10397	712.88000	 23.60	
 13.595	-108.042	  2.83807	  0.62468	  1.54212	 -0.00870	  2.41299	 -0.09720	  3.10507	712.76001	 23.60	
 13.607	-100.793	  2.83387	  0.76986	  1.37337	 -0.04427	  2.46213	 -0.10004	  3.10150	712.84998	 23.60	
 13.601	-93.617	  2.83442	  0.92661	  1.20518	 -0.06332	  2.48997	 -0.09925	  3.10266	712.65002	 23.60	
 13.601	-86.383	  2.83541	  1.09110	  1.04385	 -0.06614	  2.49637	 -0.10259	  3.10342	712.65997	 23.60	
 13.607	-79.207	  2.83541	  1.25897	  0.88490	 -0.05398	  2.47841	 -0.10130	  3.10448	712.78998	 23.60	
 13.595	-71.958	  2.83957	  1.42997	  0.73599	 -0.02398	  2.43752	 -0.10191	  3.10690	712.78003	 23.60	
 13.604	-64.789	  2.83986	  1.59508	  0.59737	  0.01847	  2.37355	 -0.10043	  3.10538	712.78998	 23.60	
 13.611	-57.569	  2.84317	  1.75695	  0.46740	  0.07847	  2.28737	 -0.10185	  3.10752	712.78003	 23.60	
 13.596	-50.360	  2.84202	  1.90676	  0.35046	  0.15468	  2.17715	 -0.10002	  3.10677	712.70001	 23.60	
 13.601	-43.175	  2.84185	  2.04686	  0.24600	  0.24276	  2.05278	 -0.09905	  3.10607	712.78998	 23.60	
 13.611	-36.001	  2.84193	  2.16608	  0.16166	  0.34607	  1.91647	 -0.10142	  3.10607	712.78998	 23.60	
 13.609	-28.790	  2.84357	  2.27194	  0.09120	  0.46691	  1.76549	 -0.09866	  3.10656	712.77002	 23.60	
 13.601	-21.647	  2.84404	  2.35866	  0.03240	  0.59552	  1.60861	 -0.09417	  3.10777	712.76001	 23.60	
 13.611	-14.417	  2.84261	  2.42066	 -0.00914	  0.73941	  1.44017	 -0.08726	  3.10337	712.82001	 23.60	
 13.608	 -7.147	  2.84450	  2.46354	 -0.03628	  0.89635	  1.26933	 -0.08279	  3.10584	712.78998	 23.60	
 13.600	  0.000	  2.84422	  2.47942	 -0.04816	  1.05354	  1.10485	 -0.07981	  3.10464	712.84998	 23.60	
 13.608	  7.147	  2.84644	  2.47239	 -0.04475	  1.21765	  0.94362	 -0.07894	  3.10653	712.78003	 23.60	
 13.611	 14.417	  2.84160	  2.43726	 -0.02781	  1.38653	  0.78205	 -0.07694	  3.10186	712.77002	 23.60	
 13.601	 21.647	  2.84526	  2.38350	  0.00927	  1.55074	  0.63920	 -0.07155	  3.10333	712.72998	 23.60	
 13.609	 28.790	  2.84681	  2.30750	  0.05520	  1.71278	  0.50204	 -0.07124	  3.10476	712.64001	 23.60	
 13.611	 36.001	  2.84380	  2.20512	  0.12044	  1.86419	  0.37682	 -0.07288	  3.10103	712.71002	 23.60	
 13.601	 43.175	  2.85045	  2.09129	  0.20502	  2.00944	  0.26989	 -0.07492	  3.10587	712.63000	 23.60	
 13.596	 50.360	  2.84745	  1.95639	  0.30008	  2.13444	  0.17232	 -0.08299	  3.10308	712.70001	 23.60	
 13.611	 57.569	  2.84760	  1.81069	  0.40695	  2.24959	  0.08867	 -0.08862	  3.10443	712.72998	 23.60	
 13.604	 64.789	  2.84827	  1.65081	  0.53336	  2.34418	  0.02160	 -0.09094	  3.10449	712.71997	 23.60	
 13.595	 71.958	  2.84942	  1.48650	  0.67142	  2.41665	 -0.02698	 -0.09140	  3.10502	712.75000	 23.60	
 13.607	 79.207	  2.84978	  1.31786	  0.82158	  2.46827	 -0.06021	 -0.09265	  3.10618	712.82001	 23.60	
 13.601	 86.383	  2.84840	  1.14988	  0.97574	  2.49410	 -0.07703	 -0.09522	  3.10422	712.71997	 23.60	
 13.601	 93.617	  2.84839	  0.98507	  1.13923	  2.49783	 -0.07813	 -0.09646	  3.10535	712.75000	 23.60	
 13.607	100.793	  2.84402	  0.82342	  1.30319	  2.47669	 -0.06824	 -0.10051	  3.10417	712.82001	 23.60	
 13.595	108.042	  2.84473	  0.67235	  1.47253	  2.43302	 -0.03740	 -0.10054	  3.10530	712.82001	 23.60	
 13.604	115.211	  2.84042	  0.52911	  1.63465	  2.36611	  0.00424	 -0.10179	  3.10178	712.77002	 23.60	
 13.611	122.431	  2.83692	  0.39734	  1.79048	  2.27427	  0.06285	 -0.10377	  3.09997	712.75000	 23.60	
 13.596	129.640	  2.83710	  0.28123	  1.93987	  2.16754	  0.13705	 -0.10310	  3.10324	712.78998	 23.60	
 13.601	136.825	  2.83750	  0.18308	  2.07569	  2.04489	  0.22791	 -0.10519	  3.10447	712.72998	 23.60	
 13.611	143.999	  2.83385	  0.09386	  2.19609	  1.90503	  0.33034	 -0.10845	  3.10236	712.78003	 23.60	
 13.609	151.210	  2.83468	  0.02182	  2.30180	  1.75409	  0.44873	 -0.11082	  3.10441	712.71997	 23.60	
 13.601	158.353	  2.83770	 -0.03284	  2.38822	  1.59443	  0.58147	 -0.10831	  3.10651	712.75000	 23.60	
 13.611	165.583	  2.83603	 -0.07853	  2.45296	  1.42843	  0.72019	 -0.10857	  3.10714	712.79999	 23.60	
 13.608	172.853	  2.83422	 -0.10254	  2.49095	  1.25737	  0.87616	 -0.11045	  3.10637	712.70001	 23.60	
 15.298	173.587	  2.75105	 -0.27601	  2.59807	  1.19563	  0.80834	 -0.13321	  3.10519	712.78003	 23.60	
 15.291	167.167	  2.74818	 -0.25501	  2.56058	  1.36163	  0.65391	 -0.13147	  3.10189	712.78003	 23.60	
 15.307	160.676	  2.74858	 -0.22083	  2.50522	  1.52681	  0.51302	 -0.13587	  3.10265	712.89001	 23.60	
 15.300	154.261	  2.74898	 -0.16958	  2.42843	  1.69357	  0.37968	 -0.13736	  3.10255	712.78998	 23.60	
 15.288	147.854	  2.74973	 -0.10622	  2.33217	  1.84884	  0.26062	 -0.13854	  3.10125	712.81000	 23.60	
 15.293	141.428	  2.75166	 -0.02830	  2.22025	  1.99489	  0.15505	 -0.13845	  3.10297	712.73999	 23.60	
 15.299	134.985	  2.75662	  0.05998	  2.09579	  2.13675	  0.05547	 -0.13988	  3.10673	712.75000	 23.60	
 15.305	128.583	  2.75745	  0.16064	  1.95830	  2.26009	 -0.02811	 -0.13532	  3.10541	712.87000	 23.60	
 15.309	122.142	  2.75753	  0.27355	  1.80756	  2.36585	 -0.10088	 -0.13553	  3.10578	712.78998	 23.60	
 15.304	115.711	  2.75650	  0.40171	  1.64700	  2.45279	 -0.15829	 -0.13664	  3.10218	712.78003	 23.60	
 15.297	109.291	  2.76232	  0.54013	  1.48681	  2.52259	 -0.19873	 -0.13719	  3.10445	712.82001	 23.60	
 15.293	102.897	  2.76129	  0.68670	  1.32374	  2.56768	 -0.22574	 -0.13599	  3.10158	712.90997	 23.60	
 15.293	 96.458	  2.76613	  0.84499	  1.15685	  2.59974	 -0.24417	 -0.13580	  3.10376	712.83002	 23.60	
 15.300	 90.000	  2.76663	  1.00571	  0.99386	  2.60747	 -0.24960	 -0.13231	  3.10492	712.88000	 23.60	
 15.293	 83.542	  2.76430	  1.17072	  0.83420	  2.59134	 -0.24074	 -0.12979	  3.10101	712.85999	 23.60	
 15.293	 77.103	  2.76707	  1.34093	  0.67893	  2.55908	 -0.22117	 -0.12959	  3.10488	712.81000	 23.60	
 15.297	 70.709	  2.76850	  1.50921	  0.53946	  2.50551	 -0.18411	 -0.12896	  3.10524	712.78998	 23.60	
 15.304	 64.289	  2.76635	  1.67206	  0.40439	  2.43201	 -0.13645	 -0.12582	  3.10472	712.84003	 23.60	
 15.309	 57.858	  2.76506	  1.83005	  0.28177	  2.33620	 -0.07480	 -0.12355	  3.10370	712.82001	 23.60	
 15.305	 51.417	  2.76441	  1.98042	  0.17118	  2.22346	  0.00315	 -0.11874	  3.10333	712.82001	 23.60	
 15.299	 45.015	  2.76777	  2.12059	  0.07726	  2.09656	  0.09785	 -0.11304	  3.10536	712.84003	 23.60	
 15.293	 38.572	  2.76462	  2.24215	 -0.00718	  1.95466	  0.20176	 -0.10722	  3.10397	712.75000	 23.60	
 15.288	 32.146	  2.76426	  2.34876	 -0.07445	  1.80530	  0.31632	 -0.10570	  3.10323	712.79999	 23.50	
 15.300	 25.739	  2.76074	  2.43830	 -0.13337	  1.64507	  0.44241	 -0.10747	  3.10168	712.85999	 23.50	
 15.307	 19.324	  2.76217	  2.50607	 -0.17208	  1.48231	  0.58024	 -0.10787	  3.10220	712.84998	 23.50	
 15.291	 12.833	  2.76215	  2.55447	 -0.20038	  1.31827	  0.72814	 -0.10826	  3.10410	712.84003	 23.50	
 15.298	  6.413	  2.76208	  2.58249	 -0.21301	  1.15192	  0.88592	 -0.10772	  3.10319	712.71002	 23.50	
 15.300	  0.000	  2.75946	  2.58769	 -0.21794	  0.98581	  1.04714	 -0.10916	  3.10373	712.70001	 23.50	
 15.298	 -6.413	  2.75805	  2.57085	 -0.20750	  0.82958	  1.20956	 -0.11041	  3.10298	712.78998	 23.50	
 15.291	-12.833	  2.75917	  2.53740	 -0.18599	  0.67747	  1.37725	 -0.11239	  3.10617	712.76001	 23.50	
 15.307	-19.324	  2.75534	  2.47884	 -0.15098	  0.52966	  1.54486	 -0.11511	  3.10366	712.82001	 23.50	
 15.300	-25.739	  2.75778	  2.40281	 -0.10045	  0.39918	  1.70620	 -0.11757	  3.10401	712.79999	 23.50	
 15.288	-32.146	  2.75451	  2.30342	 -0.03758	  0.27589	  1.86257	 -0.11818	  3.10275	712.81000	 23.50	
 15.293	-38.572	  2.75473	  2.19113	  0.03747	  0.16408	  2.01266	 -0.11693	  3.10358	712.82001	 23.50	
 15.299	-45.015	  2.75297	  2.06247	  0.12394	  0.06751	  2.14541	 -0.11615	  3.10331	712.73999	 23.50	
 15.305	-51.417	  2.75341	  1.92373	  0.22457	 -0.01457	  2.26481	 -0.11443	  3.10324	712.84998	 23.50	
 15.309	-57.858	  2.75187	  1.76921	  0.34093	 -0.08597	  2.37159	 -0.11167	  3.10315	712.67999	 23.50	
 15.304	-64.289	  2.75318	  1.60942	  0.46468	 -0.14398	  2.45844	 -0.11061	  3.10388	712.89001	 23.50	
 15.297	-70.709	  2.75182	  1.44221	  0.60302	 -0.18807	  2.53084	 -0.10953	  3.10351	712.78003	 23.50	
 15.293	-77.103	  2.74944	  1.27571	  0.74564	 -0.21843	  2.57613	 -0.10870	  3.10257	712.81000	 23.50	
 15.293	-83.542	  2.75089	  1.10818	  0.90132	 -0.23375	  2.60291	 -0.11109	  3.10381	712.73999	 23.50	
 15.300	-90.000	  2.75023	  0.94311	  1.06151	 -0.23832	  2.60948	 -0.10843	  3.10490	712.82001	 23.50	
 15.293	-96.458	  2.75043	  0.78453	  1.22521	 -0.22888	  2.59432	 -0.10403	  3.10360	712.87000	 23.50	
 15.293	-102.897	  2.74887	  0.62956	  1.38940	 -0.20963	  2.55689	 -0.10393	  3.10278	712.81000	 23.50	
 15.297	-109.291	  2.74916	  0.48596	  1.55362	 -0.17591	  2.50014	 -0.10416	  3.10438	712.81000	 23.50	
 15.304	-115.711	  2.75350	  0.35458	  1.71758	 -0.12692	  2.42666	 -0.10740	  3.10864	712.76001	 23.50	
 15.309	-122.142	  2.75060	  0.23341	  1.87416	 -0.06477	  2.32926	 -0.10750	  3.10519	712.77002	 23.50	
 15.305	-128.583	  2.75027	  0.12095	  2.02123	  0.00965	  2.21241	 -0.11089	  3.10347	712.77002	 23.50	
 15.299	-134.985	  2.75190	  0.02388	  2.15470	  0.09555	  2.08339	 -0.11192	  3.10363	712.78003	 23.50	
 15.293	-141.428	  2.74890	 -0.05922	  2.27392	  0.19391	  1.94214	 -0.11518	  3.10109	712.73999	 23.50	
 15.288	-147.854	  2.74963	 -0.13121	  2.38107	  0.30820	  1.78843	 -0.11452	  3.10058	712.77002	 23.50	
 15.300	-154.261	  2.74966	 -0.19019	  2.47057	  0.43021	  1.63020	 -0.11764	  3.10346	712.76001	 23.50	
 15.307	-160.676	  2.74840	 -0.23293	  2.53574	  0.56335	  1.46660	 -0.12247	  3.09995	712.82001	 23.50	
 15.291	-167.167	  2.74848	 -0.26260	  2.58223	  0.71308	  1.29653	 -0.12730	  3.10135	712.73999	 23.50	
 15.298	-173.587	  2.74828	 -0.28109	  2.60787	  0.86673	  1.12828	 -0.13053	  3.10015	712.72998	 23.50	
 15.300	180.000	  2.74671	 -0.28407	  2.61083	  1.02639	  0.96677	 -0.12941	  3.09976	712.72998	 23.50	
 17.000	180.000	  2.65582	 -0.44881	  2.71067	  0.96068	  0.89729	 -0.14604	  3.10221	712.78003	 23.50	
 16.990	-174.179	  2.65680	 -0.44417	  2.70754	  0.80709	  1.05463	 -0.14451	  3.10238	712.76001	 23.50	
 17.009	-168.383	  2.65584	 -0.43257	  2.68494	  0.65070	  1.21958	 -0.13748	  3.10212	712.72998	 23.50	
 17.000	-162.596	  2.65533	 -0.40587	  2.64241	  0.50364	  1.38678	 -0.13433	  3.10105	712.71002	 23.50	
 16.990	-156.759	  2.65736	 -0.36382	  2.58210	  0.37201	  1.55299	 -0.13110	  3.10156	712.73999	 23.50	
 16.995	-150.919	  2.65570	 -0.31520	  2.50063	  0.24460	  1.71436	 -0.12540	  3.10009	712.65002	 23.50	
 16.988	-145.161	  2.65553	 -0.25617	  2.40621	  0.12745	  1.87269	 -0.12305	  3.10108	712.71997	 23.50	
 17.014	-139.343	  2.65475	 -0.18415	  2.29313	  0.02454	  2.01837	 -0.11871	  3.10168	712.81000	 23.50	
 17.007	-133.546	  2.65470	 -0.09872	  2.16704	 -0.06804	  2.15649	 -0.11727	  3.10150	712.73999	 23.50	
 17.001	-127.699	  2.65285	 -0.00124	  2.02665	 -0.14964	  2.28516	 -0.11635	  3.09912	712.67999	 23.50	
 17.006	-121.937	  2.65455	  0.10521	  1.88266	 -0.22030	  2.39979	 -0.11732	  3.10431	712.70001	 23.50	
 17.002	-116.134	  2.65367	  0.22284	  1.72496	 -0.27842	  2.49657	 -0.10806	  3.10312	712.69000	 23.50	
 17.001	-110.310	  2.65603	  0.35325	  1.56404	 -0.32489	  2.57642	 -0.10808	  3.10390	712.70001	 23.50	
 16.988	-104.517	  2.65682	  0.49211	  1.40358	 -0.35861	  2.63561	 -0.11025	  3.10377	712.71997	 23.50	
 17.008	-98.662	  2.65670	  0.64037	  1.23692	 -0.38543	  2.68078	 -0.10904	  3.10435	712.70001	 23.50	
 16.996	-92.909	  2.65594	  0.79532	  1.07537	 -0.39456	  2.70096	 -0.10789	  3.10204	712.77002	 23.50	
 16.996	-87.091	  2.65747	  0.95538	  0.91654	 -0.39813	  2.70856	 -0.11107	  3.10430	712.78998	 23.50	
 17.012	-81.253	  2.65817	  1.12129	  0.75856	 -0.39089	  2.69304	 -0.11357	  3.10501	712.76001	 23.50	
 16.988	-75.483	  2.65594	  1.28618	  0.61086	 -0.37265	  2.66105	 -0.11158	  3.10179	712.72998	 23.50	
 17.001	-69.690	  2.65602	  1.45095	  0.47262	 -0.33970	  2.60989	 -0.11571	  3.10145	712.71002	 23.50	
 17.002	-63.866	  2.65899	  1.61761	  0.34119	 -0.29829	  2.54304	 -0.11522	  3.10234	712.65002	 23.50	
 17.006	-58.063	  2.65562	  1.77942	  0.21338	 -0.24791	  2.45547	 -0.12283	  3.10296	712.64001	 23.50	
 17.001	-52.301	  2.65721	  1.92812	  0.10713	 -0.17657	  2.34650	 -0.12454	  3.10218	712.59003	 23.50	
 17.007	-46.454	  2.65837	  2.07464	  0.00416	 -0.09963	  2.22941	 -0.12693	  3.10392	712.60999	 23.50	
 17.014	-40.657	  2.65969	  2.20949	 -0.08431	 -0.00622	  2.09742	 -0.12680	  3.10356	712.63000	 23.50	
 16.988	-34.839	  2.66077	  2.32659	 -0.16072	  0.09344	  1.95488	 -0.13326	  3.10463	712.64001	 23.50	
 16.995	-29.081	  2.66212	  2.43150	 -0.22542	  0.20947	  1.80124	 -0.13267	  3.10499	712.60999	 23.50	
 16.990	-23.241	  2.65914	  2.51866	 -0.27983	  0.33544	  1.63653	 -0.13337	  3.09964	712.71997	 23.50	
 17.000	-17.404	  2.66357	  2.59147	 -0.32291	  0.46750	  1.47876	 -0.13309	  3.10414	712.71002	 23.50	
 17.009	-11.617	  2.66396	  2.64192	 -0.35310	  0.61021	  1.31301	 -0.13435	  3.10325	712.70001	 23.50	
 16.990	 -5.821	  2.66511	  2.67223	 -0.36770	  0.76712	  1.14531	 -0.13546	  3.10112	712.73999	 23.50	
 17.000	  0.000	  2.66619	  2.68784	 -0.37696	  0.92036	  0.98404	 -0.13502	  3.10249	712.67999	 23.50	
 16.990	  5.821	  2.66885	  2.68240	 -0.37421	  1.08381	  0.82379	 -0.13852	  3.10204	712.65002	 23.50	
 17.009	 11.617	  2.66922	  2.66144	 -0.36365	  1.24849	  0.66985	 -0.14060	  3.10351	712.66998	 23.50	
 17.000	 17.404	  2.66964	  2.61744	 -0.33804	  1.41125	  0.52596	 -0.13804	  3.10167	712.71997	 23.50	
 16.990	 23.241	  2.67095	  2.55619	 -0.30386	  1.57635	  0.38530	 -0.14228	  3.10345	712.66998	 23.50	
 16.995	 29.081	  2.67045	  2.47566	 -0.25663	  1.73720	  0.25759	 -0.14269	  3.10123	712.69000	 23.50	
 16.988	 34.839	  2.67041	  2.37511	 -0.19546	  1.88881	  0.14099	 -0.14326	  3.10152	712.59003	 23.50	
 17.014	 40.657	  2.66764	  2.26149	 -0.12952	  2.03529	  0.02880	 -0.15184	  3.09852	712.76001	 23.50	
 17.007	 46.454	  2.67034	  2.13359	 -0.04337	  2.17784	 -0.06990	 -0.15710	  3.10170	712.65997	 23.50	
 17.001	 52.301	  2.67098	  1.99342	  0.05214	  2.29922	 -0.15143	 -0.15804	  3.10138	712.78998	 23.50	
 17.006	 58.063	  2.67216	  1.84576	  0.15877	  2.40707	 -0.22260	 -0.16300	  3.10123	712.76001	 23.50	
 17.002	 63.866	  2.67143	  1.68854	  0.27311	  2.49964	 -0.28482	 -0.16758	  3.10032	712.65997	 23.50	
 17.001	 69.690	  2.67332	  1.52545	  0.40656	  2.57789	 -0.33132	 -0.16992	  3.10059	712.60999	 23.50	
 16.988	 75.483	  2.67208	  1.35866	  0.54466	  2.63601	 -0.36808	 -0.16749	  3.09915	712.81000	 23.50	
 17.012	 81.253	  2.66862	  1.18959	  0.68970	  2.67746	 -0.39820	 -0.17082	  3.09835	712.76001	 23.50	
 16.996	 87.091	  2.67183	  1.02701	  0.84586	  2.69909	 -0.40646	 -0.17091	  3.09964	712.71997	 23.50	
 16.996	 92.909	  2.67086	  0.86448	  1.00593	  2.70303	 -0.40905	 -0.17493	  3.10155	712.66998	 23.50	
 17.008	 98.662	  2.67074	  0.70735	  1.16858	  2.68902	 -0.40169	 -0.17746	  3.10258	712.75000	 23.50	
 16.988	104.517	  2.67183	  0.55542	  1.33472	  2.65523	 -0.38152	 -0.17359	  3.10439	712.65997	 23.50	
 17.001	110.310	  2.66973	  0.41355	  1.49751	  2.60271	 -0.35151	 -0.17325	  3.10537	712.69000	 23.50	
 17.002	116.134	  2.66517	  0.27707	  1.65953	  2.52760	 -0.30689	 -0.17242	  3.10183	712.72998	 23.50	
 17.006	121.937	  2.66203	  0.15504	  1.81639	  2.43830	 -0.25285	 -0.17110	  3.10090	712.70001	 23.50	
 17.001	127.699	  2.66198	  0.04320	  1.96424	  2.33748	 -0.19033	 -0.17177	  3.10344	712.73999	 23.50	
 17.007	133.546	  2.66007	 -0.05854	  2.10593	  2.21588	 -0.11114	 -0.17146	  3.10210	712.79999	 23.50	
 17.014	139.343	  2.65735	 -0.14821	  2.23668	  2.08084	 -0.02001	 -0.17204	  3.10138	712.75000	 23.50	
 16.988	145.161	  2.65894	 -0.22303	  2.35460	  1.93706	  0.08447	 -0.16804	  3.10346	712.71997	 23.50	
 16.995	150.919	  2.65472	 -0.29142	  2.45399	  1.78677	  0.18892	 -0.16766	  3.10115	712.65997	 23.50	
 16.990	156.759	  2.65246	 -0.34578	  2.53922	  1.62416	  0.31251	 -0.16280	  3.10039	712.66998	 23.50	
 17.000	162.596	  2.65257	 -0.38934	  2.60936	  1.45668	  0.44852	 -0.15792	  3.10067	712.66998	 23.50	
 17.009	168.383	  2.65289	 -0.41978	  2.66257	  1.29540	  0.58775	 -0.15309	  3.10049	712.78003	 23.50	
 16.990	174.179	  2.65395	 -0.43941	  2.69573	  1.12895	  0.73757	 -0.15083	  3.10181	712.71997	 23.50	
 18.709	174.675	  2.54862	 -0.60314	  2.78354	  1.05440	  0.65995	 -0.16264	  3.10137	712.65997	 23.50	
 18.703	169.441	  2.54795	 -0.58571	  2.75398	  1.21810	  0.51338	 -0.16734	  3.10075	712.60999	 23.50	
 18.691	164.085	  2.55032	 -0.55612	  2.70658	  1.38409	  0.37595	 -0.17634	  3.10144	712.65002	 23.50	
 18.706	158.818	  2.54797	 -0.51997	  2.64293	  1.54737	  0.24131	 -0.18197	  3.10098	712.70001	 23.50	
 18.695	153.537	  2.54970	 -0.47419	  2.56322	  1.71013	  0.11598	 -0.18789	  3.10265	712.71997	 23.50	
 18.704	148.255	  2.55040	 -0.41789	  2.47118	  1.86291	  0.00337	 -0.19159	  3.10235	712.73999	 23.50	
 18.698	142.952	  2.55177	 -0.34962	  2.36342	  2.01446	 -0.10078	 -0.19545	  3.10384	712.78003	 23.50	
 18.699	137.625	  2.55388	 -0.27128	  2.24231	  2.15641	 -0.19769	 -0.20172	  3.10314	712.59003	 23.50	
 18.705	132.343	  2.55474	 -0.18290	  2.11004	  2.28638	 -0.28176	 -0.20561	  3.10407	712.64001	 23.50	
 18.713	127.067	  2.55694	 -0.08185	  1.96481	  2.40073	 -0.35277	 -0.20367	  3.10061	712.60999	 23.50	
 18.700	121.794	  2.56034	  0.02437	  1.81887	  2.50690	 -0.41718	 -0.20425	  3.10446	712.63000	 23.50	
 18.698	116.504	  2.56080	  0.14680	  1.66082	  2.59452	 -0.46748	 -0.20623	  3.10163	712.78003	 23.50	
 18.707	111.165	  2.56316	  0.27669	  1.49726	  2.66882	 -0.51108	 -0.20722	  3.10191	712.65997	 23.50	
 18.690	105.863	  2.56534	  0.41529	  1.33338	  2.72384	 -0.54187	 -0.20992	  3.10073	712.73999	 23.50	
 18.696	100.583	  2.56623	  0.56015	  1.17093	  2.76423	 -0.56368	 -0.20789	  3.09954	712.67999	 23.50	
 18.700	 95.309	  2.56669	  0.71380	  1.00573	  2.78638	 -0.57646	 -0.21189	  3.09905	712.77002	 23.50	
 18.700	 90.000	  2.56810	  0.87175	  0.84822	  2.79199	 -0.57923	 -0.21396	  3.10065	712.71002	 23.50	
 18.700	 84.691	  2.57085	  1.03628	  0.69254	  2.78103	 -0.57000	 -0.21260	  3.10077	712.59998	 23.50	
 18.696	 79.417	  2.57253	  1.20215	  0.54353	  2.75299	 -0.55226	 -0.20938	  3.10137	712.54999	 23.50	
 18.690	 74.137	  2.57250	  1.36575	  0.40171	  2.70682	 -0.52516	 -0.20925	  3.09932	712.65997	 23.50	
 18.707	 68.835	  2.57042	  1.52727	  0.26708	  2.64661	 -0.49140	 -0.20785	  3.10171	712.64001	 23.50	
 18.698	 63.496	  2.57190	  1.69324	  0.14174	  2.56563	 -0.44117	 -0.20568	  3.10163	712.63000	 23.50	
 18.700	 58.206	  2.57092	  1.85128	  0.02677	  2.47063	 -0.38216	 -0.20185	  3.10049	712.64001	 23.50	
 18.713	 52.933	  2.57220	  2.00293	 -0.07745	  2.36463	 -0.31332	 -0.19770	  3.10369	712.71002	 23.50	
 18.705	 47.657	  2.56903	  2.14269	 -0.17336	  2.24265	 -0.23738	 -0.19473	  3.10222	712.70001	 23.50	
 18.699	 42.375	  2.56618	  2.27278	 -0.25627	  2.10716	 -0.14568	 -0.18819	  3.09988	712.67999	 23.50	
 18.698	 37.048	  2.56667	  2.39111	 -0.32642	  1.96513	 -0.04474	 -0.18379	  3.09973	712.65002	 23.50	
 18.704	 31.745	  2.56705	  2.49859	 -0.39089	  1.81072	  0.06718	 -0.17981	  3.10125	712.66998	 23.50	
 18.695	 26.463	  2.56641	  2.58558	 -0.43888	  1.65832	  0.18501	 -0.17670	  3.10105	712.78003	 23.50	
 18.706	 21.182	  2.56540	  2.66023	 -0.48049	  1.49438	  0.31571	 -0.17210	  3.10099	712.69000	 23.50	
 18.691	 15.915	  2.56611	  2.71576	 -0.50952	  1.33184	  0.45414	 -0.17072	  3.10105	712.69000	 23.50	
 18.703	 10.559	  2.56040	  2.75539	 -0.53437	  1.16493	  0.59938	 -0.16860	  3.09966	712.66998	 23.50	
 18.709	  5.325	  2.56081	  2.77985	 -0.54755	  1.00504	  0.74919	 -0.16410	  3.10289	712.71002	 23.50	
 18.700	  0.000	  2.56201	  2.77967	 -0.54169	  0.84416	  0.91140	 -0.15826	  3.10185	712.60999	 23.50	
 18.709	 -5.325	  2.55984	  2.76748	 -0.53718	  0.69151	  1.06891	 -0.15645	  3.10165	712.72998	 23.50	
 18.703	-10.559	  2.55898	  2.73559	 -0.51889	  0.54170	  1.23630	 -0.15393	  3.10072	712.71002	 23.50	
 18.691	-15.915	  2.55668	  2.68781	 -0.49059	  0.39844	  1.40229	 -0.15000	  3.09978	712.60999	 23.50	
 18.706	-21.182	  2.55748	  2.62598	 -0.45425	  0.26708	  1.56403	 -0.14554	  3.10137	712.69000	 23.50	
 18.695	-26.463	  2.55676	  2.54297	 -0.40554	  0.14170	  1.72509	 -0.14276	  3.10132	712.77002	 23.50	
 18.704	-31.745	  2.55183	  2.44692	 -0.35134	  0.02289	  1.88053	 -0.14059	  3.09938	712.69000	 23.50	
 18.698	-37.048	  2.55132	  2.33485	 -0.28610	 -0.08157	  2.02642	 -0.13432	  3.09907	712.63000	 23.50	
 18.699	-42.375	  2.55023	  2.21037	 -0.20632	 -0.17632	  2.16775	 -0.13291	  3.09928	712.63000	 23.50	
 18.705	-47.657	  2.54965	  2.07406	 -0.11519	 -0.26372	  2.30082	 -0.13130	  3.09996	712.57001	 23.50	
 18.713	-52.933	  2.54973	  1.92965	 -0.01777	 -0.33700	  2.41771	 -0.12725	  3.10075	712.78003	 23.50	
 18.700	-58.206	  2.54920	  1.77816	  0.09284	 -0.39639	  2.51740	 -0.12433	  3.09869	712.64001	 23.50	
 18.698	-63.496	  2.55086	  1.61957	  0.20949	 -0.44699	  2.60486	 -0.12322	  3.10017	712.60999	 23.50	
 18.707	-68.835	  2.54914	  1.45276	  0.33705	 -0.49171	  2.67736	 -0.11759	  3.09938	712.70001	 23.50	
 18.690	-74.137	  2.55260	  1.29062	  0.47371	 -0.52274	  2.73593	 -0.11350	  3.10401	712.63000	 23.50	
 18.696	-79.417	  2.54875	  1.12312	  0.61649	 -0.54545	  2.77021	 -0.11317	  3.09989	712.65997	 23.50	
 18.700	-84.691	  2.54886	  0.96154	  0.76662	 -0.55528	  2.79196	 -0.11291	  3.10086	712.59998	 23.50	
 18.700	-90.000	  2.54749	  0.80052	  0.92041	 -0.55927	  2.79460	 -0.11000	  3.10141	712.65997	 23.50	
 18.700	-95.309	  2.54855	  0.64533	  1.07970	 -0.55178	  2.78237	 -0.11099	  3.10198	712.71997	 23.50	
 18.696	-100.583	  2.54556	  0.49439	  1.23900	 -0.53590	  2.74971	 -0.10962	  3.09922	712.72998	 23.50	
 18.690	-105.863	  2.55029	  0.35532	  1.40282	 -0.51094	  2.70533	 -0.11012	  3.10360	712.72998	 23.50	
 18.707	-111.165	  2.54958	  0.22365	  1.56297	 -0.47387	  2.64122	 -0.11027	  3.10358	712.71002	 23.50	
 18.698	-116.504	  2.54911	  0.09580	  1.72511	 -0.42704	  2.55893	 -0.11458	  3.10329	712.76001	 23.50	
 18.700	-121.794	  2.54960	 -0.01893	  1.87953	 -0.37314	  2.46229	 -0.11160	  3.10372	712.78003	 23.50	
 18.713	-127.067	  2.54737	 -0.12410	  2.02780	 -0.30892	  2.35358	 -0.11668	  3.10113	712.69000	 23.50	
 18.705	-132.343	  2.54762	 -0.22017	  2.16763	 -0.23388	  2.22796	 -0.11913	  3.10227	712.67999	 23.50	
 18.699	-137.625	  2.55065	 -0.30168	  2.29669	 -0.14446	  2.09308	 -0.12358	  3.10320	712.69000	 23.50	
 18.698	-142.952	  2.55669	 -0.37336	  2.41668	 -0.04518	  1.94769	 -0.12353	  3.10464	712.72998	 23.50	
 18.704	-148.255	  2.55208	 -0.43674	  2.51815	  0.05909	  1.79332	 -0.12430	  3.09994	712.63000	 23.50	
 18.695	-153.537	  2.55395	 -0.48813	  2.60792	  0.17898	  1.63572	 -0.13188	  3.10142	712.63000	 23.50	
 18.706	-158.818	  2.55330	 -0.53526	  2.68351	  0.30370	  1.47138	 -0.13631	  3.10211	712.72998	 23.50	
 18.691	-164.085	  2.55379	 -0.56461	  2.73892	  0.44028	  1.30747	 -0.14030	  3.10225	712.64001	 23.50	
 18.703	-169.441	  2.55112	 -0.58878	  2.77555	  0.58589	  1.13993	 -0.14729	  3.10111	712.64001	 23.50	
 18.709	-174.675	  2.55176	 -0.60241	  2.79682	  0.73789	  0.97829	 -0.15400	  3.10391	712.59003	 23.50	
 18.700	180.000	  2.55187	 -0.60785	  2.80051	  0.89087	  0.82005	 -0.15578	  3.10294	712.65002	 23.50	
 20.400	180.000	  2.43537	 -0.77983	  2.87644	  0.80661	  0.72950	 -0.15852	  3.10246	712.69000	 23.50	
 20.401	-175.153	  2.43833	 -0.77614	  2.87491	  0.65775	  0.88394	 -0.15517	  3.10273	712.54999	 23.50	
 20.407	-170.264	  2.43783	 -0.76439	  2.85558	  0.50510	  1.04896	 -0.14900	  3.10336	712.65002	 23.50	
 20.410	-165.423	  2.43719	 -0.74669	  2.82441	  0.35917	  1.21364	 -0.14120	  3.10339	712.63000	 23.50	
 20.392	-160.496	  2.44004	 -0.71250	  2.76942	  0.22678	  1.38001	 -0.13308	  3.10172	712.66998	 23.50	
 20.401	-155.705	  2.44060	 -0.67879	  2.70702	  0.09723	  1.54261	 -0.13274	  3.10475	712.60999	 23.50	
 20.405	-150.835	  2.43749	 -0.63296	  2.62221	 -0.02246	  1.70417	 -0.12727	  3.10267	712.69000	 23.50	
 20.397	-145.903	  2.43742	 -0.57325	  2.52201	 -0.13025	  1.86015	 -0.12159	  3.10016	712.62000	 23.50	
 20.392	-141.062	  2.44000	 -0.50922	  2.41578	 -0.22873	  2.01069	 -0.12751	  3.10485	712.64001	 23.50	
 20.396	-136.227	  2.43590	 -0.44276	  2.29490	 -0.32479	  2.15067	 -0.11952	  3.10427	712.78003	 23.50	
 20.408	-131.372	  2.43440	 -0.35619	  2.16217	 -0.40227	  2.28132	 -0.11782	  3.10141	712.71002	 23.50	
 20.410	-126.511	  2.43529	 -0.26044	  2.02085	 -0.47108	  2.40509	 -0.11631	  3.10367	712.64001	 23.50	
 20.400	-121.604	  2.43464	 -0.15362	  1.86625	 -0.53254	  2.51592	 -0.11360	  3.09939	712.66998	 23.50	
 20.403	-116.741	  2.42974	 -0.04398	  1.71061	 -0.58646	  2.60996	 -0.10946	  3.09882	712.65997	 23.50	
 20.413	-111.900	  2.43157	  0.07452	  1.55180	 -0.63689	  2.69807	 -0.10456	  3.10388	712.67999	 23.50	
 20.398	-107.004	  2.43456	  0.20934	  1.39010	 -0.66901	  2.76507	 -0.10780	  3.10343	712.72998	 23.50	
 20.394	-102.132	  2.43111	  0.34260	  1.22894	 -0.69697	  2.81469	 -0.10418	  3.10146	712.69000	 23.50	
 20.403	-97.332	  2.43482	  0.48713	  1.06925	 -0.71684	  2.85362	 -0.10451	  3.10500	712.70001	 23.50	
 20.392	-92.440	  2.43595	  0.64111	  0.90982	 -0.72401	  2.87223	 -0.10770	  3.10428	712.69000	 23.50	
 20.392	-87.560	  2.43269	  0.79523	  0.75631	 -0.72578	  2.87384	 -0.10900	  3.10015	712.65002	 23.50	
 20.403	-82.668	  2.43483	  0.95672	  0.60552	 -0.72289	  2.86987	 -0.11549	  3.10414	712.65002	 23.50	
 20.394	-77.868	  2.43405	  1.11649	  0.46076	 -0.70984	  2.84208	 -0.11395	  3.10328	712.65997	 23.50	
 20.398	-72.996	  2.42958	  1.27986	  0.32084	 -0.68611	  2.79604	 -0.11549	  3.09856	712.62000	 23.50	
 20.413	-68.100	  2.42829	  1.44466	  0.18841	 -0.65540	  2.73901	 -0.11425	  3.09883	712.59003	 23.50	
 20.403	-63.259	  2.43240	  1.60937	  0.06650	 -0.61167	  2.66632	 -0.12031	  3.10219	712.53003	 23.50	
 20.400	-58.396	  2.43186	  1.76751	 -0.04705	 -0.56292	  2.57831	 -0.12122	  3.10071	712.53998	 23.50	
 20.410	-53.489	  2.43205	  1.92267	 -0.15664	 -0.50520	  2.47567	 -0.12171	  3.10195	712.62000	 23.50	
 20.408	-48.628	  2.43419	  2.07149	 -0.25550	 -0.43983	  2.36418	 -0.12486	  3.10606	712.51001	 23.50	
 20.396	-43.773	  2.43310	  2.20669	 -0.34126	 -0.35578	  2.23380	 -0.13240	  3.10087	712.54999	 23.50	
 20.392	-38.938	  2.43703	  2.33603	 -0.41992	 -0.26560	  2.09746	 -0.13704	  3.10286	712.54999	 23.50	
 20.397	-34.097	  2.43883	  2.45339	 -0.48841	 -0.16756	  1.95349	 -0.13742	  3.10335	712.59998	 23.50	
 20.405	-29.165	  2.43502	  2.55809	 -0.55583	 -0.06562	  1.79762	 -0.14064	  3.10435	712.51001	 23.50	
 20.401	-24.295	  2.43711	  2.64665	 -0.60337	  0.05383	  1.63899	 -0.14682	  3.10189	712.60999	 23.50	
 20.392	-19.504	  2.43878	  2.71987	 -0.64331	  0.17804	  1.47857	 -0.15498	  3.10164	712.53003	 23.50	
 20.410	-14.577	  2.44053	  2.78059	 -0.67686	  0.31371	  1.31400	 -0.15713	  3.10376	712.65002	 23.50	
 20.407	 -9.736	  2.44179	  2.82413	 -0.70170	  0.45347	  1.15005	 -0.16047	  3.10373	712.65997	 23.50	
 20.401	 -4.847	  2.44460	  2.85401	 -0.71774	  0.60561	  0.98339	 -0.16598	  3.10544	712.59003	 23.50	
 20.400	  0.000	  2.44294	  2.86292	 -0.72437	  0.75175	  0.82665	 -0.17125	  3.10118	712.59998	 23.50	
 20.401	  4.847	  2.44406	  2.85836	 -0.72196	  0.91076	  0.66988	 -0.18119	  3.10105	712.56000	 23.50	
 20.407	  9.736	  2.44662	  2.84148	 -0.71465	  1.07515	  0.51645	 -0.18391	  3.10305	712.53998	 23.50	
 20.410	 14.577	  2.44639	  2.80609	 -0.69708	  1.23543	  0.37280	 -0.18910	  3.09994	712.65997	 23.50	
 20.392	 19.504	  2.44585	  2.75243	 -0.67147	  1.40253	  0.22742	 -0.19317	  3.10130	712.66998	 23.50	
 20.401	 24.295	  2.45003	  2.68875	 -0.63545	  1.56200	  0.10333	 -0.20254	  3.10252	712.59003	 23.50	
 20.405	 29.165	  2.45177	  2.60816	 -0.59154	  1.72113	 -0.01644	 -0.20526	  3.10300	712.59998	 23.50	
 20.397	 34.097	  2.45383	  2.50835	 -0.53350	  1.87931	 -0.13181	 -0.21105	  3.10273	712.66998	 23.50	
 20.392	 38.938	  2.45264	  2.39830	 -0.47163	  2.02743	 -0.23664	 -0.21560	  3.10276	712.65997	 23.50	
 20.396	 43.773	  2.45503	  2.27835	 -0.39855	  2.16632	 -0.32737	 -0.21734	  3.10209	712.62000	 23.50	
 20.408	 48.628	  2.45339	  2.14170	 -0.31889	  2.29613	 -0.41573	 -0.22341	  3.10126	712.58002	 23.50	
 20.410	 53.489	  2.45482	  1.99794	 -0.22614	  2.41883	 -0.49098	 -0.22796	  3.10277	712.58002	 23.50	
 20.400	 58.396	  2.45377	  1.84315	 -0.12040	  2.52504	 -0.55804	 -0.23113	  3.09841	712.62000	 23.50	
 20.403	 63.259	  2.45331	  1.68620	 -0.00905	  2.62044	 -0.61509	 -0.23394	  3.10036	712.45001	 23.50	
 20.413	 68.100	  2.45513	  1.52539	  0.11251	  2.70191	 -0.66188	 -0.23722	  3.10211	712.50000	 23.50	
 20.398	 72.996	  2.45907	  1.36085	  0.24903	  2.76682	 -0.69521	 -0.23439	  3.10188	712.50000	 23.50	
 20.394	 77.868	  2.45979	  1.19598	  0.38743	  2.81629	 -0.72184	 -0.23664	  3.10151	712.51001	 23.50	
 20.403	 82.668	  2.46022	  1.03351	  0.53091	  2.85204	 -0.74461	 -0.23738	  3.10414	712.58002	 23.40	
 20.392	 87.560	  2.45812	  0.86890	  0.68277	  2.86667	 -0.75227	 -0.23680	  3.10054	712.50000	 23.50	
 20.392	 92.440	  2.45873	  0.71282	  0.83912	  2.87136	 -0.75429	 -0.23845	  3.10203	712.56000	 23.50	
 20.403	 97.332	  2.45665	  0.55645	  1.00030	  2.85904	 -0.74779	 -0.23625	  3.10360	712.62000	 23.40	
 20.394	102.132	  2.45383	  0.40853	  1.16113	  2.83046	 -0.73457	 -0.23730	  3.10181	712.58002	 23.40	
 20.398	107.004	  2.45276	  0.26819	  1.32402	  2.78758	 -0.71142	 -0.23306	  3.10272	712.72998	 23.50	
 20.413	111.900	  2.44848	  0.12872	  1.48891	  2.73060	 -0.68222	 -0.23118	  3.10432	712.58002	 23.50	
 20.403	116.741	  2.44674	  0.00485	  1.64975	  2.65538	 -0.64085	 -0.22973	  3.10350	712.59003	 23.50	
 20.400	121.604	  2.44366	 -0.11021	  1.80624	  2.56569	 -0.59042	 -0.22937	  3.10355	712.56000	 23.40	
 20.410	126.511	  2.44142	 -0.21865	  1.95759	  2.46053	 -0.52958	 -0.22634	  3.10179	712.57001	 23.40	
 20.408	131.372	  2.43618	 -0.31873	  2.09952	  2.34104	 -0.46049	 -0.22455	  3.09882	712.42999	 23.40	
 20.396	136.227	  2.43981	 -0.40408	  2.23829	  2.21754	 -0.37935	 -0.22193	  3.10401	712.53003	 23.40	
 20.392	141.062	  2.43685	 -0.48339	  2.35975	  2.08097	 -0.29364	 -0.21535	  3.10235	712.60999	 23.50	
 20.397	145.903	  2.43406	 -0.54996	  2.47061	  1.93613	 -0.19759	 -0.20739	  3.10189	712.54999	 23.40	
 20.405	150.835	  2.43425	 -0.61185	  2.57731	  1.77840	 -0.08641	 -0.20258	  3.10327	712.47998	 23.40	
 20.401	155.705	  2.43335	 -0.66215	  2.66372	  1.62088	  0.02762	 -0.19462	  3.10392	712.44000	 23.40	
 20.392	160.496	  2.43756	 -0.70045	  2.73802	  1.46486	  0.15262	 -0.18906	  3.10703	712.59003	 23.40	
 20.410	165.423	  2.43364	 -0.73585	  2.79418	  1.29662	  0.28555	 -0.18512	  3.10317	712.54999	 23.40	
 20.407	170.264	  2.43266	 -0.75810	  2.83425	  1.13307	  0.42442	 -0.17421	  3.10022	712.54999	 23.40	
 20.401	175.153	  2.43551	 -0.77145	  2.86376	  0.97082	  0.57481	 -0.16550	  3.10286	712.57001	 23.40	
  0.141	 45.000	  3.11150	  1.32487	  1.36632	  1.35982	  1.33445	  0.06190	  3.10151	712.63000	 23.40	
  4.001	128.691	  3.10231	  1.06330	  1.56135	  1.61484	  1.02570	  0.04484	  3.10429	712.51001	 23.40	
  4.002	 76.995	  3.09955	  1.37415	  1.24201	  1.68828	  0.96616	  0.05398	  3.10079	712.59998	 23.40	
  4.002	 25.892	  3.09999	  1.63569	  1.01581	  1.47089	  1.15809	  0.05690	  3.09952	712.39001	 23.40	
  4.002	-25.892	  3.10147	  1.62215	  1.03096	  1.15394	  1.47550	  0.04880	  3.10097	712.44000	 23.40	
  4.002	-76.995	  3.10211	  1.35219	  1.26423	  0.97814	  1.67983	  0.03414	  3.10273	712.53998	 23.40	
  4.001	-128.691	  3.10161	  1.05155	  1.57708	  1.04122	  1.59439	  0.02877	  3.10355	712.51001	 23.40	
  4.000	180.000	  3.10093	  0.93328	  1.71752	  1.31606	  1.29347	  0.03255	  3.10264	712.56000	 23.40	
  8.000	180.000	  3.03331	  0.49502	  2.07885	  1.25022	  1.21218	 -0.02210	  3.10153	712.48999	 23.40	
  7.991	-152.370	  3.03631	  0.56712	  1.99216	  0.90741	  1.58402	 -0.02804	  3.10545	712.46997	 23.40	
  7.997	-124.550	  3.03861	  0.77892	  1.73451	  0.66243	  1.89036	 -0.03167	  3.10616	712.40997	 23.40	
  8.006	-96.837	  3.03420	  1.09819	  1.37502	  0.54342	  2.04452	 -0.02961	  3.10106	712.39001	 23.40	
  7.988	-69.228	  3.04084	  1.47256	  1.01926	  0.57632	  2.00810	 -0.02393	  3.10551	712.34003	 23.40	
  7.997	-41.563	  3.03777	  1.80184	  0.73836	  0.74733	  1.78483	 -0.01218	  3.10065	712.46997	 23.40	
  8.008	-13.821	  3.04033	  2.00774	  0.57912	  1.04860	  1.43993	  0.00838	  3.10272	712.50000	 23.40	
  8.008	 13.821	  3.04227	  2.02060	  0.56506	  1.41570	  1.06884	  0.01700	  3.10424	712.56000	 23.40	
  7.997	 41.563	  3.04125	  1.83391	  0.70287	  1.76416	  0.75710	  0.02015	  3.10444	712.53998	 23.40	
  7.988	 69.228	  3.04281	  1.50720	  0.97535	  2.00506	  0.56321	  0.01239	  3.10391	712.53998	 23.40	
  8.006	 96.837	  3.03890	  1.13324	  1.33203	  2.06238	  0.51991	  0.00439	  3.10049	712.51001	 23.40	
  7.997	124.550	  3.03404	  0.80077	  1.69113	  1.92024	  0.62490	 -0.00412	  3.10044	712.48999	 23.40	
  7.991	152.370	  3.03506	  0.57759	  1.96791	  1.62561	  0.86843	 -0.01539	  3.10213	712.51001	 23.40	
 12.009	161.059	  2.90325	  0.11549	  2.31266	  1.53626	  0.73042	 -0.08047	  3.10427	712.50000	 23.40	
 12.013	142.081	  2.90337	  0.26828	  2.09717	  1.89679	  0.43422	 -0.07859	  3.10064	712.51001	 23.40	
 12.006	123.113	  2.90912	  0.51171	  1.78285	  2.18235	  0.22299	 -0.07140	  3.10438	712.52002	 23.40	
 12.007	104.200	  2.90986	  0.83648	  1.40843	  2.34792	  0.10708	 -0.06909	  3.10132	712.46997	 23.40	
 11.989	 85.301	  2.91398	  1.21519	  1.02514	  2.37899	  0.08780	 -0.06039	  3.10447	712.51001	 23.40	
 12.013	 66.294	  2.91423	  1.60831	  0.67506	  2.26498	  0.16782	 -0.05623	  3.10471	712.48999	 23.40	
 12.012	 47.388	  2.91002	  1.95457	  0.39726	  2.02295	  0.34354	 -0.04793	  3.10106	712.53003	 23.40	
 11.990	 28.440	  2.91176	  2.21656	  0.21400	  1.68531	  0.61988	 -0.03992	  3.10114	712.51001	 23.40	
 11.991	  9.464	  2.91255	  2.34529	  0.13379	  1.30256	  0.96533	 -0.04617	  3.10113	712.42999	 23.40	
 11.991	 -9.464	  2.91143	  2.33629	  0.14233	  0.92860	  1.34317	 -0.05446	  3.10348	712.42999	 23.40	
 11.990	-28.440	  2.90845	  2.18371	  0.24808	  0.59364	  1.72485	 -0.07194	  3.10236	712.51001	 23.40	
 12.012	-47.388	  2.90865	  1.91188	  0.44590	  0.33262	  2.05583	 -0.07761	  3.10396	712.46002	 23.40	
 12.013	-66.294	  2.90665	  1.55594	  0.73323	  0.17165	  2.28054	 -0.08230	  3.10415	712.40997	 23.40	
 11.989	-85.301	  2.90607	  1.16605	  1.08869	  0.10877	  2.37361	 -0.08558	  3.10378	712.41998	 23.40	
 12.007	-104.200	  2.90370	  0.79562	  1.46987	  0.13605	  2.32844	 -0.08645	  3.10287	712.39001	 23.40	
 12.006	-123.113	  2.90091	  0.48046	  1.83377	  0.25838	  2.14577	 -0.08944	  3.10249	712.44000	 23.40	
 12.013	-142.081	  2.90227	  0.24398	  2.14149	  0.47808	  1.84509	 -0.08479	  3.10140	712.42999	 23.40	
 12.009	-161.059	  2.90224	  0.10570	  2.33455	  0.78188	  1.47796	 -0.08759	  3.09967	712.44000	 23.40	
 16.000	180.000	  2.71138	 -0.35216	  2.65508	  1.00051	  0.93471	 -0.13696	  3.10141	712.47998	 23.40	
 15.990	-165.604	  2.71429	 -0.32291	  2.61618	  0.63715	  1.32157	 -0.12996	  3.10383	712.40997	 23.40	
 16.002	-151.165	  2.71467	 -0.22708	  2.46563	  0.31893	  1.70734	 -0.12155	  3.10557	712.40997	 23.40	
 16.002	-136.836	  2.71134	 -0.06003	  2.21182	  0.06471	  2.05666	 -0.11261	  3.10170	712.34998	 23.40	
 15.995	-122.439	  2.70985	  0.17176	  1.88667	 -0.12510	  2.34575	 -0.10780	  3.10292	712.44000	 23.40	
 15.993	-107.966	  2.70819	  0.47232	  1.51202	 -0.24986	  2.54584	 -0.10591	  3.10116	712.37000	 23.40	
 16.005	-93.629	  2.71224	  0.82002	  1.13068	 -0.30485	  2.64143	 -0.10446	  3.10385	712.42999	 23.40	
 15.992	-79.234	  2.71075	  1.20252	  0.76208	 -0.29303	  2.62401	 -0.10906	  3.10134	712.40002	 23.40	
 16.009	-64.774	  2.70948	  1.59188	  0.42794	 -0.21999	  2.50058	 -0.11188	  3.10124	712.35999	 23.40	
 15.997	-50.364	  2.71483	  1.96090	  0.15322	 -0.06804	  2.27459	 -0.11860	  3.10245	712.53003	 23.40	
 15.997	-36.045	  2.71574	  2.26557	 -0.05418	  0.14903	  1.96599	 -0.12219	  3.10223	712.50000	 23.40	
 16.000	-21.597	  2.71688	  2.48992	 -0.19773	  0.43640	  1.59639	 -0.12366	  3.10123	712.44000	 23.40	
 16.003	 -7.169	  2.71979	  2.61208	 -0.27005	  0.77716	  1.20798	 -0.11960	  3.10124	712.41998	 23.40	
 16.003	  7.169	  2.71995	  2.62162	 -0.27868	  1.14871	  0.83152	 -0.11916	  3.09997	712.44000	 23.40	
 16.000	 21.597	  2.72239	  2.52183	 -0.22139	  1.53518	  0.48459	 -0.11984	  3.10095	712.40997	 23.40	
 15.997	 36.045	  2.72441	  2.31586	 -0.09688	  1.90452	  0.19010	 -0.12151	  3.10041	712.40997	 23.40	
 15.997	 50.364	  2.72839	  2.02188	  0.09941	  2.22578	 -0.04138	 -0.13378	  3.10350	712.53998	 23.40	
 16.009	 64.774	  2.72956	  1.66339	  0.36901	  2.46696	 -0.20221	 -0.14314	  3.10168	712.46002	 23.40	
 15.992	 79.234	  2.72978	  1.27422	  0.69436	  2.60846	 -0.29359	 -0.14501	  3.10215	712.33002	 23.40	
 16.005	 93.629	  2.72746	  0.88689	  1.06291	  2.64453	 -0.31720	 -0.14928	  3.10283	712.28003	 23.40	
 15.993	107.966	  2.72362	  0.53104	  1.44743	  2.56895	 -0.27209	 -0.14935	  3.10116	712.39001	 23.40	
 15.995	122.439	  2.72045	  0.22004	  1.82532	  2.39130	 -0.16072	 -0.14890	  3.10407	712.47998	 23.40	
 16.002	136.836	  2.71783	 -0.02553	  2.15647	  2.11619	  0.02098	 -0.15075	  3.10654	712.32001	 23.40	
 16.002	151.165	  2.71056	 -0.20288	  2.41662	  1.77387	  0.26576	 -0.15095	  3.10163	712.37000	 23.40	
 15.990	165.604	  2.71388	 -0.31058	  2.59225	  1.39130	  0.57943	 -0.14092	  3.10463	712.34998	 23.40	
 20.003	168.362	  2.46252	 -0.70927	  2.80685	  1.21025	  0.39961	 -0.17608	  3.10357	712.33002	 23.40	
 20.008	156.764	  2.46243	 -0.63246	  2.66891	  1.59427	  0.08664	 -0.19072	  3.10495	712.41998	 23.40	
 20.000	145.147	  2.46734	 -0.49980	  2.44977	  1.95946	 -0.17262	 -0.20690	  3.10623	712.39001	 23.40	
 19.995	133.545	  2.46735	 -0.31962	  2.16102	  2.27986	 -0.38395	 -0.21790	  3.10236	712.39001	 23.40	
 20.009	121.926	  2.47298	 -0.08366	  1.81864	  2.54841	 -0.54512	 -0.22352	  3.10501	712.46002	 23.40	
 20.005	110.327	  2.48034	  0.20465	  1.44854	  2.73733	 -0.64843	 -0.22664	  3.10662	712.45001	 23.40	
 19.989	 98.733	  2.48800	  0.53822	  1.07060	  2.83799	 -0.70039	 -0.22993	  3.10691	712.41998	 23.40	
 19.999	 87.075	  2.48966	  0.90687	  0.69378	  2.85268	 -0.70950	 -0.23225	  3.10632	712.46002	 23.40	
 19.992	 75.457	  2.48484	  1.28947	  0.34650	  2.77679	 -0.66779	 -0.23008	  3.10141	712.34998	 23.40	
 20.009	 63.844	  2.48448	  1.67347	  0.04155	  2.62320	 -0.58005	 -0.22461	  3.10431	712.50000	 23.40	
 19.989	 52.269	  2.48672	  2.03387	 -0.20777	  2.38399	 -0.43231	 -0.22063	  3.10499	712.40002	 23.40	
 19.999	 40.602	  2.47980	  2.34731	 -0.40714	  2.07514	 -0.23406	 -0.21209	  3.10295	712.42999	 23.40	
 20.004	 29.051	  2.48094	  2.59608	 -0.54645	  1.72305	  0.02154	 -0.20017	  3.10381	712.45001	 23.40	
 20.005	 17.433	  2.47991	  2.76740	 -0.63918	  1.34632	  0.32158	 -0.18867	  3.10800	712.34998	 23.40	
 20.006	  5.780	  2.47815	  2.84496	 -0.67759	  0.96595	  0.66422	 -0.17576	  3.10607	712.34003	 23.40	
 20.006	 -5.780	  2.47358	  2.83310	 -0.67053	  0.60092	  1.03338	 -0.16412	  3.10477	712.33002	 23.40	
 20.005	-17.433	  2.47197	  2.73512	 -0.61470	  0.26629	  1.42293	 -0.15432	  3.10637	712.34003	 23.40	
 20.004	-29.051	  2.46821	  2.54801	 -0.50991	 -0.02585	  1.79950	 -0.14272	  3.10492	712.40002	 23.40	
 19.999	-40.602	  2.46507	  2.28647	 -0.35433	 -0.25993	  2.14048	 -0.13332	  3.10266	712.33002	 23.40	
 19.989	-52.269	  2.46516	  1.96018	 -0.13933	 -0.44686	  2.43988	 -0.12442	  3.10482	712.29999	 23.40	
 20.009	-63.844	  2.46516	  1.59667	  0.11562	 -0.58007	  2.66654	 -0.11793	  3.10754	712.40997	 23.40	
 19.992	-75.457	  2.46375	  1.21201	  0.42181	 -0.65778	  2.80760	 -0.11535	  3.10603	712.27002	 23.40	
 19.999	-87.075	  2.46220	  0.83003	  0.76560	 -0.68833	  2.86093	 -0.11075	  3.10494	712.33002	 23.40	
 19.989	-98.733	  2.46044	  0.47079	  1.13307	 -0.66947	  2.82432	 -0.10845	  3.10113	712.45001	 23.40	
 20.005	-110.327	  2.46162	  0.15079	  1.51100	 -0.60567	  2.70743	 -0.10669	  3.10465	712.44000	 23.40	
 20.009	-121.926	  2.45983	 -0.12649	  1.87940	 -0.49115	  2.49842	 -0.11558	  3.10122	712.45001	 23.30	
 19.995	-133.545	  2.46111	 -0.35283	  2.21559	 -0.32929	  2.22143	 -0.12036	  3.10143	712.42999	 23.40	
 20.000	-145.147	  2.46689	 -0.52412	  2.50139	 -0.11004	  1.88697	 -0.12258	  3.10520	712.38000	 23.30	
 20.008	-156.764	  2.46557	 -0.64692	  2.70966	  0.15857	  1.51290	 -0.13431	  3.10465	712.51001	 23.30	
 20.003	-168.362	  2.46546	 -0.71188	  2.82839	  0.47542	  1.12899	 -0.14467	  3.10202	712.47998	 23.40	
 20.000	180.000	  2.46193	 -0.73643	  2.85864	  0.82873	  0.75184	 -0.16078	  3.10080	712.34003	 23.30	
