FileType=PCF
NHL=14
Date=08/24/17	13:43:34
Facility=APL
Serial=16328-3
Customer=NASA
NP=6
Mach=0.200000
Calibration=1:1
CalPts=490
TstPts=95
PortNumbering=AP Standard
Units=Torr C m/s kg/m^3 deg mm 
Theta[deg]	Phi[deg]	P1[Torr]	P2[Torr]	P3[Torr]	P4[Torr]	P5[Torr]	P6[Torr]	Pt[Torr]	Ps[Abs,Torr]	Ts[C]	
  0.000	  0.000	 19.59071	 10.30091	 10.03294	 10.03104	 10.35131	  0.19115	 19.57031	705.46503	 24.60	
  1.691	128.401	 19.60180	  9.68827	 10.63080	 10.80806	  9.54940	  0.18668	 19.58233	705.46100	 24.60	
  1.692	 77.194	 19.56327	 10.51094	  9.76957	 10.97820	  9.35370	  0.18140	 19.53814	705.60901	 24.60	
  1.699	 26.182	 19.57201	 11.18897	  9.18012	 10.42722	  9.86941	  0.17970	 19.54851	705.40100	 24.50	
  1.699	-26.182	 19.56530	 11.15483	  9.17690	  9.52984	 10.77600	  0.17884	 19.55014	705.38098	 24.50	
  1.692	-77.194	 19.58760	 10.45965	  9.81842	  9.09221	 11.30056	  0.16533	 19.56970	705.48499	 24.50	
  1.691	-128.401	 19.55637	  9.61184	 10.63374	  9.24499	 11.10433	  0.16758	 19.53542	705.47400	 24.50	
  1.700	180.000	 19.56108	  9.28757	 11.01794	  9.99214	 10.31856	  0.17529	 19.54162	705.47498	 24.50	
  3.400	180.000	 19.52415	  8.32762	 11.98225	  9.89505	 10.22099	  0.15047	 19.53368	705.61298	 24.50	
  3.388	-152.325	 19.55440	  8.52125	 11.74978	  9.04749	 11.16329	  0.10793	 19.57154	705.49902	 24.50	
  3.397	-124.529	 19.55854	  9.03346	 11.10171	  8.42110	 11.89734	  0.11502	 19.57808	705.65698	 24.50	
  3.399	-96.763	 19.53946	  9.87843	 10.16411	  8.09918	 12.22913	  0.08001	 19.55900	705.53101	 24.50	
  3.394	-69.283	 19.53247	 10.82200	  9.28494	  8.18142	 12.11644	  0.08714	 19.56110	705.54199	 24.50	
  3.400	-41.398	 19.47299	 11.63382	  8.57078	  8.62433	 11.51395	  0.09328	 19.50014	705.61798	 24.50	
  3.401	-14.021	 19.50998	 12.13073	  8.17226	  9.34155	 10.74462	  0.12486	 19.54372	705.63202	 24.50	
  3.401	 14.021	 19.51125	 12.15926	  8.15105	 10.33885	  9.73189	  0.11352	 19.53957	705.55298	 24.50	
  3.400	 41.398	 19.53912	 11.76501	  8.54204	 11.22760	  9.00826	  0.13797	 19.55364	705.58099	 24.50	
  3.394	 69.283	 19.53246	 10.94488	  9.25742	 11.78676	  8.51005	  0.13412	 19.53892	705.58197	 24.50	
  3.399	 96.763	 19.57156	  9.99603	 10.12253	 11.93408	  8.44471	  0.12771	 19.56396	705.64801	 24.50	
  3.397	124.529	 19.54890	  9.15204	 11.03915	 11.58865	  8.67643	  0.13191	 19.55150	705.63202	 24.50	
  3.388	152.325	 19.55296	  8.56566	 11.71972	 10.84416	  9.32348	  0.13943	 19.54739	705.60602	 24.50	
  5.099	161.165	 19.47012	  7.40432	 12.73769	 10.76750	  9.11958	  0.07561	 19.55757	705.61700	 24.50	
  5.109	142.013	 19.44013	  7.85260	 12.19300	 11.67458	  8.33274	  0.06079	 19.52423	705.58398	 24.50	
  5.095	123.033	 19.47389	  8.57043	 11.40648	 12.37618	  7.77495	  0.04374	 19.54384	705.58600	 24.50	
  5.105	104.191	 19.48311	  9.39635	 10.44863	 12.80446	  7.43411	  0.03067	 19.55608	705.59900	 24.50	
  5.093	 85.207	 19.46832	 10.34844	  9.51756	 12.86644	  7.35967	  0.02613	 19.54588	705.61798	 24.50	
  5.104	 66.290	 19.46340	 11.33795	  8.61710	 12.60044	  7.56577	  0.01573	 19.55846	705.56097	 24.50	
  5.094	 47.331	 19.42964	 12.17916	  7.82530	 11.97589	  8.06703	  0.01867	 19.54110	705.48199	 24.50	
  5.089	 28.397	 19.42947	 12.81072	  7.28648	 11.14614	  8.76863	  0.01937	 19.55600	705.56500	 24.50	
  5.096	  9.576	 19.42943	 13.14002	  7.01784	 10.16936	  9.59428	  0.03610	 19.56806	705.42902	 24.50	
  5.096	 -9.576	 19.38348	 13.08043	  7.00751	  9.12887	 10.58639	  0.03235	 19.52733	705.50800	 24.50	
  5.089	-28.397	 19.36933	 12.70100	  7.32173	  8.33474	 11.50548	  0.03326	 19.51831	705.51099	 24.50	
  5.094	-47.331	 19.41414	 12.05836	  7.90548	  7.63230	 12.35166	  0.01498	 19.56108	705.47998	 24.50	
  5.104	-66.290	 19.39550	 11.15167	  8.69975	  7.14657	 12.93428	 -0.02213	 19.54037	705.58099	 24.50	
  5.093	-85.207	 19.41330	 10.16023	  9.61870	  6.95965	 13.18731	 -0.02229	 19.55087	705.47198	 24.50	
  5.105	-104.191	 19.42693	  9.19421	 10.53118	  7.04303	 13.10163	 -0.02476	 19.56094	705.46100	 24.50	
  5.095	-123.033	 19.44246	  8.37729	 11.48582	  7.41881	 12.66819	 -0.00246	 19.56531	705.41302	 24.50	
  5.109	-142.013	 19.43464	  7.74657	 12.25959	  8.04884	 11.93935	  0.01055	 19.54603	705.54999	 24.50	
  5.099	-161.165	 19.43063	  7.35185	 12.75564	  8.84639	 11.02153	  0.02866	 19.54147	705.45801	 24.50	
  5.100	180.000	 19.46146	  7.24926	 12.92788	  9.76250	 10.02887	  0.03965	 19.56204	705.44000	 24.50	
  6.800	180.000	 19.31626	  6.09958	 13.85423	  9.60671	  9.81688	 -0.05867	 19.57898	705.49902	 24.50	
  6.796	-166.229	 19.25169	  6.14037	 13.71053	  8.69358	 10.77565	 -0.06885	 19.52823	705.45801	 24.50	
  6.808	-152.311	 19.25245	  6.40837	 13.35849	  7.85711	 11.72772	 -0.10169	 19.54221	705.57001	 24.50	
  6.795	-138.383	 19.23656	  6.84050	 12.75110	  7.07953	 12.59608	 -0.11549	 19.53074	705.59198	 24.50	
  6.792	-124.591	 19.24280	  7.50779	 11.97514	  6.46153	 13.30995	 -0.12008	 19.54746	705.67499	 24.50	
  6.787	-110.754	 19.23564	  8.31757	 11.06109	  6.04160	 13.80968	 -0.13785	 19.55280	705.60999	 24.50	
  6.800	-96.985	 19.21501	  9.17283	 10.07838	  5.81635	 14.04540	 -0.16133	 19.54534	705.45502	 24.50	
  6.800	-83.015	 19.21704	 10.15579	  9.20436	  5.79659	 14.06285	 -0.16845	 19.55260	705.56097	 24.50	
  6.787	-69.246	 19.21422	 11.14271	  8.31144	  5.96674	 13.82278	 -0.16325	 19.55753	705.65198	 24.50	
  6.792	-55.409	 19.19923	 12.06153	  7.44711	  6.34377	 13.33910	 -0.13673	 19.54542	705.50000	 24.50	
  6.795	-41.617	 19.20560	 12.87223	  6.73117	  6.91289	 12.65245	 -0.10871	 19.55714	705.53400	 24.50	
  6.808	-27.689	 19.17249	 13.47579	  6.17930	  7.66746	 11.75821	 -0.07266	 19.51886	705.56799	 24.50	
  6.796	-13.771	 19.21538	 13.89712	  5.88567	  8.51594	 10.83993	 -0.07537	 19.56080	705.58600	 24.50	
  6.800	  0.000	 19.22684	 14.05190	  5.78679	  9.41553	  9.85107	 -0.08737	 19.56381	705.45099	 24.50	
  6.796	 13.771	 19.23075	 13.94285	  5.87946	 10.41229	  9.00063	 -0.10490	 19.55273	705.48798	 24.50	
  6.808	 27.689	 19.26900	 13.63070	  6.15451	 11.39457	  8.19497	 -0.09304	 19.57960	705.43201	 24.50	
  6.795	 41.617	 19.28033	 13.04407	  6.66696	 12.26627	  7.45872	 -0.11005	 19.56750	705.56799	 24.50	
  6.792	 55.409	 19.26297	 12.27481	  7.34460	 12.96554	  6.85370	 -0.10748	 19.54256	705.45502	 24.50	
  6.787	 69.246	 19.26519	 11.37089	  8.17480	 13.46105	  6.42172	 -0.11004	 19.52396	705.39301	 24.50	
  6.800	 83.015	 19.26844	 10.40617	  9.06562	 13.73780	  6.22383	 -0.11687	 19.51583	705.57599	 24.50	
  6.800	 96.985	 19.33041	  9.47175	 10.01426	 13.78848	  6.22545	 -0.10277	 19.55935	705.50500	 24.50	
  6.787	110.754	 19.30840	  8.58971	 10.96343	 13.52840	  6.43129	 -0.09004	 19.53943	705.67499	 24.50	
  6.792	124.591	 19.31430	  7.79681	 11.89040	 13.06035	  6.82490	 -0.07071	 19.54112	705.52301	 24.50	
  6.795	138.383	 19.29260	  7.09441	 12.65917	 12.36087	  7.40576	 -0.04402	 19.50792	705.57300	 24.50	
  6.808	152.311	 19.30786	  6.53551	 13.30995	 11.53734	  8.12959	 -0.02545	 19.54726	705.56799	 24.50	
  6.796	166.229	 19.25088	  6.19871	 13.65481	 10.55274	  8.91579	 -0.02683	 19.49539	705.59900	 24.50	
  8.491	168.704	 19.05419	  5.00072	 14.55236	 10.39581	  8.67013	 -0.16232	 19.52894	705.53003	 24.50	
  8.502	157.493	 19.06698	  5.26553	 14.23482	 11.37000	  7.82492	 -0.14561	 19.53770	705.55402	 24.50	
  8.494	146.194	 19.03913	  5.71860	 13.67450	 12.26501	  7.01106	 -0.16262	 19.49518	705.64600	 24.50	
  8.495	135.039	 19.10454	  6.34492	 13.04083	 13.12268	  6.32676	 -0.18813	 19.55592	705.62402	 24.50	
  8.487	123.723	 19.06498	  7.07572	 12.16312	 13.76617	  5.73363	 -0.22113	 19.51477	705.64001	 24.50	
  8.492	112.575	 19.05898	  7.90140	 11.22411	 14.23614	  5.31370	 -0.23579	 19.51030	705.68799	 24.50	
  8.510	101.220	 19.07594	  8.79794	 10.23944	 14.55336	  5.06307	 -0.27583	 19.53492	705.59497	 24.50	
  8.500	 90.000	 19.08199	  9.72299	  9.33986	 14.63712	  5.02873	 -0.27807	 19.55259	705.50598	 24.40	
  8.510	 78.780	 19.05332	 10.70615	  8.38025	 14.50918	  5.09887	 -0.27226	 19.52958	705.41199	 24.40	
  8.492	 67.425	 19.03432	 11.68291	  7.44135	 14.16642	  5.35659	 -0.25784	 19.52698	705.61700	 24.40	
  8.487	 56.277	 19.01404	 12.58491	  6.62600	 13.64269	  5.77571	 -0.25492	 19.53310	705.59802	 24.40	
  8.495	 44.961	 19.04062	 13.42896	  5.87617	 12.95878	  6.36776	 -0.25693	 19.57201	705.62903	 24.50	
  8.494	 33.806	 18.99651	 14.04880	  5.26401	 12.10121	  7.07910	 -0.25160	 19.54876	705.54700	 24.50	
  8.502	 22.507	 18.94695	 14.50355	  4.82153	 11.13766	  7.86868	 -0.23909	 19.51248	705.57001	 24.40	
  8.491	 11.296	 18.92984	 14.77508	  4.61651	 10.14552	  8.73237	 -0.23138	 19.51254	705.61298	 24.50	
  8.500	  0.000	 18.91510	 14.85290	  4.49721	  9.12110	  9.59643	 -0.22443	 19.51411	705.50299	 24.50	
  8.491	-11.296	 18.91149	 14.71487	  4.57808	  8.21607	 10.59766	 -0.21093	 19.51308	705.55402	 24.40	
  8.502	-22.507	 18.91865	 14.40128	  4.80967	  7.37118	 11.58207	 -0.20370	 19.52860	705.53699	 24.40	
  8.494	-33.806	 18.88043	 13.83604	  5.31304	  6.51378	 12.49559	 -0.22142	 19.48793	705.55402	 24.40	
  8.495	-44.961	 18.91193	 13.16577	  5.91760	  5.77575	 13.34350	 -0.26676	 19.52989	705.48901	 24.40	
  8.487	-56.277	 18.90754	 12.30875	  6.68751	  5.23985	 13.99579	 -0.29784	 19.52512	705.55298	 24.40	
  8.492	-67.425	 18.93851	 11.38340	  7.55521	  4.86003	 14.50429	 -0.30764	 19.54428	705.55798	 24.40	
  8.510	-78.780	 18.94407	 10.38568	  8.46893	  4.63394	 14.83168	 -0.31713	 19.54803	705.55902	 24.40	
  8.500	-90.000	 18.93607	  9.36516	  9.39528	  4.56550	 14.90484	 -0.32854	 19.53341	705.38501	 24.40	
  8.510	-101.220	 18.93550	  8.41300	 10.33904	  4.66867	 14.79414	 -0.31094	 19.53077	705.51099	 24.40	
  8.492	-112.575	 18.93923	  7.53030	 11.33436	  4.93862	 14.45872	 -0.28572	 19.51280	705.41602	 24.40	
  8.487	-123.723	 18.95977	  6.72845	 12.26591	  5.36854	 13.96253	 -0.26427	 19.52595	705.48901	 24.40	
  8.495	-135.039	 18.93741	  6.01600	 13.07050	  5.97292	 13.26357	 -0.23785	 19.48960	705.49597	 24.40	
  8.494	-146.194	 18.97201	  5.46599	 13.76194	  6.72873	 12.44646	 -0.23164	 19.50827	705.57001	 24.40	
  8.502	-157.493	 19.00812	  5.07376	 14.28657	  7.59053	 11.51279	 -0.21866	 19.53442	705.40997	 24.40	
  8.491	-168.704	 18.98405	  4.88773	 14.54102	  8.44707	 10.52609	 -0.20551	 19.49508	705.51099	 24.40	
  8.500	180.000	 19.01202	  4.86870	 14.64912	  9.35945	  9.53000	 -0.20138	 19.49886	705.49103	 24.40	
 10.200	180.000	 18.69759	  3.67529	 15.41431	  9.10108	  9.26390	 -0.35672	 19.49601	705.41803	 24.40	
 10.191	-170.497	 18.69566	  3.68896	 15.35766	  8.18582	 10.24163	 -0.37654	 19.51183	705.56702	 24.50	
 10.210	-161.034	 18.68671	  3.84494	 15.12031	  7.27622	 11.24603	 -0.37334	 19.52473	705.51300	 24.40	
 10.194	-151.526	 18.68576	  4.14198	 14.69706	  6.37356	 12.22986	 -0.36020	 19.53822	705.55103	 24.50	
 10.190	-142.105	 18.64913	  4.58267	 14.08475	  5.53993	 13.11071	 -0.35940	 19.52112	705.57300	 24.50	
 10.215	-132.646	 18.62567	  5.16893	 13.35873	  4.81538	 13.89872	 -0.36641	 19.51485	705.56799	 24.50	
 10.203	-123.092	 18.62115	  5.89866	 12.50166	  4.25754	 14.58529	 -0.38939	 19.52277	705.70599	 24.50	
 10.192	-113.678	 18.59534	  6.71771	 11.54750	  3.85202	 15.09202	 -0.43550	 19.51147	705.59003	 24.50	
 10.208	-104.249	 18.59401	  7.60230	 10.56173	  3.55823	 15.48004	 -0.47004	 19.52569	705.57800	 24.50	
 10.210	-94.801	 18.58103	  8.51188	  9.57224	  3.39138	 15.66629	 -0.49238	 19.52460	705.80902	 24.50	
 10.210	-85.199	 18.55798	  9.52852	  8.61138	  3.36478	 15.66310	 -0.48831	 19.51214	705.67200	 24.50	
 10.208	-75.751	 18.56331	 10.54975	  7.65751	  3.47574	 15.50551	 -0.50104	 19.51740	705.64398	 24.40	
 10.192	-66.322	 18.57654	 11.55590	  6.73770	  3.72795	 15.15832	 -0.47722	 19.53136	705.54999	 24.50	
 10.203	-56.908	 18.55222	 12.50783	  5.83746	  4.10374	 14.62491	 -0.46191	 19.51006	705.61499	 24.40	
 10.215	-47.354	 18.53239	 13.36933	  5.08897	  4.60675	 13.94806	 -0.42712	 19.48971	705.46600	 24.40	
 10.190	-37.895	 18.53631	 14.11353	  4.39419	  5.31499	 13.16662	 -0.39351	 19.48903	705.60901	 24.50	
 10.194	-28.474	 18.58138	 14.75477	  3.91918	  6.12378	 12.31480	 -0.35948	 19.53399	705.57800	 24.40	
 10.210	-18.966	 18.56079	 15.20419	  3.55570	  6.99874	 11.32744	 -0.34459	 19.50662	705.66302	 24.40	
 10.191	 -9.503	 18.55045	 15.46622	  3.34978	  7.89429	 10.31931	 -0.36709	 19.47933	705.70001	 24.40	
 10.200	  0.000	 18.57588	 15.59559	  3.27681	  8.83565	  9.37214	 -0.40265	 19.49924	705.63397	 24.50	
 10.191	  9.503	 18.59371	 15.55260	  3.31672	  9.86412	  8.44551	 -0.41541	 19.50531	705.56500	 24.50	
 10.210	 18.966	 18.61149	 15.33684	  3.48383	 10.86476	  7.54644	 -0.41737	 19.52050	705.60699	 24.50	
 10.194	 28.474	 18.59553	 14.90521	  3.85645	 11.80268	  6.67078	 -0.42099	 19.47955	705.66803	 24.50	
 10.190	 37.895	 18.65381	 14.37440	  4.35220	 12.74639	  5.88522	 -0.42129	 19.52058	705.50500	 24.40	
 10.215	 47.354	 18.66842	 13.68914	  4.96904	 13.57535	  5.16731	 -0.41959	 19.52535	705.42700	 24.40	
 10.203	 56.908	 18.66207	 12.83874	  5.77056	 14.24818	  4.59836	 -0.41227	 19.50191	705.64801	 24.40	
 10.192	 66.322	 18.71719	 11.93170	  6.65818	 14.80823	  4.22797	 -0.43568	 19.52609	705.53601	 24.40	
 10.208	 75.751	 18.76758	 10.98160	  7.59170	 15.21622	  3.97557	 -0.45201	 19.57160	705.62402	 24.40	
 10.210	 85.199	 18.77592	  9.97459	  8.49502	 15.40777	  3.86397	 -0.46122	 19.55630	705.59003	 24.40	
 10.210	 94.801	 18.78934	  9.00969	  9.48662	 15.43149	  3.86484	 -0.47686	 19.55024	705.47498	 24.40	
 10.208	104.249	 18.76975	  8.07410	 10.44732	 15.24674	  3.96332	 -0.44975	 19.52481	705.60999	 24.40	
 10.192	113.678	 18.78266	  7.17816	 11.45107	 14.91695	  4.20538	 -0.41407	 19.52640	705.60101	 24.40	
 10.203	123.092	 18.75582	  6.30615	 12.38558	 14.41367	  4.55122	 -0.38322	 19.50476	705.53003	 24.40	
 10.215	132.646	 18.78512	  5.52123	 13.28201	 13.79933	  5.12333	 -0.35449	 19.53484	705.54700	 24.40	
 10.190	142.105	 18.74999	  4.85850	 14.00776	 12.97868	  5.81795	 -0.32698	 19.50966	705.53900	 24.40	
 10.194	151.526	 18.76060	  4.34763	 14.62331	 12.09099	  6.63236	 -0.27954	 19.51277	705.60901	 24.40	
 10.210	161.034	 18.74869	  3.96341	 15.06798	 11.13757	  7.47565	 -0.28161	 19.52039	705.53003	 24.40	
 10.191	170.497	 18.78145	  3.77395	 15.36441	 10.16167	  8.40068	 -0.31986	 19.55700	705.63397	 24.40	
 11.899	171.783	 18.37934	  2.58019	 16.09700	  9.82588	  8.03343	 -0.49027	 19.53809	705.56799	 24.40	
 11.890	163.610	 18.40206	  2.76461	 15.86125	 10.84613	  7.10802	 -0.44548	 19.54849	705.59003	 24.40	
 11.889	155.445	 18.36677	  3.05011	 15.43538	 11.80715	  6.18707	 -0.42956	 19.50261	705.51099	 24.40	
 11.909	147.299	 18.38131	  3.44751	 14.90775	 12.75788	  5.33350	 -0.45504	 19.51205	705.45502	 24.40	
 11.902	139.148	 18.42806	  4.01982	 14.26681	 13.64201	  4.58418	 -0.48440	 19.55626	705.64600	 24.40	
 11.894	130.867	 18.41789	  4.71610	 13.46008	 14.38725	  3.94649	 -0.52172	 19.53339	705.54498	 24.40	
 11.897	122.732	 18.43162	  5.48733	 12.59423	 15.04916	  3.42723	 -0.55669	 19.54943	705.49597	 24.40	
 11.903	114.597	 18.43690	  6.35920	 11.64244	 15.56015	  3.02683	 -0.61080	 19.56910	705.38501	 24.40	
 11.893	106.346	 18.41408	  7.29776	 10.61410	 15.89876	  2.75646	 -0.64395	 19.54156	705.48901	 24.40	
 11.892	 98.155	 18.39592	  8.26613	  9.62773	 16.10035	  2.60582	 -0.66616	 19.53441	705.48297	 24.40	
 11.900	 90.000	 18.37216	  9.19270	  8.61691	 16.14615	  2.57832	 -0.66630	 19.52323	705.49597	 24.40	
 11.892	 81.845	 18.39760	 10.17049	  7.62110	 16.07698	  2.66505	 -0.65581	 19.56643	705.55103	 24.40	
 11.893	 73.654	 18.35701	 11.16371	  6.63179	 15.80000	  2.83438	 -0.61920	 19.53822	705.51300	 24.40	
 11.903	 65.403	 18.32645	 12.13361	  5.71338	 15.37869	  3.10306	 -0.58131	 19.52934	705.57300	 24.40	
 11.897	 57.268	 18.29770	 13.05524	  4.88535	 14.80957	  3.51889	 -0.56867	 19.51117	705.58398	 24.40	
 11.894	 49.133	 18.25744	 13.87015	  4.10830	 14.10969	  4.03959	 -0.58223	 19.48272	705.49200	 24.40	
 11.902	 40.852	 18.28448	 14.66185	  3.46157	 13.36150	  4.69067	 -0.58076	 19.54546	705.49701	 24.40	
 11.909	 32.701	 18.26228	 15.27817	  2.93620	 12.48082	  5.42047	 -0.58982	 19.54255	705.50800	 24.40	
 11.889	 24.555	 18.24645	 15.75843	  2.54938	 11.51066	  6.29061	 -0.58833	 19.53240	705.45099	 24.40	
 11.890	 16.390	 18.26216	 16.12947	  2.27379	 10.53886	  7.19808	 -0.58640	 19.56504	705.56201	 24.40	
 11.899	  8.217	 18.20704	 16.28479	  2.12287	  9.50981	  8.10641	 -0.57653	 19.52658	705.62903	 24.40	
 11.900	  0.000	 18.21077	 16.34094	  2.09972	  8.49340	  9.05922	 -0.55005	 19.54403	705.58698	 24.40	
 11.899	 -8.217	 18.15597	 16.20606	  2.14237	  7.53744	  9.98518	 -0.52487	 19.49560	705.65997	 24.40	
 11.890	-16.390	 18.18799	 15.97480	  2.34298	  6.61244	 11.01482	 -0.50540	 19.53746	705.50299	 24.40	
 11.889	-24.555	 18.16036	 15.55757	  2.64712	  5.67614	 11.99804	 -0.48747	 19.52215	705.53900	 24.40	
 11.909	-32.701	 18.17391	 15.02754	  3.06805	  4.84060	 12.93660	 -0.51622	 19.54785	705.60101	 24.40	
 11.902	-40.852	 18.21037	 14.38033	  3.61563	  4.12387	 13.81174	 -0.53461	 19.57878	705.63202	 24.40	
 11.894	-49.133	 18.17563	 13.55267	  4.28974	  3.49958	 14.55383	 -0.57547	 19.52825	705.49902	 24.40	
 11.897	-57.268	 18.15736	 12.66549	  4.99612	  2.96117	 15.18960	 -0.61623	 19.51222	705.58099	 24.40	
 11.903	-65.403	 18.16516	 11.72581	  5.87695	  2.54580	 15.72121	 -0.62735	 19.52654	705.55298	 24.40	
 11.893	-73.654	 18.17896	 10.71363	  6.83836	  2.28166	 16.09406	 -0.63268	 19.54248	705.48901	 24.40	
 11.892	-81.845	 18.16666	  9.69435	  7.81633	  2.14426	 16.29847	 -0.63819	 19.52019	705.45203	 24.40	
 11.900	-90.000	 18.18266	  8.68022	  8.79881	  2.10969	 16.37003	 -0.64846	 19.52124	705.60901	 24.40	
 11.892	-98.155	 18.18731	  7.69585	  9.74045	  2.20238	 16.28013	 -0.63540	 19.51201	705.40900	 24.40	
 11.893	-106.346	 18.17314	  6.74992	 10.74757	  2.36395	 16.02682	 -0.62402	 19.49531	705.58099	 24.40	
 11.903	-114.597	 18.23231	  5.87095	 11.77345	  2.66972	 15.69208	 -0.58945	 19.55794	705.45801	 24.40	
 11.897	-122.732	 18.24324	  5.04158	 12.70401	  3.15581	 15.15917	 -0.53731	 19.55158	705.59198	 24.40	
 11.894	-130.867	 18.23982	  4.35049	 13.55557	  3.68960	 14.48306	 -0.51635	 19.52887	705.61798	 24.40	
 11.902	-139.148	 18.26278	  3.75959	 14.33975	  4.33911	 13.70050	 -0.50449	 19.53051	705.64600	 24.40	
 11.909	-147.299	 18.30308	  3.27323	 15.01544	  5.10276	 12.86404	 -0.50702	 19.55914	705.51099	 24.40	
 11.889	-155.445	 18.32525	  2.90862	 15.52611	  5.97776	 11.91676	 -0.52676	 19.55980	705.69098	 24.40	
 11.890	-163.610	 18.37099	  2.65571	 15.92915	  6.89907	 10.93395	 -0.54121	 19.58340	705.59198	 24.40	
 11.899	-171.783	 18.36789	  2.52582	 16.14149	  7.83288	  9.91854	 -0.54704	 19.56570	705.68597	 24.40	
 11.900	180.000	 18.34812	  2.50796	 16.17534	  8.78980	  8.93948	 -0.52800	 19.52466	705.52002	 24.40	
 13.600	180.000	 17.89521	  1.33882	 16.83403	  8.40377	  8.51925	 -0.68593	 19.52121	705.63000	 24.40	
 13.608	-172.853	 17.87988	  1.34286	 16.78571	  7.43832	  9.46590	 -0.71289	 19.52997	705.65503	 24.40	
 13.611	-165.583	 17.87021	  1.44904	 16.60030	  6.45257	 10.48895	 -0.72462	 19.53820	705.44098	 24.40	
 13.601	-158.353	 17.85923	  1.67697	 16.26546	  5.49970	 11.51072	 -0.70779	 19.54886	705.44397	 24.40	
 13.609	-151.210	 17.83389	  2.01917	 15.79804	  4.66891	 12.45998	 -0.67539	 19.53989	705.45099	 24.40	
 13.611	-143.999	 17.85814	  2.44046	 15.24264	  3.90037	 13.40202	 -0.66450	 19.58216	705.58197	 24.40	
 13.601	-136.825	 17.84217	  2.95539	 14.54128	  3.19794	 14.25208	 -0.64224	 19.57856	705.57300	 24.40	
 13.596	-129.640	 17.78905	  3.56042	 13.71385	  2.57837	 14.98560	 -0.64028	 19.54928	705.63397	 24.40	
 13.611	-122.431	 17.79427	  4.24818	 12.85298	  2.06293	 15.65737	 -0.67456	 19.56121	705.50500	 24.40	
 13.604	-115.211	 17.77303	  5.03254	 11.90053	  1.65193	 16.17639	 -0.70464	 19.55903	705.43298	 24.40	
 13.595	-108.042	 17.70987	  5.87470	 10.87871	  1.34644	 16.53616	 -0.73794	 19.49604	705.40100	 24.40	
 13.607	-100.793	 17.69853	  6.79255	  9.86260	  1.12169	 16.82865	 -0.75224	 19.50422	705.65997	 24.40	
 13.601	-93.617	 17.70793	  7.76026	  8.90628	  0.98733	 16.99685	 -0.73696	 19.52988	705.57599	 24.40	
 13.601	-86.383	 17.66364	  8.75495	  7.87543	  0.94532	 16.98524	 -0.71586	 19.49359	705.59198	 24.40	
 13.607	-79.207	 17.68378	  9.77319	  6.87339	  1.01189	 16.87965	 -0.71582	 19.51741	705.49200	 24.40	
 13.595	-71.958	 17.69082	 10.79890	  5.89417	  1.22694	 16.61083	 -0.71523	 19.52803	705.59003	 24.40	
 13.604	-64.789	 17.68113	 11.79344	  5.00820	  1.51788	 16.20971	 -0.71500	 19.51863	705.63000	 24.40	
 13.611	-57.569	 17.68005	 12.74976	  4.19634	  1.89649	 15.70116	 -0.72353	 19.52476	705.58398	 24.40	
 13.596	-50.360	 17.69912	 13.65807	  3.47506	  2.38288	 15.08627	 -0.68631	 19.54508	705.65997	 24.40	
 13.601	-43.175	 17.69694	 14.47381	  2.83548	  2.96730	 14.33802	 -0.65764	 19.54007	705.63000	 24.40	
 13.611	-36.001	 17.67583	 15.18365	  2.26166	  3.62391	 13.48094	 -0.63543	 19.51523	705.65698	 24.40	
 13.609	-28.790	 17.67984	 15.79042	  1.80946	  4.38301	 12.57929	 -0.60849	 19.51320	705.58197	 24.40	
 13.601	-21.647	 17.70240	 16.29037	  1.44111	  5.19349	 11.64124	 -0.59772	 19.53428	705.56097	 24.40	
 13.611	-14.417	 17.67232	 16.63535	  1.13462	  6.13609	 10.60538	 -0.61590	 19.50181	705.60901	 24.40	
 13.608	 -7.147	 17.69072	 16.87023	  0.96840	  7.11478	  9.59015	 -0.64219	 19.50917	705.52698	 24.40	
 13.600	  0.000	 17.68518	 16.94561	  0.92005	  8.05734	  8.65293	 -0.66589	 19.49212	705.57001	 24.40	
 13.608	  7.147	 17.72546	 16.94103	  0.93164	  9.08470	  7.71556	 -0.69249	 19.52443	705.49902	 24.40	
 13.611	 14.417	 17.72804	 16.77461	  1.04691	 10.10828	  6.74107	 -0.70983	 19.51985	705.59900	 24.40	
 13.601	 21.647	 17.74254	 16.45790	  1.29628	 11.11026	  5.79373	 -0.73447	 19.50277	705.49200	 24.40	
 13.609	 28.790	 17.74754	 16.01599	  1.63714	 12.08851	  4.93423	 -0.74466	 19.49261	705.66302	 24.40	
 13.611	 36.001	 17.79671	 15.49831	  2.10441	 13.03489	  4.17114	 -0.73489	 19.52709	705.69299	 24.40	
 13.601	 43.175	 17.82490	 14.82493	  2.68129	 13.87671	  3.52479	 -0.73829	 19.52278	705.68597	 24.40	
 13.596	 50.360	 17.86617	 14.07593	  3.32914	 14.67397	  2.91423	 -0.72098	 19.54996	705.67999	 24.40	
 13.611	 57.569	 17.85234	 13.20025	  4.03543	 15.33463	  2.38606	 -0.72736	 19.51917	705.68298	 24.40	
 13.604	 64.789	 17.86037	 12.27954	  4.79588	 15.89764	  1.93073	 -0.73406	 19.52477	705.55798	 24.40	
 13.595	 71.958	 17.90574	 11.32783	  5.70976	 16.34562	  1.61977	 -0.75818	 19.55224	705.64899	 24.40	
 13.607	 79.207	 17.95233	 10.34135	  6.70298	 16.66348	  1.43558	 -0.80611	 19.57767	705.71002	 24.40	
 13.601	 86.383	 17.94054	  9.34182	  7.70482	 16.79235	  1.34342	 -0.83639	 19.53876	705.59900	 24.40	
 13.601	 93.617	 17.92947	  8.37040	  8.72674	 16.79669	  1.33627	 -0.83661	 19.51075	705.64899	 24.30	
 13.607	100.793	 17.98911	  7.42387	  9.75682	 16.73459	  1.42100	 -0.83592	 19.56921	705.62097	 24.30	
 13.595	108.042	 17.97281	  6.44523	 10.72847	 16.45914	  1.61789	 -0.80945	 19.54127	705.60699	 24.40	
 13.604	115.211	 17.99276	  5.51276	 11.73662	 16.09960	  1.88947	 -0.76496	 19.56420	705.61298	 24.40	
 13.611	122.431	 18.01222	  4.66179	 12.70816	 15.59626	  2.29125	 -0.70244	 19.57556	705.61798	 24.30	
 13.596	129.640	 17.98975	  3.95083	 13.57106	 14.92595	  2.82950	 -0.67493	 19.52924	705.56097	 24.30	
 13.601	136.825	 17.98681	  3.26484	 14.39750	 14.18350	  3.39970	 -0.63858	 19.53639	705.63202	 24.40	
 13.611	143.999	 17.99991	  2.67074	 15.13858	 13.38165	  4.04714	 -0.60736	 19.55968	705.58099	 24.40	
 13.609	151.210	 17.98897	  2.18487	 15.74694	 12.47034	  4.84000	 -0.58532	 19.56630	705.57800	 24.30	
 13.601	158.353	 17.96014	  1.81442	 16.21202	 11.48293	  5.70573	 -0.57829	 19.54690	705.55103	 24.30	
 13.611	165.583	 17.96283	  1.55589	 16.57746	 10.48299	  6.57324	 -0.61062	 19.56371	705.56500	 24.30	
 13.608	172.853	 17.96909	  1.39905	 16.81653	  9.46176	  7.55305	 -0.65650	 19.57746	705.68597	 24.30	
 15.298	173.587	 17.40833	  0.24208	 17.37620	  9.01482	  7.04892	 -0.80441	 19.54204	705.56799	 24.40	
 15.291	167.167	 17.44365	  0.39167	 17.19041	 10.04070	  6.09592	 -0.75859	 19.55132	705.68799	 24.40	
 15.307	160.676	 17.47691	  0.64578	 16.89419	 11.07496	  5.17736	 -0.72274	 19.57434	705.54700	 24.40	
 15.300	154.261	 17.47586	  1.00026	 16.44090	 12.06483	  4.34136	 -0.71180	 19.55050	705.60699	 24.40	
 15.288	147.854	 17.50731	  1.41567	 15.89958	 13.00814	  3.58869	 -0.72440	 19.56788	705.57300	 24.40	
 15.293	141.428	 17.50642	  1.89620	 15.23986	 13.88196	  2.87588	 -0.76453	 19.56041	705.63702	 24.40	
 15.299	134.985	 17.48350	  2.45912	 14.46852	 14.68815	  2.23052	 -0.78901	 19.54153	705.60602	 24.40	
 15.305	128.583	 17.50346	  3.12394	 13.64083	 15.43684	  1.68853	 -0.80889	 19.56551	705.58398	 24.30	
 15.309	122.142	 17.48650	  3.85351	 12.73438	 16.04935	  1.22972	 -0.85170	 19.55255	705.62097	 24.30	
 15.304	115.711	 17.49959	  4.66474	 11.77986	 16.56161	  0.88671	 -0.88109	 19.56580	705.45801	 24.30	
 15.297	109.291	 17.47676	  5.51013	 10.77854	 16.95703	  0.54395	 -0.90066	 19.54754	705.55402	 24.30	
 15.293	102.897	 17.45918	  6.45757	  9.78304	 17.22644	  0.32110	 -0.92474	 19.54023	705.59003	 24.30	
 15.293	 96.458	 17.41344	  7.43372	  8.76268	 17.35069	  0.19396	 -0.93806	 19.50984	705.55103	 24.30	
 15.300	 90.000	 17.41365	  8.42222	  7.74182	 17.41210	  0.14970	 -0.95686	 19.53161	705.54700	 24.30	
 15.293	 83.542	 17.39815	  9.38910	  6.71389	 17.30764	  0.22885	 -0.94992	 19.52135	705.50500	 24.30	
 15.293	 77.103	 17.39342	 10.40732	  5.72123	 17.10900	  0.37415	 -0.91373	 19.53166	705.51898	 24.30	
 15.297	 70.709	 17.38301	 11.39554	  4.84044	 16.76649	  0.63696	 -0.87327	 19.52314	705.62402	 24.30	
 15.304	 64.289	 17.36154	 12.35731	  3.97922	 16.33280	  0.91872	 -0.84212	 19.52509	705.58197	 24.30	
 15.309	 57.858	 17.32693	 13.27391	  3.18156	 15.76874	  1.28880	 -0.84296	 19.51305	705.46600	 24.40	
 15.305	 51.417	 17.31887	 14.14137	  2.47208	 15.10906	  1.75499	 -0.83370	 19.52161	705.46503	 24.30	
 15.299	 45.015	 17.30428	 14.93164	  1.84190	 14.35264	  2.32016	 -0.84637	 19.52275	705.44897	 24.30	
 15.293	 38.572	 17.31481	 15.65931	  1.30118	 13.52412	  2.98473	 -0.84364	 19.55284	705.48901	 24.30	
 15.288	 32.146	 17.28337	 16.25410	  0.83382	 12.61509	  3.68992	 -0.83583	 19.54345	705.52802	 24.30	
 15.300	 25.739	 17.27168	 16.75502	  0.45180	 11.67613	  4.46663	 -0.81136	 19.55083	705.57001	 24.30	
 15.307	 19.324	 17.23274	 17.12094	  0.15527	 10.65973	  5.32304	 -0.78480	 19.53513	705.49200	 24.40	
 15.291	 12.833	 17.22163	 17.40372	 -0.09368	  9.64810	  6.25872	 -0.75283	 19.54654	705.39502	 24.30	
 15.298	  6.413	 17.18546	 17.52417	 -0.20510	  8.62793	  7.21558	 -0.73267	 19.52519	705.47998	 24.40	
 15.300	  0.000	 17.17087	 17.55425	 -0.24764	  7.62006	  8.26763	 -0.70505	 19.52448	705.46899	 24.40	
 15.298	 -6.413	 17.20196	 17.49544	 -0.13624	  6.63469	  9.18841	 -0.69250	 19.56280	705.51300	 24.40	
 15.291	-12.833	 17.21178	 17.30386	  0.01033	  5.68822	 10.20067	 -0.67385	 19.57821	705.58197	 24.30	
 15.307	-19.324	 17.17315	 16.94996	  0.23697	  4.75040	 11.19798	 -0.66983	 19.55027	705.48901	 24.30	
 15.300	-25.739	 17.14400	 16.48178	  0.55734	  3.91043	 12.15452	 -0.66201	 19.52092	705.57001	 24.30	
 15.288	-32.146	 17.14236	 15.92476	  0.95200	  3.13748	 13.09691	 -0.67827	 19.52227	705.42902	 24.30	
 15.293	-38.572	 17.14710	 15.27097	  1.43290	  2.44025	 13.98299	 -0.68481	 19.54311	705.59198	 24.30	
 15.299	-45.015	 17.12806	 14.50019	  1.99868	  1.80679	 14.78556	 -0.70689	 19.51344	705.54700	 24.30	
 15.305	-51.417	 17.14472	 13.67176	  2.64485	  1.28128	 15.51408	 -0.71907	 19.52566	705.41602	 24.30	
 15.309	-57.858	 17.15318	 12.78188	  3.35985	  0.83441	 16.14555	 -0.73336	 19.54232	705.49902	 24.30	
 15.304	-64.289	 17.13693	 11.80420	  4.15402	  0.46295	 16.64114	 -0.72650	 19.51019	705.48901	 24.30	
 15.297	-70.709	 17.12840	 10.80769	  5.01414	  0.18034	 17.04806	 -0.70957	 19.50512	705.60101	 24.30	
 15.293	-77.103	 17.12716	  9.79717	  5.92823	 -0.02533	 17.34371	 -0.71294	 19.50603	705.60699	 24.30	
 15.293	-83.542	 17.13505	  8.78457	  6.88757	 -0.14388	 17.52439	 -0.72015	 19.51273	705.57599	 24.30	
 15.300	-90.000	 17.14628	  7.77009	  7.91165	 -0.20970	 17.58995	 -0.73211	 19.52825	705.61298	 24.30	
 15.293	-96.458	 17.14813	  6.79003	  8.92681	 -0.12517	 17.50336	 -0.77285	 19.50422	705.60303	 24.30	
 15.293	-102.897	 17.15963	  5.85796	  9.93418	  0.03422	 17.31856	 -0.81159	 19.51755	705.43201	 24.30	
 15.297	-109.291	 17.16574	  4.96622	 10.93929	  0.26938	 17.00011	 -0.81413	 19.50550	705.42603	 24.30	
 15.304	-115.711	 17.24257	  4.14843	 11.96627	  0.58206	 16.63582	 -0.80749	 19.57460	705.51300	 24.30	
 15.309	-122.142	 17.21161	  3.38104	 12.87055	  0.98371	 16.04810	 -0.76699	 19.51690	705.46899	 24.30	
 15.305	-128.583	 17.20468	  2.69275	 13.73979	  1.47379	 15.37202	 -0.74747	 19.49304	705.58398	 24.30	
 15.299	-134.985	 17.24475	  2.08639	 14.57579	  2.03522	 14.67394	 -0.76447	 19.52180	705.72498	 24.30	
 15.293	-141.428	 17.27699	  1.55402	 15.33121	  2.70249	 13.85770	 -0.79549	 19.53408	705.60101	 24.30	
 15.288	-147.854	 17.30392	  1.13556	 15.97263	  3.44665	 12.97736	 -0.79533	 19.54522	705.62903	 24.30	
 15.300	-154.261	 17.30433	  0.77812	 16.49005	  4.23629	 12.02547	 -0.81563	 19.52229	705.47998	 24.30	
 15.307	-160.676	 17.34192	  0.51967	 16.91290	  5.09704	 11.06343	 -0.82579	 19.54023	705.60999	 24.30	
 15.291	-167.167	 17.38406	  0.34319	 17.22794	  6.05897	 10.03032	 -0.84295	 19.55881	705.58600	 24.30	
 15.298	-173.587	 17.37654	  0.23676	 17.38616	  7.00003	  9.05509	 -0.83018	 19.54142	705.55402	 24.30	
 15.300	180.000	 17.39102	  0.19575	 17.44014	  7.98420	  8.05268	 -0.81535	 19.54463	705.62097	 24.30	
 17.000	180.000	 16.82353	 -0.92461	 17.98691	  7.52902	  7.53022	 -0.90808	 19.55689	705.73401	 24.30	
 16.990	-174.179	 16.80663	 -0.91312	 17.93759	  6.54053	  8.52978	 -0.91974	 19.56258	705.56201	 24.30	
 17.009	-168.383	 16.77888	 -0.81405	 17.78185	  5.58708	  9.52748	 -0.91172	 19.55274	705.70801	 24.30	
 17.000	-162.596	 16.77476	 -0.65643	 17.52509	  4.66064	 10.54549	 -0.89280	 19.57021	705.66302	 24.30	
 16.990	-156.759	 16.77105	 -0.41980	 17.15316	  3.80188	 11.54831	 -0.89110	 19.58224	705.54199	 24.30	
 16.995	-150.919	 16.70726	 -0.11983	 16.63158	  2.98013	 12.48409	 -0.89891	 19.53258	705.56702	 24.30	
 16.988	-145.161	 16.74438	  0.26382	 16.09406	  2.22754	 13.45806	 -0.87182	 19.60063	705.61700	 24.30	
 17.014	-139.343	 16.66658	  0.69182	 15.37664	  1.52138	 14.28931	 -0.84954	 19.54231	705.61298	 24.30	
 17.007	-133.546	 16.64678	  1.22294	 14.61435	  0.93105	 15.06517	 -0.82978	 19.52992	705.59003	 24.30	
 17.001	-127.699	 16.65148	  1.82843	 13.81225	  0.38648	 15.81635	 -0.82313	 19.56337	705.44397	 24.30	
 17.006	-121.937	 16.63659	  2.50221	 12.92309	 -0.07990	 16.45499	 -0.83280	 19.56090	705.40399	 24.30	
 17.002	-116.134	 16.61142	  3.24474	 11.97138	 -0.47291	 16.97796	 -0.83819	 19.54960	705.51099	 24.30	
 17.001	-110.310	 16.60628	  4.04805	 10.99414	 -0.78597	 17.43409	 -0.83373	 19.56824	705.52197	 24.30	
 16.988	-104.517	 16.60967	  4.92325	  9.99406	 -0.99936	 17.76150	 -0.81613	 19.56075	705.53900	 24.30	
 17.008	-98.662	 16.53933	  5.80645	  8.97255	 -1.20435	 17.93690	 -0.74788	 19.51291	705.45801	 24.30	
 16.996	-92.909	 16.54370	  6.76045	  7.96635	 -1.28650	 18.06392	 -0.71611	 19.52256	705.67999	 24.30	
 16.996	-87.091	 16.56791	  7.76947	  6.94561	 -1.26877	 18.10423	 -0.69465	 19.55546	705.57001	 24.30	
 17.012	-81.253	 16.54125	  8.76932	  5.95129	 -1.22257	 17.99652	 -0.67862	 19.54216	705.49103	 24.30	
 16.988	-75.483	 16.55852	  9.78057	  5.03188	 -1.09212	 17.80826	 -0.65792	 19.56115	705.61700	 24.30	
 17.001	-69.690	 16.55304	 10.82461	  4.12888	 -0.89976	 17.50382	 -0.64798	 19.56413	705.60699	 24.30	
 17.002	-63.866	 16.54328	 11.80843	  3.28851	 -0.61571	 17.06845	 -0.66886	 19.54666	705.57599	 24.30	
 17.006	-58.063	 16.54796	 12.77550	  2.51662	 -0.25353	 16.54844	 -0.67461	 19.55212	705.47400	 24.30	
 17.001	-52.301	 16.53748	 13.67323	  1.81592	  0.18310	 15.90427	 -0.70521	 19.53638	705.59198	 24.30	
 17.007	-46.454	 16.53126	 14.52662	  1.16467	  0.68213	 15.19538	 -0.69771	 19.53073	705.48798	 24.30	
 17.014	-40.657	 16.52158	 15.29877	  0.59006	  1.25006	 14.40603	 -0.68973	 19.52308	705.53601	 24.30	
 16.988	-34.839	 16.54022	 15.96958	  0.12193	  1.92365	 13.54852	 -0.67210	 19.53272	705.29999	 24.30	
 16.995	-29.081	 16.52533	 16.55574	 -0.29876	  2.63580	 12.62566	 -0.67385	 19.50464	705.45801	 24.30	
 16.990	-23.241	 16.52572	 17.05943	 -0.64052	  3.43530	 11.65269	 -0.65989	 19.49031	705.48901	 24.30	
 17.000	-17.404	 16.56993	 17.51433	 -0.92600	  4.27930	 10.69554	 -0.65388	 19.54831	705.55103	 24.30	
 17.009	-11.617	 16.55859	 17.78623	 -1.12390	  5.18879	  9.67914	 -0.66670	 19.52331	705.49200	 24.30	
 16.990	 -5.821	 16.58247	 17.98551	 -1.28385	  6.13574	  8.79413	 -0.66942	 19.53362	705.66498	 24.30	
 17.000	  0.000	 16.60317	 18.10242	 -1.36775	  7.12124	  7.80149	 -0.67601	 19.57062	705.55798	 24.30	
 16.990	  5.821	 16.62181	 18.08389	 -1.33774	  8.14573	  6.77205	 -0.70716	 19.57043	705.38702	 24.30	
 17.009	 11.617	 16.62972	 17.94322	 -1.19008	  9.14568	  5.76155	 -0.74303	 19.55905	705.27802	 24.30	
 17.000	 17.404	 16.65442	 17.71151	 -1.00887	 10.15759	  4.86705	 -0.76111	 19.56782	705.43500	 24.30	
 16.990	 23.241	 16.66039	 17.35440	 -0.75986	 11.15038	  3.99859	 -0.79316	 19.54700	705.40900	 24.30	
 16.995	 29.081	 16.70647	 16.92727	 -0.43222	 12.14129	  3.20281	 -0.82974	 19.56918	705.35901	 24.30	
 16.988	 34.839	 16.71871	 16.37191	 -0.02577	 13.06313	  2.47388	 -0.89499	 19.56619	705.58099	 24.30	
 17.014	 40.657	 16.71113	 15.72033	  0.43824	 13.95109	  1.77631	 -0.89577	 19.54789	705.47400	 24.30	
 17.007	 46.454	 16.74810	 15.00455	  0.98683	 14.78571	  1.17449	 -0.91018	 19.56310	705.36499	 24.30	
 17.001	 52.301	 16.72276	 14.15599	  1.61980	 15.48493	  0.66364	 -0.91104	 19.51069	705.55298	 24.30	
 17.006	 58.063	 16.76417	 13.31136	  2.31574	 16.15980	  0.22167	 -0.92121	 19.53790	705.38800	 24.30	
 17.002	 63.866	 16.71590	 12.34918	  3.06191	 16.66777	 -0.15417	 -0.93270	 19.47318	705.47198	 24.30	
 17.001	 69.690	 16.78108	 11.42368	  3.89354	 17.18665	 -0.45813	 -0.95940	 19.52504	705.45697	 24.30	
 16.988	 75.483	 16.78428	 10.42060	  4.77758	 17.52159	 -0.67211	 -0.98654	 19.51111	705.45099	 24.30	
 17.012	 81.253	 16.81951	  9.43525	  5.69165	 17.79523	 -0.84039	 -0.99742	 19.54384	705.49103	 24.30	
 16.996	 87.091	 16.79729	  8.41379	  6.66906	 17.88936	 -0.94515	 -0.97896	 19.50442	705.50000	 24.30	
 16.996	 92.909	 16.82008	  7.41443	  7.70056	 17.92651	 -0.97600	 -0.94264	 19.50868	705.37000	 24.30	
 17.008	 98.662	 16.83709	  6.44361	  8.71720	 17.85738	 -0.91000	 -0.91220	 19.51663	705.54401	 24.20	
 16.988	104.517	 16.86703	  5.52435	  9.75000	 17.65845	 -0.71086	 -0.90083	 19.52668	705.38098	 24.30	
 17.001	110.310	 16.88825	  4.62962	 10.75064	 17.36851	 -0.48844	 -0.89651	 19.53781	705.40100	 24.20	
 17.002	116.134	 16.92243	  3.80330	 11.76202	 16.97260	 -0.19129	 -0.90215	 19.56185	705.43298	 24.20	
 17.006	121.937	 16.93263	  3.01696	 12.72340	 16.45561	  0.16324	 -0.88916	 19.55972	705.56799	 24.20	
 17.001	127.699	 16.93604	  2.30924	 13.63031	 15.84963	  0.59183	 -0.88281	 19.56586	705.63202	 24.20	
 17.007	133.546	 16.95485	  1.64472	 14.50614	 15.16191	  1.07750	 -0.87776	 19.59343	705.46899	 24.20	
 17.014	139.343	 16.91483	  1.06645	 15.25375	 14.32595	  1.67710	 -0.85388	 19.53537	705.42700	 24.20	
 16.988	145.161	 16.93207	  0.58652	 15.96322	 13.46742	  2.35515	 -0.82718	 19.55763	705.43500	 24.20	
 16.995	150.919	 16.92692	  0.15303	 16.56317	 12.57115	  3.06052	 -0.83377	 19.56685	705.47998	 24.20	
 16.990	156.759	 16.91315	 -0.20984	 17.07096	 11.60204	  3.83749	 -0.83278	 19.56305	705.61798	 24.20	
 17.000	162.596	 16.86528	 -0.48324	 17.43586	 10.56791	  4.69686	 -0.85919	 19.53303	705.46002	 24.20	
 17.009	168.383	 16.85668	 -0.70705	 17.74612	  9.55714	  5.58662	 -0.89901	 19.54939	705.39301	 24.20	
 16.990	174.179	 16.86523	 -0.86196	 17.94328	  8.56352	  6.53075	 -0.88877	 19.58163	705.31403	 24.20	
 18.709	174.675	 16.19688	 -1.92742	 18.37711	  8.03530	  5.99129	 -0.94632	 19.55193	705.38800	 24.20	
 18.703	169.441	 16.20820	 -1.80696	 18.20797	  9.02084	  5.06365	 -0.95092	 19.53348	705.35901	 24.20	
 18.691	164.085	 16.20786	 -1.62508	 17.92284	 10.03941	  4.16410	 -0.92804	 19.51036	705.39801	 24.20	
 18.706	158.818	 16.23724	 -1.38310	 17.58328	 11.05168	  3.31286	 -0.92179	 19.53575	705.43298	 24.20	
 18.695	153.537	 16.24576	 -1.06622	 17.11835	 12.00702	  2.54893	 -0.91619	 19.51871	705.43500	 24.20	
 18.704	148.255	 16.29186	 -0.70262	 16.60797	 12.97915	  1.81542	 -0.91380	 19.57109	705.46002	 24.20	
 18.698	142.952	 16.27271	 -0.25803	 15.93638	 13.86522	  1.13306	 -0.91598	 19.54075	705.38800	 24.20	
 18.699	137.625	 16.30090	  0.25672	 15.22455	 14.72613	  0.51880	 -0.91104	 19.56331	705.38501	 24.20	
 18.705	132.343	 16.31805	  0.81783	 14.44951	 15.50628	 -0.01908	 -0.90967	 19.57752	705.51599	 24.20	
 18.713	127.067	 16.30169	  1.44458	 13.58399	 16.19834	 -0.50117	 -0.90642	 19.57409	705.48499	 24.20	
 18.700	121.794	 16.31797	  2.14906	 12.67537	 16.83544	 -0.90926	 -0.88844	 19.59966	705.40997	 24.20	
 18.698	116.504	 16.27616	  2.91029	 11.69208	 17.32037	 -1.25849	 -0.86680	 19.55715	705.52698	 24.20	
 18.707	111.165	 16.29829	  3.74511	 10.71221	 17.78559	 -1.54361	 -0.84739	 19.60310	705.36200	 24.20	
 18.690	105.863	 16.26159	  4.60890	  9.70007	 18.06275	 -1.75152	 -0.82829	 19.55665	705.44098	 24.20	
 18.696	100.583	 16.25245	  5.51295	  8.68493	 18.29048	 -1.91772	 -0.81909	 19.57003	705.47998	 24.20	
 18.700	 95.309	 16.25261	  6.45996	  7.67975	 18.42781	 -1.99586	 -0.85804	 19.58818	705.55798	 24.20	
 18.700	 90.000	 16.22265	  7.43544	  6.65337	 18.41642	 -1.99708	 -0.89849	 19.56202	705.59198	 24.20	
 18.700	 84.691	 16.20614	  8.42796	  5.68458	 18.33850	 -1.93498	 -0.94282	 19.55995	705.40198	 24.20	
 18.696	 79.417	 16.19927	  9.43374	  4.74288	 18.18545	 -1.83413	 -0.98509	 19.57099	705.59497	 24.20	
 18.690	 74.137	 16.18214	 10.41925	  3.84912	 17.91010	 -1.68710	 -0.98808	 19.56440	705.50500	 24.20	
 18.707	 68.835	 16.15422	 11.40492	  2.97898	 17.53278	 -1.47618	 -1.00366	 19.56373	705.54498	 24.20	
 18.698	 63.496	 16.14553	 12.37306	  2.17673	 17.05523	 -1.18789	 -0.99981	 19.55985	705.44897	 24.20	
 18.700	 58.206	 16.14095	 13.28777	  1.44036	 16.50227	 -0.84071	 -0.98096	 19.56933	705.49902	 24.20	
 18.713	 52.933	 16.14530	 14.19393	  0.76275	 15.86342	 -0.40858	 -0.95598	 19.59387	705.49597	 24.20	
 18.705	 47.657	 16.12534	 15.00021	  0.15114	 15.11734	  0.10017	 -0.93806	 19.58187	705.56097	 24.20	
 18.699	 42.375	 16.10132	 15.73975	 -0.39357	 14.31713	  0.64461	 -0.91427	 19.58252	705.54700	 24.20	
 18.698	 37.048	 16.07403	 16.41093	 -0.88416	 13.43775	  1.27503	 -0.85778	 19.57482	705.42902	 24.20	
 18.704	 31.745	 16.01197	 16.95165	 -1.29155	 12.47646	  1.96560	 -0.80403	 19.51358	705.44897	 24.20	
 18.695	 26.463	 15.99290	 17.44192	 -1.62926	 11.52589	  2.71573	 -0.76626	 19.51715	705.46503	 24.20	
 18.706	 21.182	 16.04939	 17.94042	 -1.92825	 10.60890	  3.53011	 -0.74217	 19.62185	705.30298	 24.20	
 18.691	 15.915	 15.99682	 18.19992	 -2.13736	  9.59241	  4.37533	 -0.67685	 19.57430	705.47198	 24.20	
 18.703	 10.559	 15.99473	 18.43692	 -2.28643	  8.58853	  5.29038	 -0.66036	 19.59606	705.37000	 24.20	
 18.709	  5.325	 15.93135	 18.49479	 -2.36024	  7.58305	  6.18676	 -0.64508	 19.53724	705.51599	 24.20	
 18.700	  0.000	 15.94118	 18.51497	 -2.36749	  6.59459	  7.17867	 -0.63061	 19.55017	705.50500	 24.20	
 18.709	 -5.325	 15.92134	 18.45228	 -2.39696	  5.61413	  8.25373	 -0.60516	 19.55653	705.59302	 24.20	
 18.703	-10.559	 15.93910	 18.30322	 -2.27819	  4.69694	  9.25395	 -0.62304	 19.58868	705.53601	 24.20	
 18.691	-15.915	 15.93984	 18.02400	 -2.04824	  3.78490	 10.21163	 -0.63957	 19.57767	705.50299	 24.20	
 18.706	-21.182	 15.92245	 17.66113	 -1.81868	  2.93943	 11.17909	 -0.63224	 19.57849	705.40198	 24.20	
 18.695	-26.463	 15.90724	 17.19513	 -1.51235	  2.14474	 12.14573	 -0.62815	 19.57067	705.40900	 24.20	
 18.704	-31.745	 15.94134	 16.69009	 -1.15751	  1.40001	 13.11163	 -0.62332	 19.61763	705.33899	 24.20	
 18.698	-37.048	 15.87329	 15.97975	 -0.71281	  0.73732	 13.95069	 -0.63235	 19.54123	705.34198	 24.20	
 18.699	-42.375	 15.88912	 15.27083	 -0.22262	  0.13282	 14.79196	 -0.62025	 19.56266	705.33099	 24.20	
 18.705	-47.657	 15.85678	 14.45346	  0.33736	 -0.41087	 15.51576	 -0.63130	 19.52530	705.41302	 24.20	
 18.713	-52.933	 15.83619	 13.58215	  0.95817	 -0.89080	 16.20568	 -0.63482	 19.51611	705.46100	 24.20	
 18.700	-58.206	 15.86780	 12.68493	  1.66403	 -1.28832	 16.83211	 -0.60985	 19.53899	705.54199	 24.20	
 18.698	-63.496	 15.88397	 11.73803	  2.41976	 -1.62020	 17.35478	 -0.61797	 19.53852	705.56500	 24.20	
 18.707	-68.835	 15.91103	 10.77911	  3.23432	 -1.90046	 17.82490	 -0.60417	 19.58444	705.43298	 24.20	
 18.690	-74.137	 15.90299	  9.75728	  4.11550	 -2.09679	 18.13773	 -0.58759	 19.56251	705.58698	 24.20	
 18.696	-79.417	 15.91747	  8.74959	  5.01947	 -2.25264	 18.39057	 -0.61094	 19.58588	705.59900	 24.20	
 18.700	-84.691	 15.87519	  7.72126	  5.95654	 -2.33204	 18.47263	 -0.63356	 19.53315	705.44397	 24.20	
 18.700	-90.000	 15.93987	  6.76375	  6.96186	 -2.35259	 18.57546	 -0.64350	 19.60188	705.50500	 24.20	
 18.700	-95.309	 15.93085	  5.75575	  7.95561	 -2.32858	 18.50604	 -0.65664	 19.58888	705.44897	 24.20	
 18.696	-100.583	 15.91236	  4.83064	  8.95674	 -2.21393	 18.32512	 -0.70663	 19.55455	705.51398	 24.20	
 18.690	-105.863	 15.92248	  3.95457	  9.95388	 -2.00971	 18.05556	 -0.76256	 19.54043	705.46503	 24.20	
 18.707	-111.165	 15.90191	  3.11221	 10.92476	 -1.78440	 17.68855	 -0.79973	 19.50902	705.56097	 24.20	
 18.698	-116.504	 15.94709	  2.34093	 11.92831	 -1.47772	 17.27256	 -0.83860	 19.54396	705.58099	 24.20	
 18.700	-121.794	 15.95950	  1.61377	 12.86694	 -1.12127	 16.75395	 -0.85899	 19.55930	705.52698	 24.20	
 18.713	-127.067	 15.96218	  0.95051	 13.75723	 -0.69407	 16.10672	 -0.86590	 19.54222	705.56500	 24.20	
 18.705	-132.343	 15.97044	  0.36003	 14.58740	 -0.17243	 15.38229	 -0.88212	 19.51324	705.54498	 24.20	
 18.699	-137.625	 16.02403	 -0.14998	 15.38162	  0.40695	 14.62832	 -0.88536	 19.55473	705.51099	 24.20	
 18.698	-142.952	 16.04914	 -0.59891	 16.08652	  1.04242	 13.79506	 -0.90738	 19.55994	705.56500	 24.20	
 18.704	-148.255	 16.07764	 -1.00442	 16.72354	  1.73999	 12.90379	 -0.91013	 19.57868	705.55402	 24.20	
 18.695	-153.537	 16.09872	 -1.31280	 17.24858	  2.51643	 11.95006	 -0.90780	 19.57409	705.43701	 24.20	
 18.706	-158.818	 16.12199	 -1.59690	 17.70798	  3.32364	 10.98225	 -0.90528	 19.59595	705.46503	 24.20	
 18.691	-164.085	 16.13564	 -1.79257	 18.02178	  4.17812	  9.99001	 -0.91492	 19.57146	705.52002	 24.20	
 18.703	-169.441	 16.17443	 -1.91817	 18.28811	  5.11676	  8.97850	 -0.91298	 19.59910	705.51398	 24.20	
 18.709	-174.675	 16.18361	 -1.97998	 18.41899	  6.05461	  7.98635	 -0.93943	 19.58057	705.53699	 24.20	
 18.700	180.000	 16.17977	 -1.97143	 18.43099	  7.02531	  6.98776	 -0.94746	 19.54583	705.42401	 24.20	
 20.400	180.000	 15.46003	 -3.04351	 18.79896	  6.47746	  6.39604	 -0.90321	 19.54152	705.48199	 24.20	
 20.401	-175.153	 15.47143	 -3.04863	 18.79494	  5.54016	  7.37782	 -0.87800	 19.56973	705.44000	 24.20	
 20.407	-170.264	 15.45348	 -3.00718	 18.68662	  4.59896	  8.36273	 -0.87108	 19.59165	705.39001	 24.20	
 20.410	-165.423	 15.42137	 -2.89524	 18.45712	  3.68004	  9.35984	 -0.84473	 19.57975	705.45502	 24.20	
 20.392	-160.496	 15.40113	 -2.71465	 18.13250	  2.81948	 10.35149	 -0.85184	 19.56736	705.60999	 24.20	
 20.401	-155.705	 15.38810	 -2.49303	 17.75020	  2.02909	 11.32220	 -0.86288	 19.57777	705.57501	 24.20	
 20.405	-150.835	 15.32556	 -2.20161	 17.22481	  1.23510	 12.24599	 -0.86842	 19.53321	705.49103	 24.20	
 20.397	-145.903	 15.30596	 -1.85863	 16.64175	  0.52604	 13.16397	 -0.89560	 19.53123	705.51898	 24.20	
 20.392	-141.062	 15.29588	 -1.46130	 16.00638	 -0.10925	 14.03960	 -0.90901	 19.53317	705.59497	 24.20	
 20.396	-136.227	 15.26786	 -1.01002	 15.27855	 -0.70726	 14.86507	 -0.89919	 19.52488	705.42700	 24.20	
 20.408	-131.372	 15.24644	 -0.51506	 14.50026	 -1.26991	 15.63851	 -0.88695	 19.54374	705.54401	 24.20	
 20.410	-126.511	 15.26893	  0.08564	 13.68771	 -1.72787	 16.37350	 -0.87194	 19.58140	705.44299	 24.20	
 20.400	-121.604	 15.26819	  0.73297	 12.79595	 -2.13367	 16.99920	 -0.84989	 19.59331	705.42902	 24.20	
 20.403	-116.741	 15.22794	  1.43696	 11.82971	 -2.49211	 17.52100	 -0.81229	 19.55950	705.59802	 24.20	
 20.413	-111.900	 15.20060	  2.16768	 10.86148	 -2.78971	 17.96915	 -0.74324	 19.55858	705.45099	 24.20	
 20.398	-107.004	 15.20266	  2.97615	  9.87343	 -3.03061	 18.33889	 -0.69735	 19.55900	705.51599	 24.20	
 20.394	-102.132	 15.18620	  3.83490	  8.85958	 -3.20393	 18.60369	 -0.62952	 19.55986	705.46503	 24.20	
 20.403	-97.332	 15.19095	  4.71425	  7.89614	 -3.34025	 18.80993	 -0.60959	 19.57898	705.51599	 24.20	
 20.392	-92.440	 15.15031	  5.63802	  6.87917	 -3.39240	 18.85591	 -0.57203	 19.53212	705.45099	 24.20	
 20.392	-87.560	 15.18930	  6.65185	  5.91252	 -3.42815	 18.93277	 -0.56277	 19.60478	705.52802	 24.20	
 20.403	-82.668	 15.14765	  7.62468	  4.94757	 -3.39450	 18.82610	 -0.57662	 19.56601	705.51599	 24.20	
 20.394	-77.868	 15.17378	  8.61643	  4.05514	 -3.28640	 18.68806	 -0.57540	 19.59182	705.41998	 24.20	
 20.398	-72.996	 15.15260	  9.61699	  3.16650	 -3.13348	 18.41389	 -0.51999	 19.55912	705.50299	 24.20	
 20.413	-68.100	 15.17255	 10.63189	  2.32511	 -2.93096	 18.09433	 -0.54405	 19.59393	705.46002	 24.20	
 20.403	-63.259	 15.18128	 11.60888	  1.55336	 -2.65077	 17.65543	 -0.56280	 19.58903	705.53601	 24.20	
 20.400	-58.396	 15.17082	 12.55985	  0.82107	 -2.32109	 17.12366	 -0.58166	 19.57917	705.48798	 24.20	
 20.410	-53.489	 15.15780	 13.47617	  0.12115	 -1.94076	 16.52385	 -0.56399	 19.57093	705.54999	 24.20	
 20.408	-48.628	 15.12122	 14.31183	 -0.49929	 -1.50767	 15.82077	 -0.58502	 19.53400	705.50598	 24.20	
 20.396	-43.773	 15.15354	 15.13841	 -1.05180	 -0.99993	 15.08965	 -0.58198	 19.56304	705.53003	 24.20	
 20.392	-38.938	 15.15494	 15.88052	 -1.53547	 -0.42600	 14.27478	 -0.59780	 19.55987	705.37903	 24.20	
 20.397	-34.097	 15.19482	 16.59304	 -1.96897	  0.18623	 13.44868	 -0.59470	 19.59834	705.51398	 24.20	
 20.405	-29.165	 15.18954	 17.18439	 -2.35927	  0.86968	 12.51923	 -0.58743	 19.59937	705.67902	 24.20	
 20.401	-24.295	 15.17573	 17.67815	 -2.67103	  1.62408	 11.55319	 -0.60125	 19.56319	705.46899	 24.20	
 20.392	-19.504	 15.19189	 18.08669	 -2.92352	  2.41491	 10.59319	 -0.57541	 19.56377	705.46503	 24.20	
 20.410	-14.577	 15.16486	 18.39720	 -3.17109	  3.25150	  9.63802	 -0.57582	 19.53435	705.47498	 24.20	
 20.407	 -9.736	 15.17773	 18.65363	 -3.34148	  4.13294	  8.66792	 -0.55964	 19.54236	705.40900	 24.20	
 20.401	 -4.847	 15.21460	 18.83516	 -3.43457	  5.05678	  7.67005	 -0.56303	 19.57761	705.53699	 24.20	
 20.400	  0.000	 15.24537	 18.93524	 -3.43082	  6.02298	  6.66727	 -0.57555	 19.59909	705.32501	 24.20	
 20.401	  4.847	 15.21941	 18.88307	 -3.42374	  6.98141	  5.69022	 -0.56605	 19.56022	705.41998	 24.20	
 20.407	  9.736	 15.24919	 18.80206	 -3.35302	  7.96696	  4.77028	 -0.58475	 19.57633	705.40198	 24.20	
 20.410	 14.577	 15.26400	 18.62559	 -3.23304	  8.95647	  3.89406	 -0.61748	 19.57535	705.41998	 24.20	
 20.392	 19.504	 15.30190	 18.36461	 -3.04124	  9.98320	  3.01075	 -0.64864	 19.59345	705.38202	 24.20	
 20.401	 24.295	 15.32273	 18.00333	 -2.80236	 10.94490	  2.23006	 -0.69953	 19.58924	705.31097	 24.20	
 20.405	 29.165	 15.33312	 17.53677	 -2.50019	 11.90125	  1.47155	 -0.72524	 19.57724	705.29401	 24.20	
 20.397	 34.097	 15.35824	 16.99588	 -2.13104	 12.87291	  0.74903	 -0.79136	 19.58967	705.34698	 24.20	
 20.392	 38.938	 15.34564	 16.34120	 -1.71308	 13.73247	  0.10413	 -0.82228	 19.54339	705.32501	 24.20	
 20.396	 43.773	 15.40569	 15.68719	 -1.23413	 14.61035	 -0.46782	 -0.86963	 19.59031	705.34198	 24.20	
 20.408	 48.628	 15.40410	 14.91225	 -0.69907	 15.40210	 -1.01956	 -0.91656	 19.58457	705.23199	 24.10	
 20.410	 53.489	 15.39513	 14.07422	 -0.11332	 16.10402	 -1.49600	 -0.96161	 19.55931	705.23602	 24.20	
 20.400	 58.396	 15.43668	 13.20991	  0.55634	 16.77539	 -1.89176	 -0.98192	 19.59768	705.44702	 24.10	
 20.403	 63.259	 15.42697	 12.26697	  1.27215	 17.31178	 -2.21406	 -1.00275	 19.55615	705.37097	 24.10	
 20.413	 68.100	 15.44312	 11.33006	  2.02868	 17.79485	 -2.48166	 -0.99775	 19.56249	705.32501	 24.10	
 20.398	 72.996	 15.45463	 10.34234	  2.86182	 18.17861	 -2.70104	 -0.95698	 19.56610	705.42401	 24.10	
 20.394	 77.868	 15.45971	  9.34744	  3.73829	 18.46030	 -2.84567	 -0.92208	 19.55043	705.30298	 24.10	
 20.403	 82.668	 15.49938	  8.38178	  4.64551	 18.68451	 -2.96812	 -0.85936	 19.57133	705.34003	 24.10	
 20.392	 87.560	 15.52432	  7.39603	  5.60503	 18.79909	 -3.02426	 -0.80842	 19.57711	705.38098	 24.10	
 20.392	 92.440	 15.56530	  6.43014	  6.59861	 18.85450	 -3.04171	 -0.75287	 19.60883	705.39001	 24.10	
 20.403	 97.332	 15.55183	  5.46868	  7.58204	 18.76674	 -3.00678	 -0.73605	 19.57648	705.44702	 24.10	
 20.394	102.132	 15.57115	  4.56351	  8.58461	 18.61925	 -2.90931	 -0.72584	 19.57848	705.46503	 24.10	
 20.398	107.004	 15.57525	  3.67394	  9.60218	 18.37168	 -2.75990	 -0.75052	 19.57895	705.49103	 24.10	
 20.413	111.900	 15.55729	  2.83033	 10.58019	 18.00224	 -2.54272	 -0.75232	 19.54278	705.44098	 24.10	
 20.403	116.741	 15.57095	  2.04458	 11.56673	 17.58972	 -2.28142	 -0.79574	 19.54955	705.41602	 24.10	
 20.400	121.604	 15.61030	  1.28863	 12.55397	 17.11429	 -1.96539	 -0.82531	 19.59355	705.50800	 24.20	
 20.410	126.511	 15.60809	  0.59306	 13.47198	 16.49642	 -1.58068	 -0.85609	 19.58410	705.57800	 24.10	
 20.408	131.372	 15.58769	 -0.02827	 14.32027	 15.77893	 -1.12522	 -0.87012	 19.54850	705.39801	 24.20	
 20.396	136.227	 15.61800	 -0.55902	 15.14098	 15.03439	 -0.59399	 -0.90025	 19.56614	705.38501	 24.10	
 20.392	141.062	 15.61502	 -1.06336	 15.87498	 14.22832	 -0.04124	 -0.90768	 19.56267	705.50598	 24.10	
 20.397	145.903	 15.60321	 -1.51716	 16.54231	 13.35948	  0.57372	 -0.92162	 19.56174	705.48499	 24.10	
 20.405	150.835	 15.57528	 -1.91772	 17.13496	 12.40843	  1.25665	 -0.94131	 19.54343	705.46100	 24.10	
 20.401	155.705	 15.62430	 -2.27107	 17.71307	 11.48750	  2.00951	 -0.93443	 19.62339	705.51898	 24.10	
 20.392	160.496	 15.56125	 -2.50636	 18.05928	 10.50479	  2.77547	 -0.93075	 19.55558	705.40100	 24.10	
 20.410	165.423	 15.53482	 -2.73205	 18.38687	  9.47410	  3.64265	 -0.93118	 19.54355	705.40900	 24.10	
 20.407	170.264	 15.55888	 -2.89736	 18.66674	  8.50234	  4.53611	 -0.92020	 19.60405	705.51099	 24.10	
 20.401	175.153	 15.50180	 -3.00310	 18.76711	  7.49125	  5.43755	 -0.90474	 19.56145	705.52802	 24.10	
  0.141	 45.000	 19.60298	 10.36151	  9.99922	 10.08108	 10.31109	  0.20130	 19.55567	705.50500	 24.10	
  4.001	128.691	 19.55016	  8.80802	 11.36207	 11.76420	  8.47404	  0.12834	 19.55299	705.42102	 24.10	
  4.002	 76.995	 19.52882	 10.72522	  9.39063	 12.19070	  8.10927	  0.08584	 19.53810	705.32300	 24.10	
  4.002	 25.892	 19.52867	 12.35610	  7.93414	 10.85639	  9.25428	  0.09711	 19.57214	705.50500	 24.10	
  4.002	-25.892	 19.54418	 12.31612	  7.97678	  8.85638	 11.27526	  0.11084	 19.60369	705.56702	 24.10	
  4.002	-76.995	 19.53932	 10.59690	  9.43660	  7.75154	 12.56660	  0.07282	 19.59348	705.51898	 24.10	
  4.001	-128.691	 19.55690	  8.69980	 11.43053	  8.21108	 12.06151	  0.08111	 19.58945	705.54199	 24.10	
  4.000	180.000	 19.56083	  7.98284	 12.35708	  9.87788	 10.18608	  0.13925	 19.58149	705.46899	 24.10	
  8.000	180.000	 19.15006	  5.23505	 14.46189	  9.45596	  9.64002	 -0.14583	 19.57096	705.34998	 24.10	
  7.991	-152.370	 19.13180	  5.61060	 13.90345	  7.42815	 11.91645	 -0.16139	 19.58031	705.40601	 24.10	
  7.997	-124.550	 19.10191	  6.94944	 12.26180	  5.73587	 13.78006	 -0.19452	 19.58091	705.44897	 24.10	
  8.006	-96.837	 19.06633	  8.91827	 10.00846	  4.96573	 14.66506	 -0.25352	 19.56587	705.43500	 24.20	
  7.988	-69.228	 19.05788	 11.22207	  7.89716	  5.14535	 14.39245	 -0.26059	 19.57931	705.44299	 24.10	
  7.997	-41.563	 19.04987	 13.27923	  6.02774	  6.28016	 13.01437	 -0.19551	 19.57549	705.51599	 24.20	
  8.008	-13.821	 19.06358	 14.50384	  5.04559	  8.20850	 10.85859	 -0.15355	 19.58581	705.49200	 24.20	
  8.008	 13.821	 19.06204	 14.54121	  5.01119	 10.40569	  8.68591	 -0.18415	 19.55687	705.43701	 24.20	
  7.997	 41.563	 19.08764	 13.45897	  5.94717	 12.57549	  6.82725	 -0.20547	 19.54129	705.54999	 24.20	
  7.988	 69.228	 19.17335	 11.52504	  7.79212	 14.07558	  5.63428	 -0.20176	 19.58379	705.45697	 24.20	
  8.006	 96.837	 19.18579	  9.27932	  9.93392	 14.40824	  5.38303	 -0.21217	 19.57514	705.46002	 24.20	
  7.997	124.550	 19.21096	  7.27862	 12.17613	 13.59118	  6.08762	 -0.16098	 19.58791	705.43500	 24.20	
  7.991	152.370	 19.21431	  5.80328	 13.85965	 11.75875	  7.69172	 -0.09788	 19.59732	705.44000	 24.20	
 12.009	161.059	 18.39745	  2.76700	 15.81286	 11.16104	  6.77680	 -0.44073	 19.55564	705.48297	 24.20	
 12.013	142.081	 18.40221	  3.74979	 14.54857	 13.36311	  4.78397	 -0.45772	 19.54850	705.36700	 24.20	
 12.006	123.113	 18.39331	  5.39790	 12.63304	 15.04318	  3.36579	 -0.55274	 19.54098	705.49902	 24.20	
 12.007	104.200	 18.38646	  7.50662	 10.35213	 16.01960	  2.60989	 -0.65803	 19.54083	705.48297	 24.20	
 11.989	 85.301	 18.36091	  9.72345	  8.01399	 16.15278	  2.54676	 -0.66401	 19.53484	705.52197	 24.20	
 12.013	 66.294	 18.34472	 12.08023	  5.75978	 15.48557	  3.01968	 -0.57999	 19.56162	705.33698	 24.20	
 12.012	 47.388	 18.28966	 14.10430	  3.91317	 14.01651	  4.12434	 -0.58317	 19.54948	705.40198	 24.20	
 11.990	 28.440	 18.29017	 15.62678	  2.66000	 12.02268	  5.83114	 -0.59642	 19.59934	705.31097	 24.20	
 11.991	  9.464	 18.23847	 16.35246	  2.07865	  9.68269	  7.96554	 -0.57525	 19.58131	705.38202	 24.20	
 11.991	 -9.464	 18.20594	 16.27878	  2.11346	  7.39108	 10.17101	 -0.51095	 19.57240	705.33398	 24.20	
 11.990	-28.440	 18.18293	 15.38652	  2.77854	  5.22040	 12.49483	 -0.48457	 19.57258	705.38702	 24.20	
 12.012	-47.388	 18.17814	 13.77083	  4.09686	  3.56088	 14.44902	 -0.56572	 19.55478	705.36700	 24.10	
 12.013	-66.294	 18.19464	 11.65183	  5.93936	  2.44435	 15.84826	 -0.62478	 19.58660	705.34698	 24.20	
 11.989	-85.301	 18.22919	  9.29103	  8.23892	  2.06670	 16.44347	 -0.63721	 19.60048	705.32300	 24.10	
 12.007	-104.200	 18.24338	  6.98617	 10.53289	  2.25199	 16.22287	 -0.61342	 19.59449	705.34998	 24.20	
 12.006	-123.113	 18.22085	  4.97271	 12.76056	  3.10646	 15.16372	 -0.52621	 19.54367	705.37799	 24.10	
 12.013	-142.081	 18.29357	  3.51441	 14.66318	  4.55387	 13.44733	 -0.50000	 19.58393	705.53699	 24.20	
 12.009	-161.059	 18.34312	  2.63448	 15.88966	  6.56257	 11.24029	 -0.54500	 19.58845	705.41302	 24.20	
 16.000	180.000	 17.19827	 -0.27773	 17.71685	  7.81524	  7.85677	 -0.85931	 19.58594	705.30298	 24.10	
 15.990	-165.604	 17.17756	 -0.08839	 17.42394	  5.55106	 10.20621	 -0.87464	 19.59718	705.39001	 24.10	
 16.002	-151.165	 17.12967	  0.49519	 16.48964	  3.51105	 12.52027	 -0.84667	 19.60294	705.38098	 24.10	
 16.002	-136.836	 17.07781	  1.50128	 14.97254	  1.81339	 14.59187	 -0.79774	 19.60354	705.29901	 24.10	
 15.995	-122.439	 17.04939	  2.98083	 13.00232	  0.58007	 16.22970	 -0.78493	 19.60834	705.39600	 24.20	
 15.993	-107.966	 17.00129	  4.85094	 10.70775	 -0.24849	 17.34561	 -0.81511	 19.58677	705.42603	 24.10	
 16.005	-93.629	 16.96970	  6.99789	  8.35216	 -0.65712	 17.85541	 -0.74678	 19.60316	705.47198	 24.10	
 15.992	-79.234	 16.94910	  9.34642	  6.01598	 -0.55476	 17.71066	 -0.68922	 19.59665	705.29401	 24.10	
 16.009	-64.774	 16.91854	 11.74175	  3.89465	 -0.05149	 16.93465	 -0.67349	 19.57467	705.27502	 24.10	
 15.997	-50.364	 16.95667	 13.94289	  2.15799	  0.92588	 15.58231	 -0.70246	 19.59602	705.27802	 24.10	
 15.997	-36.045	 16.92910	 15.69840	  0.80874	  2.32001	 13.71426	 -0.68055	 19.56445	705.36200	 24.20	
 16.000	-21.597	 16.94958	 16.99983	 -0.10229	  4.12056	 11.52209	 -0.65611	 19.56030	705.42902	 24.20	
 16.003	 -7.169	 16.95689	 17.68807	 -0.61323	  6.27078	  9.24721	 -0.67677	 19.55176	705.46600	 24.10	
 16.003	  7.169	 17.01959	 17.81179	 -0.67016	  8.63372	  6.86590	 -0.73692	 19.60952	705.26398	 24.20	
 16.000	 21.597	 17.06814	 17.26434	 -0.20297	 11.00414	  4.70574	 -0.79589	 19.61346	705.31897	 24.10	
 15.997	 36.045	 17.09957	 16.07999	  0.67220	 13.23564	  2.86653	 -0.87492	 19.58288	705.40100	 24.10	
 15.997	 50.364	 17.16084	 14.40573	  1.97732	 15.18205	  1.42380	 -0.86915	 19.60472	705.26801	 24.10	
 16.009	 64.774	 17.19590	 12.32930	  3.69916	 16.62937	  0.43013	 -0.88497	 19.60942	705.47998	 24.10	
 15.992	 79.234	 17.18677	  9.97562	  5.75101	 17.45716	 -0.17543	 -0.96441	 19.57049	705.42401	 24.10	
 16.005	 93.629	 17.21831	  7.66363	  8.13205	 17.66526	 -0.32532	 -0.95237	 19.55380	705.42102	 24.10	
 15.993	107.966	 17.28469	  5.43379	 10.50123	 17.26760	  0.07186	 -0.90712	 19.58239	705.37000	 24.10	
 15.995	122.439	 17.28304	  3.47232	 12.80126	 16.19357	  0.82736	 -0.86083	 19.56091	705.48901	 24.10	
 16.002	136.836	 17.30906	  1.89438	 14.83634	 14.60134	  2.00044	 -0.80508	 19.59343	705.43701	 24.10	
 16.002	151.165	 17.25076	  0.74339	 16.35842	 12.52556	  3.59310	 -0.76971	 19.54782	705.33099	 24.10	
 15.990	165.604	 17.21868	  0.01732	 17.33637	 10.19060	  5.57297	 -0.79190	 19.54271	705.38098	 24.10	
 20.003	168.362	 15.69887	 -2.58435	 18.46238	  8.94817	  4.36198	 -0.93664	 19.55086	705.44098	 24.10	
 20.008	156.764	 15.76349	 -2.08186	 17.72135	 11.31933	  2.36025	 -0.93788	 19.59380	705.45697	 24.10	
 20.000	145.147	 15.78896	 -1.22766	 16.42710	 13.51992	  0.68840	 -0.92939	 19.59034	705.48798	 24.10	
 19.995	133.545	 15.79919	 -0.04742	 14.71089	 15.45352	 -0.66305	 -0.89196	 19.59123	705.55103	 24.10	
 20.009	121.926	 15.79007	  1.44434	 12.64969	 17.04264	 -1.72137	 -0.83380	 19.61491	705.39301	 24.10	
 20.005	110.327	 15.76735	  3.29070	 10.35892	 18.09459	 -2.37461	 -0.75977	 19.59805	705.41998	 24.10	
 19.989	 98.733	 15.76440	  5.36657	  8.01352	 18.68300	 -2.74014	 -0.75541	 19.61225	705.42401	 24.10	
 19.999	 87.075	 15.69543	  7.61720	  5.65980	 18.70690	 -2.76431	 -0.82334	 19.57358	705.40399	 24.10	
 19.992	 75.457	 15.65197	  9.92981	  3.51135	 18.24539	 -2.50231	 -0.96889	 19.55684	705.51398	 24.10	
 20.009	 63.844	 15.61549	 12.20101	  1.59402	 17.30656	 -1.98001	 -1.00245	 19.55489	705.39801	 24.10	
 19.989	 52.269	 15.63013	 14.33159	 -0.02021	 15.92716	 -1.10941	 -0.95321	 19.61637	705.34003	 24.10	
 19.999	 40.602	 15.57201	 16.12162	 -1.31704	 14.06789	  0.12994	 -0.85629	 19.59448	705.30902	 24.00	
 20.004	 29.051	 15.54024	 17.53231	 -2.26955	 11.94352	  1.70284	 -0.73635	 19.62054	705.37799	 24.00	
 20.005	 17.433	 15.48349	 18.44210	 -2.89808	  9.64213	  3.55023	 -0.62637	 19.61612	705.37000	 24.00	
 20.006	  5.780	 15.40054	 18.80662	 -3.16958	  7.29848	  5.63758	 -0.59659	 19.57217	705.45099	 24.00	
 20.006	 -5.780	 15.41538	 18.78274	 -3.19295	  5.05295	  7.99551	 -0.57493	 19.62697	705.45099	 24.00	
 20.005	-17.433	 15.38286	 18.20132	 -2.78885	  2.94016	 10.26555	 -0.58601	 19.58910	705.55103	 24.00	
 20.004	-29.051	 15.36896	 17.15753	 -2.13015	  1.10065	 12.53036	 -0.60369	 19.59547	705.51099	 24.00	
 19.999	-40.602	 15.35249	 15.63282	 -1.14125	 -0.40131	 14.57112	 -0.59547	 19.57092	705.30798	 24.00	
 19.989	-52.269	 15.35249	 13.72859	  0.18698	 -1.60061	 16.33849	 -0.58837	 19.59476	705.46503	 24.00	
 20.009	-63.844	 15.37148	 11.56305	  1.83129	 -2.44612	 17.65430	 -0.54158	 19.59912	705.49701	 24.00	
 19.992	-75.457	 15.37114	  9.23461	  3.80094	 -2.94391	 18.48319	 -0.55857	 19.58486	705.45697	 24.00	
 19.999	-87.075	 15.33283	  6.86543	  5.94872	 -3.15690	 18.78078	 -0.57111	 19.53816	705.53400	 24.00	
 19.989	-98.733	 15.36517	  4.62506	  8.27450	 -3.04155	 18.66213	 -0.61413	 19.55194	705.50500	 24.00	
 20.005	-110.327	 15.40002	  2.63075	 10.61696	 -2.63045	 18.04547	 -0.73190	 19.57419	705.45099	 24.00	
 20.009	-121.926	 15.44552	  0.90789	 12.86862	 -1.88352	 16.91864	 -0.85054	 19.59110	705.45697	 24.00	
 19.995	-133.545	 15.48425	 -0.49744	 14.88391	 -0.78600	 15.32037	 -0.88232	 19.58874	705.47198	 24.00	
 20.000	-145.147	 15.54805	 -1.56770	 16.57889	  0.64365	 13.38725	 -0.89112	 19.61342	705.53101	 24.00	
 20.008	-156.764	 15.58323	 -2.30349	 17.80561	  2.39381	 11.18157	 -0.86911	 19.60857	705.59802	 24.00	
 20.003	-168.362	 15.63531	 -2.71524	 18.53768	  4.40233	  8.87056	 -0.85663	 19.60602	705.54700	 24.00	
 20.000	180.000	 15.70108	 -2.80141	 18.78887	  6.64198	  6.56013	 -0.88324	 19.61920	705.51099	 24.00	
