FileType=PCF
NHL=14
Date=08/24/17	13:04:23
Facility=APL
Serial=16328-3
Customer=NASA
NP=6
Mach=0.150000
Calibration=1:1
CalPts=490
TstPts=95
PortNumbering=AP Standard
Units=Torr C m/s kg/m^3 deg mm 
Theta[deg]	Phi[deg]	P1[Torr]	P2[Torr]	P3[Torr]	P4[Torr]	P5[Torr]	P6[Torr]	Pt[Torr]	Ps[Abs,Torr]	Ts[C]	
  0.000	  0.000	 10.50777	  5.54076	  5.41748	  5.39686	  5.58700	  0.08859	 10.49339	704.31403	 24.10	
  1.691	128.401	 10.51766	  5.22849	  5.72784	  5.79835	  5.18011	  0.08890	 10.50621	704.48999	 24.10	
  1.692	 77.194	 10.50812	  5.65790	  5.27755	  5.85795	  5.09054	  0.08495	 10.49876	704.39099	 24.10	
  1.699	 26.182	 10.46217	  5.95087	  4.92791	  5.59309	  5.31562	  0.07879	 10.45627	704.36200	 24.10	
  1.699	-26.182	 10.46720	  5.95907	  4.92752	  5.13897	  5.76140	  0.06978	 10.45628	704.39600	 24.10	
  1.692	-77.194	 10.47640	  5.59474	  5.28313	  4.87330	  6.06447	  0.07884	 10.46690	704.41302	 24.10	
  1.691	-128.401	 10.46683	  5.16664	  5.71914	  4.98042	  5.93513	  0.07295	 10.45776	704.42102	 24.00	
  1.700	180.000	 10.48313	  5.00839	  5.92314	  5.37218	  5.56405	  0.08331	 10.47117	704.30298	 24.00	
  3.400	180.000	 10.47242	  4.45150	  6.43369	  5.30630	  5.50060	  0.06433	 10.48016	704.37402	 24.00	
  3.388	-152.325	 10.47855	  4.54907	  6.30702	  4.84059	  5.99136	  0.04348	 10.48733	704.35101	 24.00	
  3.397	-124.529	 10.46122	  4.83690	  5.94372	  4.47481	  6.37998	  0.03296	 10.47018	704.32898	 24.00	
  3.399	-96.763	 10.45721	  5.29307	  5.44853	  4.30213	  6.57505	  0.03073	 10.46904	704.33398	 24.00	
  3.394	-69.283	 10.46391	  5.79103	  4.96535	  4.36126	  6.51666	  0.02951	 10.48079	704.38800	 24.00	
  3.400	-41.398	 10.44392	  6.22809	  4.55181	  4.61120	  6.20000	  0.04170	 10.45850	704.28699	 24.00	
  3.401	-14.021	 10.46739	  6.49607	  4.35257	  5.02921	  5.77041	  0.03876	 10.48166	704.31403	 24.00	
  3.401	 14.021	 10.45073	  6.50329	  4.34312	  5.54588	  5.24009	  0.04336	 10.46542	704.32098	 24.00	
  3.400	 41.398	 10.46332	  6.27743	  4.55408	  6.00638	  4.82862	  0.04707	 10.47535	704.36603	 24.00	
  3.394	 69.283	 10.46224	  5.85307	  4.93580	  6.29783	  4.57202	  0.03890	 10.46713	704.35999	 24.00	
  3.399	 96.763	 10.45102	  5.33887	  5.42760	  6.37321	  4.50148	  0.05325	 10.45168	704.42798	 24.00	
  3.397	124.529	 10.46521	  4.89486	  5.91727	  6.19848	  4.66157	  0.05289	 10.46538	704.40802	 24.00	
  3.388	152.325	 10.46692	  4.58004	  6.28135	  5.80905	  5.01102	  0.05857	 10.46713	704.40802	 24.00	
  5.099	161.165	 10.42862	  3.94792	  6.83826	  5.78250	  4.88818	  0.03133	 10.47873	704.40802	 24.00	
  5.109	142.013	 10.43062	  4.18631	  6.55444	  6.26523	  4.44545	  0.02506	 10.47265	704.46698	 24.00	
  5.095	123.033	 10.44128	  4.56061	  6.13435	  6.63564	  4.13796	  0.01945	 10.48315	704.39301	 24.00	
  5.105	104.191	 10.43711	  5.01675	  5.62835	  6.85520	  3.95249	  0.00691	 10.47805	704.46997	 24.00	
  5.093	 85.207	 10.43870	  5.54974	  5.09458	  6.89121	  3.92169	  0.00268	 10.48208	704.50000	 24.00	
  5.104	 66.290	 10.41986	  6.06447	  4.59303	  6.73311	  4.03025	 -0.00215	 10.47334	704.35999	 24.00	
  5.094	 47.331	 10.42180	  6.52457	  4.17853	  6.41866	  4.30107	 -0.00231	 10.47982	704.40002	 24.00	
  5.089	 28.397	 10.42306	  6.85797	  3.88687	  5.98353	  4.68567	  0.00042	 10.48792	704.41400	 24.00	
  5.096	  9.576	 10.39030	  7.01139	  3.72435	  5.45277	  5.15907	 -0.00046	 10.46133	704.35498	 24.00	
  5.096	 -9.576	 10.38668	  6.99519	  3.72864	  4.91737	  5.69604	  0.00238	 10.46461	704.47302	 24.00	
  5.089	-28.397	 10.37755	  6.78984	  3.89166	  4.44535	  6.19116	  0.00224	 10.45189	704.40002	 24.00	
  5.094	-47.331	 10.40006	  6.44947	  4.20148	  4.06682	  6.64649	 -0.00687	 10.47545	704.38501	 24.00	
  5.104	-66.290	 10.39400	  5.97768	  4.62040	  3.79756	  6.95513	 -0.02132	 10.47262	704.47498	 24.00	
  5.093	-85.207	 10.39047	  5.44858	  5.12361	  3.68995	  7.08436	 -0.02760	 10.46586	704.34100	 24.00	
  5.105	-104.191	 10.41375	  4.93568	  5.67183	  3.74043	  7.05058	 -0.02517	 10.48260	704.35498	 24.00	
  5.095	-123.033	 10.42439	  4.48433	  6.17769	  3.94982	  6.81807	 -0.01673	 10.48881	704.38300	 24.00	
  5.109	-142.013	 10.41778	  4.12982	  6.58474	  4.28534	  6.42566	 -0.00608	 10.47824	704.32397	 24.00	
  5.099	-161.165	 10.40243	  3.91197	  6.83973	  4.73037	  5.92622	  0.00788	 10.46307	704.38800	 24.00	
  5.100	180.000	 10.39769	  3.84949	  6.91905	  5.23769	  5.39408	  0.01927	 10.44985	704.38000	 24.00	
  6.800	180.000	 10.31487	  3.25189	  7.40663	  5.15587	  5.29163	 -0.04437	 10.45565	704.48401	 24.00	
  6.796	-166.229	 10.32955	  3.29490	  7.36120	  4.65838	  5.82208	 -0.04681	 10.47936	704.44702	 24.00	
  6.808	-152.311	 10.30617	  3.43156	  7.15583	  4.17787	  6.30935	 -0.05696	 10.46181	704.30603	 24.00	
  6.795	-138.383	 10.29072	  3.68183	  6.83064	  3.76090	  6.76147	 -0.07592	 10.44807	704.39301	 23.90	
  6.792	-124.591	 10.30764	  4.03470	  6.43019	  3.44226	  7.14563	 -0.07914	 10.46878	704.31799	 23.90	
  6.787	-110.754	 10.28726	  4.45713	  5.93978	  3.21696	  7.39423	 -0.08588	 10.45458	704.48297	 23.90	
  6.800	-96.985	 10.28901	  4.93793	  5.43202	  3.09963	  7.53894	 -0.09942	 10.46082	704.41901	 24.00	
  6.800	-83.015	 10.29452	  5.46655	  4.90608	  3.09500	  7.55068	 -0.09794	 10.47473	704.39099	 24.00	
  6.787	-69.246	 10.28455	  5.97546	  4.41096	  3.19350	  7.41599	 -0.09302	 10.46549	704.36902	 24.00	
  6.792	-55.409	 10.28127	  6.45719	  3.96845	  3.39688	  7.16291	 -0.08972	 10.46379	704.33698	 24.00	
  6.795	-41.617	 10.27300	  6.87086	  3.60147	  3.70504	  6.79162	 -0.07180	 10.45619	704.35699	 24.00	
  6.808	-27.689	 10.28710	  7.21546	  3.32522	  4.10920	  6.34537	 -0.05740	 10.46747	704.28101	 24.00	
  6.796	-13.771	 10.28500	  7.42340	  3.15666	  4.57113	  5.84531	 -0.05722	 10.46855	704.47498	 23.90	
  6.800	  0.000	 10.28649	  7.50351	  3.09264	  5.06941	  5.33097	 -0.06189	 10.46469	704.37201	 23.90	
  6.796	 13.771	 10.29347	  7.45475	  3.13955	  5.59400	  4.81867	 -0.06461	 10.46212	704.34003	 23.90	
  6.808	 27.689	 10.29312	  7.26970	  3.29810	  6.09913	  4.34714	 -0.06649	 10.45679	704.40698	 23.90	
  6.795	 41.617	 10.31808	  6.97342	  3.57731	  6.56177	  3.96249	 -0.06796	 10.47320	704.41901	 23.90	
  6.792	 55.409	 10.30960	  6.56042	  3.92976	  6.92460	  3.64599	 -0.06977	 10.44985	704.34802	 23.90	
  6.787	 69.246	 10.32485	  6.09601	  4.36676	  7.19983	  3.43293	 -0.06511	 10.45652	704.30103	 23.90	
  6.800	 83.015	 10.32341	  5.58591	  4.84427	  7.34469	  3.31505	 -0.07031	 10.44985	704.26398	 23.90	
  6.800	 96.985	 10.34600	  5.07194	  5.38068	  7.36972	  3.31847	 -0.06569	 10.46915	704.30298	 23.90	
  6.787	110.754	 10.33723	  4.57589	  5.89172	  7.23326	  3.42203	 -0.05635	 10.45271	704.27301	 23.90	
  6.792	124.591	 10.36114	  4.14995	  6.39275	  6.99998	  3.63978	 -0.04232	 10.47716	704.35199	 23.90	
  6.795	138.383	 10.32969	  3.77612	  6.79281	  6.62212	  3.93386	 -0.03156	 10.45148	704.29602	 23.90	
  6.808	152.311	 10.33777	  3.49831	  7.13437	  6.18847	  4.32276	 -0.02519	 10.46056	704.26398	 23.90	
  6.796	166.229	 10.32955	  3.32453	  7.33780	  5.68677	  4.78617	 -0.02629	 10.46053	704.35101	 24.00	
  8.491	168.704	 10.21556	  2.70430	  7.80895	  5.59251	  4.64105	 -0.10463	 10.47356	704.38000	 23.90	
  8.502	157.493	 10.20151	  2.84451	  7.62225	  6.09971	  4.15363	 -0.09102	 10.45120	704.35101	 24.00	
  8.494	146.194	 10.21958	  3.08125	  7.34899	  6.58841	  3.73208	 -0.09893	 10.46404	704.35199	 24.00	
  8.495	135.039	 10.22630	  3.38995	  6.98683	  7.02079	  3.36476	 -0.12033	 10.46028	704.51801	 24.00	
  8.487	123.723	 10.22506	  3.77664	  6.53691	  7.37239	  3.07251	 -0.13323	 10.46008	704.45300	 24.00	
  8.492	112.575	 10.21900	  4.21135	  6.04494	  7.62425	  2.86523	 -0.14117	 10.45504	704.50598	 24.00	
  8.510	101.220	 10.22127	  4.70178	  5.51608	  7.78500	  2.73469	 -0.15461	 10.45916	704.39600	 24.00	
  8.500	 90.000	 10.21104	  5.21878	  4.97877	  7.81977	  2.69679	 -0.16261	 10.45397	704.42102	 24.00	
  8.510	 78.780	 10.23257	  5.76228	  4.46734	  7.77752	  2.74285	 -0.15966	 10.48338	704.36798	 24.00	
  8.492	 67.425	 10.20594	  6.27063	  3.96664	  7.58063	  2.87346	 -0.15243	 10.46652	704.25098	 24.00	
  8.487	 56.277	 10.17909	  6.72918	  3.52682	  7.29158	  3.07937	 -0.15479	 10.44639	704.46198	 24.00	
  8.495	 44.961	 10.17069	  7.16189	  3.14193	  6.92196	  3.37837	 -0.15961	 10.45305	704.36603	 24.00	
  8.494	 33.806	 10.16821	  7.50592	  2.85127	  6.48164	  3.75494	 -0.15082	 10.45673	704.32098	 24.00	
  8.502	 22.507	 10.15594	  7.75843	  2.62700	  5.98686	  4.18759	 -0.14843	 10.45229	704.32001	 24.00	
  8.491	 11.296	 10.14582	  7.90197	  2.49842	  5.46360	  4.67111	 -0.14747	 10.45313	704.29797	 24.00	
  8.500	  0.000	 10.15058	  7.95232	  2.46179	  4.92883	  5.20396	 -0.14743	 10.46864	704.33197	 23.90	
  8.491	-11.296	 10.12838	  7.86673	  2.50938	  4.40255	  5.72447	 -0.13527	 10.44360	704.36902	 23.90	
  8.502	-22.507	 10.13683	  7.69748	  2.65145	  3.92539	  6.24508	 -0.12662	 10.45805	704.43597	 23.90	
  8.494	-33.806	 10.13705	  7.41270	  2.88205	  3.48552	  6.73935	 -0.13676	 10.46242	704.53699	 23.90	
  8.495	-44.961	 10.12691	  7.04052	  3.18447	  3.11333	  7.16580	 -0.15908	 10.45087	704.52600	 23.90	
  8.487	-56.277	 10.12105	  6.58627	  3.57417	  2.82407	  7.51277	 -0.17520	 10.44092	704.38800	 23.90	
  8.492	-67.425	 10.14143	  6.11028	  4.02052	  2.62022	  7.78740	 -0.17938	 10.46491	704.34497	 23.90	
  8.510	-78.780	 10.13353	  5.57653	  4.51142	  2.48583	  7.94805	 -0.18385	 10.45218	704.57703	 23.90	
  8.500	-90.000	 10.14252	  5.04677	  5.03853	  2.45462	  8.00058	 -0.18889	 10.45789	704.43799	 23.90	
  8.510	-101.220	 10.12876	  4.51977	  5.56467	  2.49682	  7.92940	 -0.18585	 10.44118	704.41901	 23.90	
  8.492	-112.575	 10.15399	  4.05166	  6.10264	  2.65616	  7.76286	 -0.16521	 10.45993	704.38202	 23.90	
  8.487	-123.723	 10.14477	  3.62150	  6.57918	  2.87868	  7.48588	 -0.15095	 10.44285	704.43103	 23.90	
  8.495	-135.039	 10.16313	  3.25893	  7.02712	  3.18602	  7.13743	 -0.14434	 10.45756	704.34900	 23.90	
  8.494	-146.194	 10.17500	  2.97946	  7.38456	  3.57547	  6.70542	 -0.13703	 10.45876	704.45801	 24.00	
  8.502	-157.493	 10.16851	  2.77201	  7.64617	  4.02465	  6.20014	 -0.12403	 10.44644	704.56000	 24.00	
  8.491	-168.704	 10.17681	  2.66386	  7.80322	  4.51508	  5.68367	 -0.12066	 10.44672	704.54797	 23.90	
  8.500	180.000	 10.18523	  2.63362	  7.85767	  5.04026	  5.15292	 -0.12127	 10.44831	704.51398	 24.00	
 10.200	180.000	 10.01389	  2.00076	  8.27853	  4.89044	  4.98376	 -0.20700	 10.44885	704.46698	 23.90	
 10.191	-170.497	  9.99837	  2.01954	  8.22950	  4.35999	  5.51467	 -0.20854	 10.43900	704.52600	 23.90	
 10.210	-161.034	  9.99501	  2.11130	  8.09620	  3.85656	  6.04636	 -0.20437	 10.44481	704.50098	 23.90	
 10.194	-151.526	  9.97912	  2.28132	  7.85263	  3.37753	  6.56154	 -0.21249	 10.43255	704.49500	 23.90	
 10.190	-142.105	  9.98248	  2.52271	  7.54721	  2.96464	  7.04131	 -0.21700	 10.44498	704.53400	 23.90	
 10.215	-132.646	  9.98065	  2.81906	  7.17129	  2.60073	  7.46580	 -0.22240	 10.45119	704.58801	 23.90	
 10.203	-123.092	  9.97872	  3.19409	  6.71964	  2.30184	  7.82459	 -0.23092	 10.45668	704.57599	 23.90	
 10.192	-113.678	  9.96605	  3.62064	  6.21581	  2.07291	  8.09995	 -0.24415	 10.44765	704.49200	 23.90	
 10.208	-104.249	  9.94868	  4.08129	  5.68802	  1.90525	  8.28973	 -0.27003	 10.44244	704.54498	 23.90	
 10.210	-94.801	  9.94233	  4.59054	  5.14778	  1.82055	  8.39058	 -0.27582	 10.44036	704.51801	 23.90	
 10.210	-85.199	  9.93983	  5.13218	  4.60195	  1.81043	  8.39811	 -0.27897	 10.44308	704.47498	 24.00	
 10.208	-75.751	  9.93112	  5.66573	  4.08143	  1.87273	  8.30619	 -0.27602	 10.43746	704.38800	 23.90	
 10.192	-66.322	  9.94147	  6.19661	  3.60478	  2.02228	  8.12656	 -0.27291	 10.44682	704.45898	 24.00	
 10.203	-56.908	  9.94365	  6.70083	  3.16121	  2.23429	  7.85669	 -0.25918	 10.45314	704.43402	 24.00	
 10.215	-47.354	  9.92431	  7.15131	  2.76036	  2.51456	  7.48971	 -0.24609	 10.42800	704.52899	 24.00	
 10.190	-37.895	  9.93246	  7.55178	  2.43821	  2.86016	  7.08209	 -0.22620	 10.43907	704.45300	 24.00	
 10.194	-28.474	  9.93548	  7.87837	  2.17849	  3.26439	  6.61680	 -0.20423	 10.44005	704.46198	 24.00	
 10.210	-18.966	  9.95221	  8.14230	  1.98310	  3.73339	  6.10845	 -0.20246	 10.45498	704.43903	 24.00	
 10.191	 -9.503	  9.95527	  8.29198	  1.86993	  4.22945	  5.58021	 -0.21680	 10.45177	704.56897	 24.00	
 10.200	  0.000	  9.94504	  8.34581	  1.81941	  4.74603	  5.03516	 -0.22798	 10.43726	704.70599	 24.00	
 10.191	  9.503	  9.94956	  8.31506	  1.84895	  5.29050	  4.50304	 -0.23762	 10.43565	704.55701	 24.00	
 10.210	 18.966	  9.95120	  8.18574	  1.95446	  5.81993	  4.00255	 -0.23926	 10.42695	704.54901	 24.00	
 10.194	 28.474	  9.98410	  7.98450	  2.14759	  6.34959	  3.55416	 -0.23958	 10.45058	704.69800	 24.00	
 10.190	 37.895	 10.00081	  7.69333	  2.39890	  6.83739	  3.14575	 -0.24537	 10.45478	704.50598	 24.00	
 10.215	 47.354	  9.98834	  7.30976	  2.70465	  7.25932	  2.77947	 -0.24732	 10.43813	704.46698	 24.00	
 10.203	 56.908	 10.00454	  6.87347	  3.09797	  7.62035	  2.50336	 -0.24240	 10.43894	704.56897	 24.00	
 10.192	 66.322	 10.02439	  6.39380	  3.54508	  7.90756	  2.29707	 -0.24099	 10.44660	704.56500	 24.00	
 10.208	 75.751	 10.02579	  5.87747	  4.01615	  8.11065	  2.14042	 -0.25838	 10.44079	704.53198	 24.00	
 10.210	 85.199	 10.03547	  5.34905	  4.53232	  8.21778	  2.06846	 -0.26688	 10.44597	704.52899	 24.00	
 10.210	 94.801	 10.04173	  4.80509	  5.08199	  8.23279	  2.06600	 -0.26897	 10.44424	704.56000	 24.00	
 10.208	104.249	 10.05655	  4.29316	  5.62870	  8.15778	  2.13747	 -0.25597	 10.45098	704.56500	 24.00	
 10.192	113.678	 10.06281	  3.81337	  6.15842	  7.97827	  2.28604	 -0.23889	 10.45303	704.60999	 24.00	
 10.203	123.092	 10.07762	  3.37665	  6.66938	  7.73176	  2.49235	 -0.22548	 10.47156	704.55499	 24.00	
 10.215	132.646	 10.05578	  2.97537	  7.11932	  7.37442	  2.76192	 -0.21022	 10.45214	704.52100	 24.00	
 10.190	142.105	 10.04284	  2.64666	  7.50438	  6.94905	  3.10894	 -0.19133	 10.43882	704.63501	 24.00	
 10.194	151.526	 10.04896	  2.38699	  7.83572	  6.48466	  3.51979	 -0.17211	 10.45152	704.63202	 24.00	
 10.210	161.034	 10.03848	  2.18356	  8.08243	  5.97605	  3.96792	 -0.17554	 10.45518	704.74298	 24.00	
 10.191	170.497	 10.02335	  2.06103	  8.22184	  5.44070	  4.45929	 -0.18993	 10.44711	704.57599	 24.00	
 11.899	171.783	  9.83768	  1.42999	  8.63714	  5.28227	  4.26782	 -0.27800	 10.46585	704.55701	 24.00	
 11.890	163.610	  9.82236	  1.53585	  8.48221	  5.80307	  3.76511	 -0.25951	 10.43624	704.71997	 24.00	
 11.889	155.445	  9.81413	  1.70254	  8.25431	  6.31280	  3.29630	 -0.24604	 10.41637	704.57300	 24.00	
 11.909	147.299	  9.83115	  1.92451	  7.98158	  6.82242	  2.86436	 -0.25936	 10.43243	704.61102	 24.00	
 11.902	139.148	  9.83375	  2.21571	  7.61940	  7.27465	  2.48920	 -0.27454	 10.42699	704.51703	 24.00	
 11.894	130.867	  9.86079	  2.56758	  7.21461	  7.69058	  2.17777	 -0.29150	 10.45051	704.68298	 24.00	
 11.897	122.732	  9.85376	  2.95413	  6.74587	  8.02746	  1.90344	 -0.31231	 10.44451	704.71802	 24.00	
 11.903	114.597	  9.85108	  3.38808	  6.24039	  8.29894	  1.69238	 -0.33572	 10.44636	704.69397	 24.00	
 11.893	106.346	  9.83467	  3.86805	  5.69269	  8.48029	  1.54109	 -0.35570	 10.42735	704.60797	 24.00	
 11.892	 98.155	  9.83221	  4.37830	  5.14965	  8.59247	  1.45358	 -0.36941	 10.43102	704.44501	 24.00	
 11.900	 90.000	  9.83162	  4.90385	  4.61229	  8.62721	  1.42421	 -0.37350	 10.43652	704.46997	 24.00	
 11.892	 81.845	  9.82690	  5.44321	  4.08241	  8.56881	  1.46287	 -0.36143	 10.43916	704.50702	 24.00	
 11.893	 73.654	  9.83143	  5.98513	  3.57798	  8.44257	  1.55863	 -0.34585	 10.45164	704.66400	 24.00	
 11.903	 65.403	  9.80282	  6.49341	  3.09334	  8.20879	  1.71153	 -0.32824	 10.43241	704.53802	 24.00	
 11.897	 57.268	  9.81017	  6.99352	  2.66664	  7.92835	  1.93309	 -0.32507	 10.45340	704.62701	 24.00	
 11.894	 49.133	  9.77878	  7.41995	  2.27929	  7.54980	  2.20559	 -0.32801	 10.42589	704.65601	 24.00	
 11.902	 40.852	  9.77324	  7.82230	  1.94421	  7.13868	  2.53289	 -0.33075	 10.43546	704.63300	 24.00	
 11.909	 32.701	  9.76250	  8.15139	  1.67079	  6.67407	  2.91266	 -0.33589	 10.43541	704.62097	 24.00	
 11.889	 24.555	  9.75251	  8.40709	  1.46483	  6.16217	  3.35315	 -0.33112	 10.43481	704.70099	 24.00	
 11.890	 16.390	  9.74337	  8.59375	  1.31008	  5.63742	  3.82267	 -0.32550	 10.43811	704.68701	 24.00	
 11.899	  8.217	  9.75093	  8.71670	  1.21848	  5.10950	  4.32801	 -0.32130	 10.45588	704.68103	 24.00	
 11.900	  0.000	  9.73029	  8.72713	  1.19563	  4.55277	  4.85907	 -0.30236	 10.43675	704.68903	 24.00	
 11.899	 -8.217	  9.73226	  8.67630	  1.23292	  4.03031	  5.40002	 -0.29231	 10.44790	704.56500	 24.00	
 11.890	-16.390	  9.71562	  8.52383	  1.33726	  3.52779	  5.92229	 -0.28261	 10.43119	704.53699	 24.00	
 11.889	-24.555	  9.70226	  8.29662	  1.50013	  3.05196	  6.44307	 -0.27119	 10.42192	704.56799	 24.00	
 11.909	-32.701	  9.70630	  8.01471	  1.72012	  2.62609	  6.94186	 -0.28065	 10.43137	704.55701	 24.00	
 11.902	-40.852	  9.71533	  7.66493	  2.00606	  2.25902	  7.39332	 -0.29939	 10.44001	704.52600	 24.00	
 11.894	-49.133	  9.71464	  7.24175	  2.34779	  1.92781	  7.80281	 -0.32079	 10.43520	704.69000	 24.00	
 11.897	-57.268	  9.70837	  6.77306	  2.73329	  1.65313	  8.14587	 -0.33518	 10.43186	704.65900	 24.00	
 11.903	-65.403	  9.70134	  6.26357	  3.16740	  1.43774	  8.41947	 -0.34629	 10.42572	704.59900	 24.00	
 11.893	-73.654	  9.72751	  5.74577	  3.65934	  1.30089	  8.63231	 -0.34798	 10.45285	704.64099	 24.00	
 11.892	-81.845	  9.72458	  5.20438	  4.16863	  1.21975	  8.74443	 -0.35639	 10.44770	704.71198	 24.00	
 11.900	-90.000	  9.72100	  4.66124	  4.69677	  1.19449	  8.77416	 -0.36558	 10.44042	704.80701	 24.00	
 11.892	-98.155	  9.71832	  4.13465	  5.23343	  1.23468	  8.71798	 -0.36253	 10.42986	704.75897	 24.00	
 11.893	-106.346	  9.72078	  3.63442	  5.77088	  1.33251	  8.59106	 -0.34382	 10.42623	704.69800	 24.00	
 11.903	-114.597	  9.73905	  3.16798	  6.30754	  1.49572	  8.39751	 -0.32264	 10.43762	704.64203	 24.00	
 11.897	-122.732	  9.76107	  2.76084	  6.81539	  1.72676	  8.12807	 -0.30468	 10.45753	704.66998	 24.10	
 11.894	-130.867	  9.76795	  2.39313	  7.27175	  2.01535	  7.77056	 -0.29207	 10.45172	704.74902	 24.00	
 11.902	-139.148	  9.75548	  2.06729	  7.67272	  2.36058	  7.33712	 -0.29104	 10.43117	704.64203	 24.10	
 11.909	-147.299	  9.75995	  1.80278	  8.02025	  2.74560	  6.88300	 -0.29353	 10.42982	704.63501	 24.10	
 11.889	-155.445	  9.76583	  1.61231	  8.28813	  3.18887	  6.38073	 -0.29399	 10.42444	704.62402	 24.10	
 11.890	-163.610	  9.79251	  1.47737	  8.50487	  3.68044	  5.86425	 -0.29642	 10.44221	704.61798	 24.10	
 11.899	-171.783	  9.78159	  1.39534	  8.61167	  4.17986	  5.32077	 -0.29965	 10.42951	704.58698	 24.10	
 11.900	180.000	  9.78677	  1.38069	  8.64595	  4.70979	  4.78525	 -0.29254	 10.41891	704.73700	 24.10	
 13.600	180.000	  9.54925	  0.76464	  9.00220	  4.51144	  4.56393	 -0.38193	 10.42410	704.53699	 24.00	
 13.608	-172.853	  9.54077	  0.76813	  8.97784	  3.98650	  5.09305	 -0.38814	 10.42799	704.56299	 24.00	
 13.611	-165.583	  9.54182	  0.83032	  8.88055	  3.47318	  5.63978	 -0.38819	 10.44228	704.71997	 24.00	
 13.601	-158.353	  9.53042	  0.95051	  8.69445	  2.97957	  6.17963	 -0.37943	 10.43858	704.79303	 24.00	
 13.609	-151.210	  9.51847	  1.11816	  8.44359	  2.52804	  6.68516	 -0.37188	 10.43188	704.58301	 24.00	
 13.611	-143.999	  9.50366	  1.33717	  8.12554	  2.11558	  7.16479	 -0.36458	 10.42014	704.71698	 24.00	
 13.601	-136.825	  9.49722	  1.60920	  7.75390	  1.74476	  7.61292	 -0.36138	 10.42257	704.66400	 24.00	
 13.596	-129.640	  9.48674	  1.93236	  7.32558	  1.42003	  8.01553	 -0.35731	 10.42471	704.58801	 24.00	
 13.611	-122.431	  9.49198	  2.29842	  6.87103	  1.14854	  8.37586	 -0.36659	 10.43907	704.53101	 24.00	
 13.604	-115.211	  9.46999	  2.71043	  6.35810	  0.93104	  8.64293	 -0.38471	 10.42044	704.53198	 24.00	
 13.595	-108.042	  9.47212	  3.16849	  5.83962	  0.76870	  8.86257	 -0.40746	 10.42577	704.52100	 24.00	
 13.607	-100.793	  9.47018	  3.65779	  5.30000	  0.64556	  9.02855	 -0.41788	 10.43600	704.58002	 24.00	
 13.601	-93.617	  9.44230	  4.16055	  4.74896	  0.58486	  9.08110	 -0.41937	 10.41240	704.48602	 24.00	
 13.601	-86.383	  9.44102	  4.69415	  4.20913	  0.57630	  9.08954	 -0.40568	 10.41657	704.59399	 24.00	
 13.607	-79.207	  9.43746	  5.22990	  3.69002	  0.61736	  9.02569	 -0.39881	 10.41875	704.56799	 24.00	
 13.595	-71.958	  9.43965	  5.77242	  3.18981	  0.71812	  8.88641	 -0.38935	 10.41793	704.64203	 24.10	
 13.604	-64.789	  9.42909	  6.29402	  2.71864	  0.86533	  8.67076	 -0.38404	 10.40908	704.70898	 24.00	
 13.611	-57.569	  9.44536	  6.81537	  2.28993	  1.06673	  8.41484	 -0.38511	 10.43091	704.60199	 24.10	
 13.596	-50.360	  9.45095	  7.29253	  1.90483	  1.32154	  8.08167	 -0.37306	 10.43574	704.60400	 24.10	
 13.601	-43.175	  9.44229	  7.71864	  1.56306	  1.62820	  7.67710	 -0.36174	 10.42118	704.71198	 24.10	
 13.611	-36.001	  9.45450	  8.11288	  1.26819	  1.98490	  7.24112	 -0.34212	 10.43564	704.55200	 24.10	
 13.609	-28.790	  9.45210	  8.43384	  1.02252	  2.38082	  6.76130	 -0.33517	 10.43378	704.68903	 24.10	
 13.601	-21.647	  9.43481	  8.67298	  0.83319	  2.81028	  6.24314	 -0.32862	 10.41199	704.83899	 24.10	
 13.611	-14.417	  9.43656	  8.87085	  0.68749	  3.29110	  5.70339	 -0.33631	 10.40981	704.70599	 24.10	
 13.608	 -7.147	  9.44718	  8.99766	  0.60357	  3.80208	  5.16818	 -0.34597	 10.41425	704.78998	 24.10	
 13.600	  0.000	  9.46374	  9.05851	  0.57061	  4.32532	  4.64729	 -0.36290	 10.42604	704.68298	 24.10	
 13.608	  7.147	  9.46964	  9.04142	  0.59000	  4.86565	  4.11688	 -0.38135	 10.42677	704.72803	 24.10	
 13.611	 14.417	  9.46747	  8.94291	  0.66319	  5.40417	  3.60678	 -0.39545	 10.41253	704.68597	 24.10	
 13.601	 21.647	  9.50056	  8.80150	  0.79626	  5.95040	  3.13745	 -0.39572	 10.43536	704.66998	 24.10	
 13.609	 28.790	  9.49668	  8.56133	  0.97366	  6.46484	  2.68429	 -0.40309	 10.42932	704.64899	 24.10	
 13.611	 36.001	  9.51469	  8.27348	  1.20688	  6.96245	  2.27935	 -0.41133	 10.43028	704.60999	 24.10	
 13.601	 43.175	  9.53772	  7.92347	  1.49850	  7.42167	  1.92924	 -0.41169	 10.43990	704.73901	 24.10	
 13.596	 50.360	  9.52831	  7.50053	  1.82760	  7.82317	  1.60424	 -0.40579	 10.41969	704.82703	 24.10	
 13.611	 57.569	  9.55990	  7.06572	  2.20719	  8.20568	  1.33312	 -0.40671	 10.44663	704.68597	 24.10	
 13.604	 64.789	  9.54883	  6.56245	  2.62669	  8.48574	  1.11756	 -0.40932	 10.42838	704.66699	 24.10	
 13.595	 71.958	  9.55440	  6.04070	  3.09563	  8.69988	  0.97258	 -0.43080	 10.41543	704.63202	 24.10	
 13.607	 79.207	  9.56384	  5.50972	  3.59274	  8.86337	  0.86376	 -0.44489	 10.41902	704.73401	 24.10	
 13.601	 86.383	  9.57482	  4.97665	  4.11406	  8.94600	  0.81575	 -0.46275	 10.41813	704.66400	 24.10	
 13.601	 93.617	  9.59527	  4.44649	  4.66200	  8.97530	  0.81195	 -0.46479	 10.43528	704.72803	 24.10	
 13.607	100.793	  9.60029	  3.92838	  5.20445	  8.91705	  0.85852	 -0.45894	 10.43241	704.65900	 24.10	
 13.595	108.042	  9.59416	  3.42448	  5.74563	  8.77094	  0.95858	 -0.44377	 10.42218	704.64697	 24.10	
 13.604	115.211	  9.59537	  2.95544	  6.27670	  8.57034	  1.10998	 -0.42089	 10.42105	704.66302	 24.10	
 13.611	122.431	  9.59103	  2.52149	  6.78130	  8.29527	  1.31125	 -0.40070	 10.41855	704.65802	 24.10	
 13.596	129.640	  9.59835	  2.13503	  7.26225	  7.95777	  1.57715	 -0.37408	 10.42148	704.71100	 24.10	
 13.601	136.825	  9.59694	  1.78934	  7.69685	  7.56205	  1.88465	 -0.35304	 10.41861	704.72601	 24.10	
 13.611	143.999	  9.58494	  1.48630	  8.07410	  7.12454	  2.22606	 -0.34123	 10.41543	704.65503	 24.10	
 13.609	151.210	  9.57403	  1.23739	  8.39134	  6.64200	  2.62248	 -0.33032	 10.40859	704.65900	 24.10	
 13.601	158.353	  9.57367	  1.04256	  8.65305	  6.13419	  3.06183	 -0.32952	 10.41788	704.61102	 24.10	
 13.611	165.583	  9.55701	  0.89244	  8.83940	  5.59345	  3.53189	 -0.34711	 10.41389	704.75201	 24.10	
 13.608	172.853	  9.54675	  0.79787	  8.95277	  5.04981	  4.03344	 -0.36607	 10.41408	704.80798	 24.10	
 15.298	173.587	  9.27872	  0.19350	  9.27774	  4.83110	  3.79250	 -0.44500	 10.42226	704.87000	 24.10	
 15.291	167.167	  9.26877	  0.27182	  9.15917	  5.35550	  3.29379	 -0.43011	 10.39869	704.90002	 24.10	
 15.307	160.676	  9.29750	  0.39797	  9.00956	  5.91019	  2.81453	 -0.40811	 10.42315	704.83600	 24.10	
 15.300	154.261	  9.30639	  0.57194	  8.77404	  6.43453	  2.37062	 -0.40620	 10.42071	704.74200	 24.10	
 15.288	147.854	  9.31853	  0.78867	  8.48309	  6.93308	  1.96789	 -0.40551	 10.42096	704.72601	 24.10	
 15.293	141.428	  9.30264	  1.04896	  8.11413	  7.38128	  1.59654	 -0.41754	 10.39892	704.61902	 24.10	
 15.299	134.985	  9.30345	  1.35191	  7.71146	  7.81124	  1.26104	 -0.42743	 10.39403	704.78003	 24.10	
 15.305	128.583	  9.32536	  1.70076	  7.28390	  8.21383	  0.97553	 -0.44077	 10.41997	704.61298	 24.10	
 15.309	122.142	  9.31996	  2.08330	  6.80108	  8.54585	  0.72863	 -0.46313	 10.41711	704.76501	 24.10	
 15.304	115.711	  9.33131	  2.51338	  6.30219	  8.82216	  0.54216	 -0.48400	 10.42723	704.78003	 24.10	
 15.297	109.291	  9.33066	  2.97198	  5.77198	  9.03306	  0.39248	 -0.49795	 10.42791	704.72900	 24.10	
 15.293	102.897	  9.31695	  3.45272	  5.22675	  9.17461	  0.28387	 -0.50880	 10.42017	704.71100	 24.10	
 15.293	 96.458	  9.31085	  3.95996	  4.68112	  9.25907	  0.21853	 -0.51788	 10.41803	704.65601	 24.10	
 15.300	 90.000	  9.29672	  4.48353	  4.13755	  9.27221	  0.19690	 -0.52115	 10.41156	704.75201	 24.10	
 15.293	 83.542	  9.30278	  5.02926	  3.61167	  9.23649	  0.22618	 -0.51643	 10.42250	704.78998	 24.10	
 15.293	 77.103	  9.29717	  5.56639	  3.10734	  9.12508	  0.29733	 -0.50405	 10.42401	704.85199	 24.10	
 15.297	 70.709	  9.26602	  6.07750	  2.62188	  8.92701	  0.41349	 -0.48189	 10.40273	704.74902	 24.10	
 15.304	 64.289	  9.26437	  6.59701	  2.16842	  8.70288	  0.56444	 -0.46881	 10.41120	704.75403	 24.10	
 15.309	 57.858	  9.26229	  7.09493	  1.75076	  8.41618	  0.76418	 -0.46334	 10.42304	704.70898	 24.10	
 15.305	 51.417	  9.25576	  7.55457	  1.37661	  8.06810	  1.01427	 -0.46675	 10.42903	704.78003	 24.10	
 15.299	 45.015	  9.24001	  7.97044	  1.04231	  7.65832	  1.31161	 -0.47121	 10.42274	704.73901	 24.10	
 15.293	 38.572	  9.21799	  8.33121	  0.75580	  7.19677	  1.65659	 -0.46249	 10.40584	704.79901	 24.10	
 15.288	 32.146	  9.21481	  8.65755	  0.51232	  6.72601	  2.03412	 -0.45325	 10.41757	704.82397	 24.10	
 15.300	 25.739	  9.19284	  8.91049	  0.30747	  6.21708	  2.44121	 -0.44261	 10.40465	704.78198	 24.10	
 15.307	 19.324	  9.18821	  9.11989	  0.15521	  5.69403	  2.89535	 -0.43601	 10.41317	704.83197	 24.10	
 15.291	 12.833	  9.15802	  9.23710	  0.04850	  5.13957	  3.37843	 -0.42031	 10.38838	704.79303	 24.10	
 15.298	  6.413	  9.17230	  9.34151	 -0.01805	  4.61986	  3.88159	 -0.40090	 10.41673	704.82397	 24.10	
 15.300	  0.000	  9.15623	  9.34338	 -0.03374	  4.07430	  4.40644	 -0.39089	 10.40264	704.94800	 24.10	
 15.298	 -6.413	  9.16456	  9.31200	 -0.00692	  3.55879	  4.94387	 -0.37826	 10.42010	704.83502	 24.10	
 15.291	-12.833	  9.16450	  9.20134	  0.07163	  3.06187	  5.47668	 -0.36950	 10.42382	704.83002	 24.10	
 15.307	-19.324	  9.14294	  9.01276	  0.19098	  2.56840	  6.00826	 -0.36262	 10.40796	704.84198	 24.10	
 15.300	-25.739	  9.15177	  8.78876	  0.35970	  2.13404	  6.52861	 -0.37065	 10.42211	704.61603	 24.10	
 15.288	-32.146	  9.14741	  8.48894	  0.57421	  1.72727	  7.01784	 -0.36912	 10.41276	704.74500	 24.10	
 15.293	-38.572	  9.14775	  8.14213	  0.82483	  1.35273	  7.49182	 -0.38040	 10.42183	704.65900	 24.10	
 15.299	-45.015	  9.13240	  7.73102	  1.12002	  1.01388	  7.91671	 -0.38676	 10.40508	704.79700	 24.10	
 15.305	-51.417	  9.14050	  7.29378	  1.46474	  0.73831	  8.29817	 -0.38855	 10.41170	704.76001	 24.10	
 15.309	-57.858	  9.14839	  6.82120	  1.84423	  0.49610	  8.63741	 -0.39363	 10.42056	704.65802	 24.10	
 15.304	-64.289	  9.14137	  6.30587	  2.26447	  0.29975	  8.90595	 -0.38671	 10.41371	704.75201	 24.10	
 15.297	-70.709	  9.14031	  5.77526	  2.72514	  0.14914	  9.12290	 -0.38583	 10.41013	704.84198	 24.10	
 15.293	-77.103	  9.13675	  5.23966	  3.20617	  0.04291	  9.27521	 -0.39914	 10.40822	704.85999	 24.10	
 15.293	-83.542	  9.15896	  4.71074	  3.72265	 -0.01768	  9.38541	 -0.41093	 10.42854	704.80701	 24.10	
 15.300	-90.000	  9.14121	  4.16378	  4.24497	 -0.03542	  9.39423	 -0.42763	 10.40722	704.87799	 24.10	
 15.293	-96.458	  9.15522	  3.64920	  4.78799	 -0.00058	  9.36236	 -0.44940	 10.41432	704.78400	 24.10	
 15.293	-102.897	  9.14961	  3.14842	  5.32209	  0.07544	  9.24918	 -0.45052	 10.39888	704.69800	 24.10	
 15.297	-109.291	  9.16553	  2.67951	  5.86451	  0.19622	  9.09128	 -0.44794	 10.41246	704.74298	 24.10	
 15.304	-115.711	  9.17980	  2.24128	  6.39115	  0.36407	  8.87354	 -0.42909	 10.41957	704.92200	 24.10	
 15.309	-122.142	  9.18672	  1.83662	  6.89165	  0.58162	  8.58254	 -0.41619	 10.41671	704.78998	 24.10	
 15.305	-128.583	  9.18056	  1.46936	  7.35439	  0.83767	  8.23067	 -0.41533	 10.40215	704.98999	 24.10	
 15.299	-134.985	  9.18983	  1.14741	  7.78653	  1.13198	  7.84539	 -0.42025	 10.40382	704.92603	 24.10	
 15.293	-141.428	  9.20606	  0.88003	  8.17951	  1.48714	  7.41312	 -0.43236	 10.41120	704.85999	 24.10	
 15.288	-147.854	  9.20835	  0.64615	  8.51355	  1.87999	  6.92994	 -0.44044	 10.40359	704.72803	 24.10	
 15.300	-154.261	  9.21539	  0.45616	  8.79501	  2.29731	  6.43642	 -0.45049	 10.40383	704.59100	 24.10	
 15.307	-160.676	  9.21347	  0.31078	  9.00875	  2.74645	  5.91212	 -0.45379	 10.39554	704.79901	 24.10	
 15.291	-167.167	  9.22622	  0.21840	  9.16544	  3.24837	  5.36908	 -0.46135	 10.39360	704.76501	 24.10	
 15.298	-173.587	  9.24964	  0.15960	  9.27970	  3.75814	  4.84249	 -0.46524	 10.41349	704.57703	 24.10	
 15.300	180.000	  9.25453	  0.15442	  9.30319	  4.27852	  4.31080	 -0.46013	 10.40920	704.84601	 24.10	
 17.000	180.000	  8.94318	 -0.44051	  9.58547	  4.03442	  4.04623	 -0.51127	 10.41085	704.87701	 24.10	
 16.990	-174.179	  8.92472	 -0.42986	  9.54721	  3.51152	  4.57091	 -0.51282	 10.39650	704.73401	 24.10	
 17.009	-168.383	  8.93243	 -0.39888	  9.48854	  3.01087	  5.11143	 -0.51501	 10.42451	704.74902	 24.10	
 17.000	-162.596	  8.91184	 -0.31384	  9.33252	  2.51659	  5.64475	 -0.50859	 10.40765	704.74298	 24.10	
 16.990	-156.759	  8.89914	 -0.18700	  9.12508	  2.05991	  6.16310	 -0.49720	 10.39999	704.88599	 24.10	
 16.995	-150.919	  8.90282	 -0.02109	  8.87684	  1.63307	  6.68332	 -0.49494	 10.41345	704.80103	 24.20	
 16.988	-145.161	  8.88790	  0.18146	  8.56007	  1.23296	  7.16691	 -0.49058	 10.40442	704.84399	 24.10	
 17.014	-139.343	  8.87644	  0.40995	  8.20785	  0.86351	  7.63129	 -0.47381	 10.41460	704.73499	 24.20	
 17.007	-133.546	  8.87065	  0.69675	  7.80464	  0.55121	  8.04566	 -0.46396	 10.40533	704.75702	 24.20	
 17.001	-127.699	  8.86551	  1.01763	  7.36468	  0.26608	  8.43600	 -0.45286	 10.41112	704.83197	 24.20	
 17.006	-121.937	  8.84485	  1.37047	  6.88066	  0.01255	  8.76370	 -0.44827	 10.39697	704.85199	 24.20	
 17.002	-116.134	  8.83341	  1.76152	  6.38006	 -0.19351	  9.05133	 -0.45258	 10.40032	704.84998	 24.20	
 17.001	-110.310	  8.84139	  2.19379	  5.86948	 -0.36160	  9.29946	 -0.45278	 10.41624	704.93402	 24.10	
 16.988	-104.517	  8.84097	  2.65456	  5.34161	 -0.47536	  9.47170	 -0.44741	 10.41347	704.86700	 24.10	
 17.008	-98.662	  8.81428	  3.13190	  4.78843	 -0.56267	  9.57284	 -0.43374	 10.38918	704.85602	 24.10	
 16.996	-92.909	  8.83498	  3.63884	  4.27346	 -0.60539	  9.65923	 -0.41581	 10.42300	704.96503	 24.10	
 16.996	-87.091	  8.82189	  4.15869	  3.73729	 -0.61507	  9.65637	 -0.40096	 10.41407	705.05200	 24.10	
 17.012	-81.253	  8.79653	  4.67953	  3.20702	 -0.59195	  9.58988	 -0.37674	 10.39022	704.88702	 24.20	
 16.988	-75.483	  8.81006	  5.21816	  2.72867	 -0.51591	  9.49257	 -0.37187	 10.40656	704.82898	 24.10	
 17.001	-69.690	  8.81973	  5.77539	  2.25189	 -0.41874	  9.34843	 -0.35944	 10.42483	704.84399	 24.10	
 17.002	-63.866	  8.80702	  6.29548	  1.80632	 -0.26521	  9.10886	 -0.37131	 10.40966	704.80402	 24.20	
 17.006	-58.063	  8.79502	  6.79071	  1.39382	 -0.07248	  8.81571	 -0.37548	 10.39392	704.96002	 24.20	
 17.001	-52.301	  8.80672	  7.27742	  1.02629	  0.15537	  8.50014	 -0.37295	 10.40362	704.87500	 24.10	
 17.007	-46.454	  8.80598	  7.72947	  0.68319	  0.42655	  8.12010	 -0.37865	 10.40302	705.03900	 24.20	
 17.014	-40.657	  8.80602	  8.13913	  0.37762	  0.72048	  7.71352	 -0.37593	 10.41055	705.04102	 24.20	
 16.988	-34.839	  8.82144	  8.51374	  0.12485	  1.07573	  7.26329	 -0.37418	 10.41832	704.89398	 24.10	
 16.995	-29.081	  8.82355	  8.83460	 -0.09265	  1.46080	  6.77979	 -0.36865	 10.41496	705.00201	 24.20	
 16.990	-23.241	  8.80230	  9.08156	 -0.27630	  1.87502	  6.25441	 -0.36481	 10.39058	704.85999	 24.20	
 17.000	-17.404	  8.81671	  9.30855	 -0.42358	  2.32002	  5.74359	 -0.36833	 10.40322	704.87701	 24.20	
 17.009	-11.617	  8.81779	  9.46462	 -0.52899	  2.80022	  5.20707	 -0.37208	 10.40114	704.86700	 24.20	
 16.990	 -5.821	  8.82371	  9.55941	 -0.58831	  3.29848	  4.67900	 -0.37687	 10.39498	704.81598	 24.20	
 17.000	  0.000	  8.83590	  9.61621	 -0.62145	  3.81462	  4.15545	 -0.37579	 10.40692	704.84198	 24.20	
 16.990	  5.821	  8.84128	  9.60354	 -0.60714	  4.34790	  3.63065	 -0.39148	 10.40312	704.86298	 24.20	
 17.009	 11.617	  8.83274	  9.52660	 -0.56037	  4.86690	  3.12937	 -0.40680	 10.39058	704.81097	 24.20	
 17.000	 17.404	  8.86555	  9.42651	 -0.46570	  5.41195	  2.66209	 -0.42044	 10.41241	704.84399	 24.20	
 16.990	 23.241	  8.87699	  9.24199	 -0.33570	  5.94748	  2.19975	 -0.43113	 10.41721	704.87799	 24.20	
 16.995	 29.081	  8.87499	  8.98836	 -0.15818	  6.45648	  1.77220	 -0.45499	 10.39938	704.86700	 24.20	
 16.988	 34.839	  8.89076	  8.70674	  0.05022	  6.94894	  1.39064	 -0.47527	 10.40286	704.90100	 24.20	
 17.014	 40.657	  8.88789	  8.35795	  0.29517	  7.41653	  1.02128	 -0.49551	 10.39441	704.97699	 24.20	
 17.007	 46.454	  8.89873	  7.96986	  0.58831	  7.85207	  0.70762	 -0.50838	 10.39283	705.05798	 24.20	
 17.001	 52.301	  8.92421	  7.55383	  0.92294	  8.25908	  0.43003	 -0.50922	 10.40695	704.91803	 24.20	
 17.006	 58.063	  8.92053	  7.08165	  1.28843	  8.59207	  0.19625	 -0.51574	 10.39413	704.93903	 24.20	
 17.002	 63.866	  8.93676	  6.59880	  1.68763	  8.90065	 -0.00708	 -0.51969	 10.40240	704.90900	 24.20	
 17.001	 69.690	  8.93155	  6.08109	  2.12178	  9.13474	 -0.16505	 -0.52910	 10.38760	704.79700	 24.20	
 16.988	 75.483	  8.94134	  5.54993	  2.59083	  9.31948	 -0.28450	 -0.53976	 10.38802	704.92200	 24.20	
 17.012	 81.253	  8.97224	  5.03992	  3.08137	  9.48046	 -0.37036	 -0.54903	 10.41887	704.87799	 24.20	
 16.996	 87.091	  8.95529	  4.49123	  3.59397	  9.51857	 -0.40056	 -0.53991	 10.38122	704.92603	 24.20	
 16.996	 92.909	  8.96264	  3.96139	  4.12414	  9.53270	 -0.40474	 -0.53207	 10.38373	704.90100	 24.20	
 17.008	 98.662	  8.97090	  3.45607	  4.65645	  9.49609	 -0.37772	 -0.52474	 10.39278	704.80499	 24.20	
 16.988	104.517	  8.99328	  2.96733	  5.21060	  9.39778	 -0.29110	 -0.51443	 10.40193	704.83502	 24.20	
 17.001	110.310	  8.97994	  2.48579	  5.73935	  9.22230	 -0.18579	 -0.50978	 10.38129	704.89203	 24.20	
 17.002	116.134	  8.99337	  2.04671	  6.27140	  9.00976	 -0.03010	 -0.50634	 10.39250	704.89099	 24.20	
 17.006	121.937	  8.98798	  1.63187	  6.77419	  8.72985	  0.15747	 -0.50251	 10.38441	704.96503	 24.20	
 17.001	127.699	  8.99325	  1.25131	  7.25925	  8.40524	  0.38610	 -0.49532	 10.38734	704.86102	 24.20	
 17.007	133.546	  9.00462	  0.90811	  7.72249	  8.04441	  0.65279	 -0.49141	 10.40664	704.82898	 24.20	
 17.014	139.343	  8.99156	  0.60265	  8.12383	  7.61891	  0.95651	 -0.47522	 10.38611	704.77698	 24.20	
 16.988	145.161	  9.01148	  0.34784	  8.50551	  7.17360	  1.31582	 -0.47285	 10.40681	704.80701	 24.20	
 16.995	150.919	  9.01543	  0.12155	  8.83327	  6.69959	  1.69175	 -0.46673	 10.41774	704.78400	 24.20	
 16.990	156.759	  8.99264	 -0.06911	  9.08647	  6.17733	  2.10616	 -0.46766	 10.40165	704.81897	 24.20	
 17.000	162.596	  9.01144	 -0.22393	  9.33078	  5.66026	  2.56464	 -0.48051	 10.43865	704.77301	 24.20	
 17.009	168.383	  8.97622	 -0.33689	  9.45777	  5.10581	  3.03066	 -0.49359	 10.40809	704.75897	 24.20	
 16.990	174.179	  8.98860	 -0.40227	  9.56628	  4.58448	  3.53680	 -0.50322	 10.42832	704.95300	 24.20	
 18.709	174.675	  8.64707	 -0.98838	  9.81853	  4.31874	  3.25608	 -0.53036	 10.43583	704.91699	 24.20	
 18.703	169.441	  8.64320	 -0.92261	  9.71990	  4.83361	  2.76832	 -0.52562	 10.41872	704.85303	 24.20	
 18.691	164.085	  8.66570	 -0.81641	  9.58634	  5.38276	  2.29498	 -0.52099	 10.42854	704.96503	 24.20	
 18.706	158.818	  8.65726	 -0.69475	  9.38701	  5.90752	  1.83405	 -0.51745	 10.41407	704.78497	 24.20	
 18.695	153.537	  8.67233	 -0.52513	  9.14861	  6.41899	  1.43038	 -0.51138	 10.42005	704.98999	 24.20	
 18.704	148.255	  8.68553	 -0.32649	  8.86474	  6.92274	  1.04436	 -0.51259	 10.42596	704.92297	 24.20	
 18.698	142.952	  8.68813	 -0.08977	  8.51717	  7.40102	  0.68150	 -0.51215	 10.42683	704.84601	 24.20	
 18.699	137.625	  8.67671	  0.17623	  8.11768	  7.83774	  0.35476	 -0.51401	 10.40554	704.91400	 24.20	
 18.705	132.343	  8.68031	  0.47483	  7.70194	  8.24391	  0.06466	 -0.51308	 10.41395	705.02399	 24.20	
 18.713	127.067	  8.66611	  0.81105	  7.23679	  8.60183	 -0.18729	 -0.50964	 10.39951	704.92297	 24.20	
 18.700	121.794	  8.68233	  1.18643	  6.76221	  8.94353	 -0.40684	 -0.50496	 10.42300	704.96301	 24.20	
 18.698	116.504	  8.65479	  1.58401	  6.23699	  9.19424	 -0.58957	 -0.50053	 10.39526	704.95001	 24.20	
 18.707	111.165	  8.65623	  2.02133	  5.71227	  9.42566	 -0.73750	 -0.49019	 10.39905	704.94598	 24.20	
 18.690	105.863	  8.65579	  2.48278	  5.18312	  9.59548	 -0.84403	 -0.48234	 10.40478	705.06299	 24.20	
 18.696	100.583	  8.66869	  2.96524	  4.65812	  9.73124	 -0.92375	 -0.48833	 10.42365	704.96802	 24.20	
 18.700	 95.309	  8.65880	  3.46225	  4.12310	  9.79076	 -0.96899	 -0.49865	 10.41877	705.02100	 24.20	
 18.700	 90.000	  8.65002	  3.98276	  3.59237	  9.80020	 -0.97828	 -0.50842	 10.41755	704.89203	 24.20	
 18.700	 84.691	  8.64443	  4.51093	  3.07613	  9.76301	 -0.96045	 -0.52836	 10.42224	704.94202	 24.20	
 18.696	 79.417	  8.61850	  5.02521	  2.57522	  9.64775	 -0.89978	 -0.54362	 10.39813	704.93103	 24.20	
 18.690	 74.137	  8.63895	  5.56731	  2.10778	  9.53907	 -0.82369	 -0.55261	 10.43374	704.92200	 24.20	
 18.707	 68.835	  8.62443	  6.08664	  1.64760	  9.34419	 -0.70935	 -0.55484	 10.43471	704.91101	 24.20	
 18.698	 63.496	  8.60188	  6.58802	  1.21838	  9.07709	 -0.55438	 -0.55734	 10.41430	704.91699	 24.20	
 18.700	 58.206	  8.61559	  7.09218	  0.83227	  8.80361	 -0.36659	 -0.55617	 10.44387	705.01001	 24.20	
 18.713	 52.933	  8.59550	  7.55325	  0.46353	  8.44636	 -0.14385	 -0.53584	 10.43014	704.91699	 24.30	
 18.705	 47.657	  8.59323	  7.99229	  0.14372	  8.05797	  0.12705	 -0.52227	 10.43520	704.96802	 24.20	
 18.699	 42.375	  8.57595	  8.37952	 -0.14345	  7.63113	  0.42280	 -0.50717	 10.42691	704.97400	 24.30	
 18.698	 37.048	  8.57569	  8.75041	 -0.39856	  7.17756	  0.76036	 -0.48480	 10.43678	704.85498	 24.30	
 18.704	 31.745	  8.56309	  9.06472	 -0.62116	  6.68441	  1.13011	 -0.45709	 10.43880	705.03302	 24.30	
 18.695	 26.463	  8.55711	  9.33186	 -0.80069	  6.18312	  1.53090	 -0.43517	 10.44096	704.95398	 24.30	
 18.706	 21.182	  8.52359	  9.52499	 -0.94982	  5.65291	  1.94215	 -0.40814	 10.41803	705.01801	 24.30	
 18.691	 15.915	  8.51620	  9.68028	 -1.05486	  5.12555	  2.40360	 -0.39516	 10.41842	705.04102	 24.30	
 18.703	 10.559	  8.52847	  9.82399	 -1.14606	  4.59784	  2.88908	 -0.37521	 10.44959	704.90002	 24.30	
 18.709	  5.325	  8.50479	  9.86243	 -1.18695	  4.07212	  3.37194	 -0.36915	 10.42651	704.98199	 24.30	
 18.700	  0.000	  8.51299	  9.87946	 -1.19437	  3.54740	  3.90296	 -0.37848	 10.43726	704.84998	 24.30	
 18.709	 -5.325	  8.49104	  9.82549	 -1.17257	  3.02873	  4.41786	 -0.36643	 10.42776	704.96503	 24.30	
 18.703	-10.559	  8.49884	  9.74695	 -1.11738	  2.54666	  4.94648	 -0.35725	 10.44163	704.94598	 24.30	
 18.691	-15.915	  8.49470	  9.59723	 -1.02013	  2.06643	  5.48827	 -0.36630	 10.43923	704.98102	 24.30	
 18.706	-21.182	  8.50475	  9.42190	 -0.89981	  1.62565	  6.01013	 -0.36520	 10.45528	704.99298	 24.30	
 18.695	-26.463	  8.49692	  9.17110	 -0.73997	  1.20457	  6.51754	 -0.36235	 10.45051	704.96198	 24.30	
 18.704	-31.745	  8.49817	  8.88500	 -0.54773	  0.80958	  7.02294	 -0.36219	 10.46004	704.95300	 24.30	
 18.698	-37.048	  8.49112	  8.53443	 -0.31558	  0.45282	  7.49166	 -0.36460	 10.45268	705.01001	 24.30	
 18.699	-42.375	  8.49884	  8.15666	 -0.04801	  0.13686	  7.93891	 -0.37367	 10.46016	704.93201	 24.30	
 18.705	-47.657	  8.47873	  7.71932	  0.24794	 -0.15800	  8.32986	 -0.36321	 10.43899	704.75098	 24.30	
 18.713	-52.933	  8.48391	  7.26948	  0.57786	 -0.41457	  8.70775	 -0.36465	 10.44961	705.03601	 24.30	
 18.700	-58.206	  8.46853	  6.77314	  0.94742	 -0.62397	  9.01106	 -0.35290	 10.42429	705.04700	 24.30	
 18.698	-63.496	  8.50553	  6.29543	  1.35290	 -0.80439	  9.32265	 -0.35123	 10.47043	704.94202	 24.30	
 18.707	-68.835	  8.50049	  5.76862	  1.78331	 -0.95075	  9.54254	 -0.35039	 10.46305	704.95697	 24.30	
 18.690	-74.137	  8.49373	  5.22453	  2.25210	 -1.05622	  9.70893	 -0.34424	 10.45392	704.95599	 24.30	
 18.696	-79.417	  8.49545	  4.69075	  2.72915	 -1.14036	  9.83648	 -0.35444	 10.45787	704.86902	 24.30	
 18.700	-84.691	  8.49387	  4.14280	  3.22969	 -1.18485	  9.90703	 -0.35325	 10.45179	704.95001	 24.30	
 18.700	-90.000	  8.50219	  3.61879	  3.75010	 -1.19318	  9.92806	 -0.37167	 10.45766	705.05499	 24.30	
 18.700	-95.309	  8.50220	  3.10347	  4.27901	 -1.16939	  9.89363	 -0.38574	 10.44985	705.12201	 24.30	
 18.696	-100.583	  8.50594	  2.61947	  4.81079	 -1.11183	  9.80786	 -0.40526	 10.44906	704.99402	 24.30	
 18.690	-105.863	  8.52745	  2.16059	  5.35485	 -1.01911	  9.69145	 -0.42819	 10.46506	704.92902	 24.30	
 18.707	-111.165	  8.53897	  1.71517	  5.88810	 -0.89833	  9.51600	 -0.45076	 10.47924	704.95697	 24.30	
 18.698	-116.504	  8.54778	  1.29746	  6.41105	 -0.73603	  9.27516	 -0.46960	 10.47827	705.07202	 24.30	
 18.700	-121.794	  8.53288	  0.91148	  6.89487	 -0.54208	  8.96977	 -0.47526	 10.45236	704.91803	 24.30	
 18.713	-127.067	  8.56020	  0.55799	  7.39063	 -0.30959	  8.65661	 -0.48659	 10.48214	705.07800	 24.30	
 18.705	-132.343	  8.57615	  0.24494	  7.83789	 -0.03005	  8.27657	 -0.49480	 10.47913	705.05798	 24.30	
 18.699	-137.625	  8.58697	 -0.02821	  8.25080	  0.27620	  7.85626	 -0.50516	 10.47750	704.98102	 24.30	
 18.698	-142.952	  8.57824	 -0.27957	  8.60950	  0.61288	  7.39128	 -0.51500	 10.45789	705.05701	 24.30	
 18.704	-148.255	  8.59913	 -0.49205	  8.95398	  0.98440	  6.92330	 -0.51907	 10.47320	704.96198	 24.30	
 18.695	-153.537	  8.61279	 -0.66374	  9.24040	  1.39572	  6.41911	 -0.51346	 10.47527	704.97302	 24.30	
 18.706	-158.818	  8.62514	 -0.81017	  9.47753	  1.82417	  5.90454	 -0.52086	 10.47988	704.93701	 24.30	
 18.691	-164.085	  8.64232	 -0.91261	  9.66237	  2.28166	  5.38529	 -0.51823	 10.48291	704.92297	 24.30	
 18.703	-169.441	  8.64683	 -0.98918	  9.78952	  2.77575	  4.83464	 -0.52509	 10.47951	704.95300	 24.30	
 18.709	-174.675	  8.65331	 -1.01906	  9.85615	  3.27357	  4.30978	 -0.53666	 10.46870	704.92499	 24.30	
 18.700	180.000	  8.67759	 -1.02440	  9.89372	  3.79731	  3.79192	 -0.53596	 10.48734	704.98102	 24.30	
 20.400	180.000	  8.30132	 -1.59466	 10.09894	  3.51365	  3.48471	 -0.50968	 10.49182	705.12299	 24.30	
 20.401	-175.153	  8.28788	 -1.60353	 10.08179	  3.00334	  3.99598	 -0.51109	 10.49160	705.11401	 24.30	
 20.407	-170.264	  8.24960	 -1.57228	  9.98283	  2.48982	  4.50181	 -0.50203	 10.45923	705.09497	 24.30	
 20.410	-165.423	  8.25024	 -1.51353	  9.88355	  2.00858	  5.04687	 -0.50076	 10.47994	705.07202	 24.30	
 20.392	-160.496	  8.25502	 -1.41473	  9.72855	  1.55828	  5.57827	 -0.49415	 10.49121	705.04999	 24.30	
 20.401	-155.705	  8.23122	 -1.29640	  9.50795	  1.12644	  6.08105	 -0.49552	 10.47619	705.09998	 24.30	
 20.405	-150.835	  8.21447	 -1.14923	  9.24275	  0.70900	  6.59372	 -0.50688	 10.47374	705.18201	 24.30	
 20.397	-145.903	  8.23642	 -0.96276	  8.96647	  0.33406	  7.11292	 -0.51310	 10.51061	705.18402	 24.30	
 20.392	-141.062	  8.20571	 -0.74781	  8.59815	 -0.01212	  7.55936	 -0.50672	 10.48416	705.09698	 24.30	
 20.396	-136.227	  8.20575	 -0.49924	  8.22194	 -0.33026	  8.01410	 -0.51091	 10.49538	705.15399	 24.30	
 20.408	-131.372	  8.17198	 -0.22421	  7.78011	 -0.62474	  8.40827	 -0.50843	 10.47243	705.14301	 24.30	
 20.410	-126.511	  8.17741	  0.09008	  7.34238	 -0.87957	  8.79463	 -0.48784	 10.48800	705.01300	 24.30	
 20.400	-121.604	  8.15147	  0.43720	  6.84278	 -1.09356	  9.10279	 -0.47415	 10.46371	705.02698	 24.30	
 20.403	-116.741	  8.16528	  0.80827	  6.35925	 -1.29011	  9.41698	 -0.44986	 10.49077	704.99597	 24.30	
 20.413	-111.900	  8.14484	  1.20125	  5.83895	 -1.45069	  9.64964	 -0.43532	 10.48153	705.08600	 24.30	
 20.398	-107.004	  8.14373	  1.63125	  5.31238	 -1.57683	  9.84804	 -0.40242	 10.48263	705.05200	 24.30	
 20.394	-102.132	  8.13319	  2.08478	  4.77268	 -1.67669	  9.98822	 -0.37900	 10.47983	705.04303	 24.30	
 20.403	-97.332	  8.14686	  2.55744	  4.26191	 -1.75099	 10.11173	 -0.36241	 10.50802	705.08801	 24.30	
 20.392	-92.440	  8.11784	  3.04477	  3.72078	 -1.77798	 10.12914	 -0.35363	 10.47305	705.08801	 24.30	
 20.392	-87.560	  8.12313	  3.57866	  3.19932	 -1.78730	 10.14676	 -0.33597	 10.48758	705.05701	 24.30	
 20.403	-82.668	  8.10120	  4.09446	  2.68178	 -1.77229	 10.09119	 -0.33340	 10.47183	705.02899	 24.30	
 20.394	-77.868	  8.11037	  4.62162	  2.20725	 -1.71838	 10.01629	 -0.32955	 10.47940	705.03601	 24.30	
 20.398	-72.996	  8.10941	  5.16021	  1.73280	 -1.63379	  9.88150	 -0.32081	 10.47836	705.12299	 24.30	
 20.413	-68.100	  8.10330	  5.68998	  1.28217	 -1.52214	  9.69184	 -0.32301	 10.47019	705.04303	 24.30	
 20.403	-63.259	  8.11130	  6.20940	  0.87209	 -1.36973	  9.46248	 -0.31849	 10.47359	705.19897	 24.30	
 20.400	-58.396	  8.12376	  6.72801	  0.48484	 -1.19581	  9.19834	 -0.33020	 10.48883	704.95398	 24.30	
 20.410	-53.489	  8.10822	  7.20425	  0.11478	 -0.99695	  8.86477	 -0.34027	 10.47785	704.94202	 24.30	
 20.408	-48.628	  8.10567	  7.66387	 -0.21351	 -0.76114	  8.50701	 -0.33987	 10.47496	705.16998	 24.30	
 20.396	-43.773	  8.12157	  8.10710	 -0.50811	 -0.48304	  8.11542	 -0.34157	 10.49043	705.07800	 24.30	
 20.392	-38.938	  8.10434	  8.48705	 -0.77009	 -0.17499	  7.66256	 -0.34067	 10.46673	705.11102	 24.30	
 20.397	-34.097	  8.11686	  8.85753	 -1.00747	  0.14766	  7.22035	 -0.33914	 10.48188	705.09497	 24.30	
 20.405	-29.165	  8.12913	  9.19186	 -1.21621	  0.51443	  6.73756	 -0.34623	 10.49292	705.02899	 24.40	
 20.401	-24.295	  8.13806	  9.46793	 -1.38200	  0.91921	  6.23272	 -0.35029	 10.49656	705.10797	 24.40	
 20.392	-19.504	  8.15541	  9.70237	 -1.51733	  1.34466	  5.73033	 -0.35036	 10.50723	705.11102	 24.40	
 20.410	-14.577	  8.14446	  9.86901	 -1.63115	  1.78913	  5.19610	 -0.34468	 10.49664	705.13599	 24.40	
 20.407	 -9.736	  8.16861	 10.02363	 -1.71595	  2.26221	  4.67669	 -0.34076	 10.51823	705.00403	 24.40	
 20.401	 -4.847	  8.16103	 10.09481	 -1.76328	  2.75046	  4.14280	 -0.33947	 10.50299	705.01801	 24.40	
 20.400	  0.000	  8.15255	 10.11661	 -1.78154	  3.24898	  3.61647	 -0.33533	 10.48400	705.10797	 24.40	
 20.401	  4.847	  8.16509	 10.12220	 -1.77731	  3.76641	  3.11269	 -0.34230	 10.49473	705.00403	 24.40	
 20.407	  9.736	  8.16804	 10.06982	 -1.74035	  4.29075	  2.61841	 -0.34706	 10.48961	705.04700	 24.40	
 20.410	 14.577	  8.17789	  9.97382	 -1.66954	  4.81999	  2.14695	 -0.35638	 10.49163	705.17401	 24.40	
 20.392	 19.504	  8.20654	  9.84102	 -1.56310	  5.37394	  1.69229	 -0.37935	 10.50725	705.03198	 24.40	
 20.401	 24.295	  8.20995	  9.64383	 -1.44109	  5.87993	  1.26670	 -0.38712	 10.50010	704.90002	 24.40	
 20.405	 29.165	  8.22170	  9.40507	 -1.27804	  6.39930	  0.85768	 -0.41115	 10.50511	705.12000	 24.40	
 20.397	 34.097	  8.23425	  9.11427	 -1.08796	  6.91209	  0.47519	 -0.43974	 10.50660	705.02899	 24.40	
 20.392	 38.938	  8.24595	  8.78339	 -0.86117	  7.38519	  0.13826	 -0.47137	 10.50226	705.05499	 24.40	
 20.396	 43.773	  8.27606	  8.43198	 -0.60367	  7.84992	 -0.17157	 -0.49565	 10.52445	704.99597	 24.40	
 20.408	 48.628	  8.27498	  8.01824	 -0.31986	  8.26733	 -0.46032	 -0.52365	 10.51812	704.97101	 24.40	
 20.410	 53.489	  8.26634	  7.56275	 -0.00187	  8.64126	 -0.71564	 -0.53697	 10.49931	705.06598	 24.40	
 20.400	 58.396	  8.27591	  7.08610	  0.35758	  8.98869	 -0.93428	 -0.55640	 10.49904	705.11200	 24.40	
 20.403	 63.259	  8.29088	  6.59914	  0.73728	  9.29560	 -1.12108	 -0.55753	 10.50786	705.13702	 24.40	
 20.413	 68.100	  8.29350	  6.09172	  1.14506	  9.54170	 -1.26778	 -0.55348	 10.50086	705.20502	 24.40	
 20.398	 72.996	  8.30383	  5.56967	  1.58607	  9.74785	 -1.38884	 -0.54287	 10.50184	705.22400	 24.40	
 20.394	 77.868	  8.30697	  5.03539	  2.05365	  9.89692	 -1.47440	 -0.52590	 10.49129	705.16803	 24.40	
 20.403	 82.668	  8.33291	  4.52032	  2.54055	 10.02579	 -1.53993	 -0.50278	 10.51383	705.02698	 24.40	
 20.392	 87.560	  8.34276	  3.99598	  3.05291	 10.08263	 -1.56379	 -0.47322	 10.51118	705.10797	 24.40	
 20.392	 92.440	  8.35350	  3.47502	  3.57781	 10.10042	 -1.56810	 -0.45045	 10.51457	705.28802	 24.40	
 20.403	 97.332	  8.35173	  2.95989	  4.10677	 10.05805	 -1.54291	 -0.44622	 10.50291	705.20697	 24.40	
 20.394	102.132	  8.36010	  2.47678	  4.63584	  9.97561	 -1.48706	 -0.44425	 10.50277	705.23297	 24.40	
 20.398	107.004	  8.37294	  2.00971	  5.18416	  9.85423	 -1.40451	 -0.45099	 10.51395	705.13702	 24.40	
 20.413	111.900	  8.38809	  1.55922	  5.72898	  9.69158	 -1.29531	 -0.45994	 10.52918	705.14502	 24.40	
 20.403	116.741	  8.37929	  1.13862	  6.23889	  9.45014	 -1.14859	 -0.46857	 10.51369	705.03900	 24.40	
 20.400	121.604	  8.38111	  0.73856	  6.75053	  9.17541	 -0.97444	 -0.48854	 10.51111	705.08801	 24.40	
 20.410	126.511	  8.36823	  0.36747	  7.23305	  8.83661	 -0.76804	 -0.49615	 10.49266	705.16998	 24.40	
 20.408	131.372	  8.37893	  0.03299	  7.70478	  8.47636	 -0.52817	 -0.50868	 10.49899	705.16803	 24.40	
 20.396	136.227	  8.39596	 -0.26294	  8.15150	  8.08162	 -0.24762	 -0.51376	 10.51534	705.16699	 24.40	
 20.392	141.062	  8.38614	 -0.52775	  8.53924	  7.64548	  0.05383	 -0.52524	 10.50538	705.11401	 24.40	
 20.397	145.903	  8.38011	 -0.77349	  8.89931	  7.18114	  0.38277	 -0.52947	 10.51133	705.15698	 24.40	
 20.405	150.835	  8.37948	 -0.98832	  9.22919	  6.68465	  0.75274	 -0.53212	 10.51483	705.16199	 24.40	
 20.401	155.705	  8.39075	 -1.16611	  9.51904	  6.18388	  1.15575	 -0.53242	 10.53551	705.24597	 24.40	
 20.392	160.496	  8.37141	 -1.30977	  9.72344	  5.66602	  1.56212	 -0.52900	 10.52500	705.15100	 24.40	
 20.410	165.423	  8.35248	 -1.43346	  9.89522	  5.11574	  2.01960	 -0.53163	 10.51198	705.28601	 24.40	
 20.407	170.264	  8.34836	 -1.51956	 10.02804	  4.58526	  2.49447	 -0.52476	 10.52317	705.13599	 24.40	
 20.401	175.153	  8.33724	 -1.57308	 10.09963	  4.05359	  2.98344	 -0.53007	 10.51768	705.08600	 24.40	
  0.141	 45.000	 10.53238	  5.58641	  5.40753	  5.43864	  5.58108	  0.08815	 10.51275	705.20398	 24.40	
  4.001	128.691	 10.52422	  4.72994	  6.12643	  6.33069	  4.56731	  0.04821	 10.52863	705.08099	 24.40	
  4.002	 76.995	 10.51734	  5.77744	  5.02673	  6.55792	  4.36846	  0.03608	 10.52897	705.30200	 24.40	
  4.002	 25.892	 10.51359	  6.64259	  4.24515	  5.84282	  4.98271	  0.03307	 10.53974	705.22601	 24.40	
  4.002	-25.892	 10.49035	  6.59522	  4.24129	  4.74045	  6.06983	  0.03679	 10.52453	705.26300	 24.40	
  4.002	-76.995	 10.48940	  5.69409	  5.05026	  4.12671	  6.77431	  0.01953	 10.51728	705.25500	 24.40	
  4.001	-128.691	 10.48669	  4.65483	  6.14101	  4.36574	  6.49490	  0.02715	 10.50279	705.28601	 24.40	
  4.000	180.000	 10.49842	  4.26019	  6.63876	  5.31227	  5.48964	  0.04918	 10.51380	705.21802	 24.40	
  8.000	180.000	 10.28378	  2.83210	  7.77054	  5.10302	  5.23135	 -0.09101	 10.50863	705.21802	 24.40	
  7.991	-152.370	 10.28302	  3.04978	  7.47516	  3.95130	  6.44301	 -0.10411	 10.52077	705.29999	 24.40	
  7.997	-124.550	 10.27066	  3.75323	  6.60832	  3.08114	  7.42980	 -0.12653	 10.52563	705.18103	 24.40	
  8.006	-96.837	 10.26243	  4.82803	  5.42304	  2.67395	  7.91215	 -0.15701	 10.53010	705.25201	 24.40	
  7.988	-69.228	 10.23478	  6.04169	  4.21124	  2.78120	  7.74669	 -0.15235	 10.51137	705.31598	 24.40	
  7.997	-41.563	 10.24372	  7.12693	  3.25959	  3.37908	  7.03138	 -0.12787	 10.52849	705.28601	 24.40	
  8.008	-13.821	 10.25384	  7.78247	  2.73158	  4.40419	  5.89373	 -0.10656	 10.53277	705.18799	 24.40	
  8.008	 13.821	 10.25841	  7.81456	  2.71348	  5.62694	  4.66522	 -0.12376	 10.52661	705.06598	 24.40	
  7.997	 41.563	 10.29119	  7.24501	  3.22387	  6.77623	  3.65749	 -0.12956	 10.53286	705.23798	 24.40	
  7.988	 69.228	 10.29479	  6.19616	  4.15986	  7.53461	  3.03550	 -0.12439	 10.51377	705.22101	 24.40	
  8.006	 96.837	 10.33198	  4.99106	  5.36672	  7.74449	  2.90582	 -0.13158	 10.53290	705.32501	 24.40	
  7.997	124.550	 10.32107	  3.89204	  6.55239	  7.28614	  3.27367	 -0.09828	 10.51664	705.28003	 24.40	
  7.991	152.370	 10.31090	  3.12840	  7.44202	  6.31984	  4.09639	 -0.06820	 10.51364	705.14301	 24.40	
 12.009	161.059	  9.91324	  1.55631	  8.52801	  6.01456	  3.63822	 -0.25799	 10.54208	705.18103	 24.40	
 12.013	142.081	  9.91607	  2.08997	  7.84551	  7.19600	  2.61409	 -0.26917	 10.53256	705.13599	 24.40	
 12.006	123.113	  9.93273	  2.93639	  6.83339	  8.10506	  1.89902	 -0.32119	 10.54278	705.28497	 24.40	
 12.007	104.200	  9.93050	  4.02458	  5.60665	  8.63695	  1.48955	 -0.36697	 10.55110	705.31097	 24.50	
 11.989	 85.301	  9.90337	  5.25633	  4.32566	  8.69817	  1.42093	 -0.36999	 10.52728	705.27197	 24.50	
 12.013	 66.294	  9.87788	  6.50024	  3.14177	  8.32372	  1.67295	 -0.33498	 10.52715	705.33301	 24.50	
 12.012	 47.388	  9.85957	  7.59650	  2.18978	  7.54492	  2.26788	 -0.33649	 10.52966	705.13898	 24.50	
 11.990	 28.440	  9.82430	  8.37854	  1.53111	  6.46660	  3.13916	 -0.34396	 10.52314	705.23297	 24.50	
 11.991	  9.464	  9.81237	  8.78926	  1.19971	  5.22432	  4.26519	 -0.32885	 10.53575	705.22601	 24.50	
 11.991	 -9.464	  9.79591	  8.74675	  1.21917	  3.96455	  5.52089	 -0.29304	 10.52958	705.27698	 24.50	
 11.990	-28.440	  9.79652	  8.27777	  1.57925	  2.84592	  6.76333	 -0.28366	 10.54273	705.13098	 24.50	
 12.012	-47.388	  9.77477	  7.40633	  2.24946	  1.96579	  7.80400	 -0.32752	 10.52530	705.34802	 24.50	
 12.013	-66.294	  9.77645	  6.26570	  3.21973	  1.39681	  8.54269	 -0.35478	 10.52714	705.24902	 24.50	
 11.989	-85.301	  9.77385	  4.99908	  4.40249	  1.17593	  8.84461	 -0.36515	 10.51275	705.21503	 24.50	
 12.007	-104.200	  9.81145	  3.78143	  5.68635	  1.27464	  8.74908	 -0.35854	 10.54112	705.25702	 24.50	
 12.006	-123.113	  9.82623	  2.72466	  6.90301	  1.71575	  8.19002	 -0.31263	 10.53887	705.19000	 24.50	
 12.013	-142.081	  9.84775	  1.94768	  7.90260	  2.48966	  7.26093	 -0.29736	 10.53803	705.12598	 24.50	
 12.009	-161.059	  9.87023	  1.48127	  8.55280	  3.53216	  6.08787	 -0.30232	 10.54161	705.19800	 24.60	
 16.000	180.000	  9.25028	 -0.10113	  9.53474	  4.22658	  4.25158	 -0.48758	 10.53501	705.15698	 24.60	
 15.990	-165.604	  9.22720	 -0.01658	  9.37313	  3.01590	  5.51476	 -0.49252	 10.53205	705.31598	 24.60	
 16.002	-151.165	  9.19531	  0.30196	  8.86270	  1.92714	  6.75027	 -0.47690	 10.52741	705.15698	 24.60	
 16.002	-136.836	  9.18577	  0.84889	  8.06571	  1.02663	  7.87100	 -0.44945	 10.54102	705.31897	 24.60	
 15.995	-122.439	  9.15528	  1.63636	  6.99973	  0.36254	  8.74038	 -0.43989	 10.52893	705.25702	 24.60	
 15.993	-107.966	  9.13236	  2.63502	  5.77614	 -0.08125	  9.34085	 -0.46302	 10.52745	705.21301	 24.60	
 16.005	-93.629	  9.11799	  3.78332	  4.50856	 -0.28380	  9.61127	 -0.43976	 10.53228	705.15399	 24.60	
 15.992	-79.234	  9.11990	  5.04090	  3.27403	 -0.24453	  9.55213	 -0.40377	 10.54417	705.24402	 24.60	
 16.009	-64.774	  9.10784	  6.30572	  2.14221	  0.02705	  9.13945	 -0.39376	 10.53783	705.30200	 24.60	
 15.997	-50.364	  9.10623	  7.46750	  1.21121	  0.55083	  8.39886	 -0.40606	 10.52987	705.28601	 24.60	
 15.997	-36.045	  9.09918	  8.43265	  0.49399	  1.29635	  7.40609	 -0.38310	 10.51773	705.37799	 24.60	
 16.000	-21.597	  9.11723	  9.13428	  0.00718	  2.25770	  6.24193	 -0.38232	 10.52939	705.25500	 24.60	
 16.003	 -7.169	  9.11951	  9.51091	 -0.25698	  3.39604	  4.97460	 -0.38639	 10.52314	705.35101	 24.60	
 16.003	  7.169	  9.17758	  9.59279	 -0.26693	  4.66915	  3.74813	 -0.40847	 10.56999	705.28302	 24.60	
 16.000	 21.597	  9.17056	  9.26186	 -0.04226	  5.92232	  2.58618	 -0.45470	 10.53646	705.26099	 24.60	
 15.997	 36.045	  9.19371	  8.63896	  0.42467	  7.11797	  1.61250	 -0.49102	 10.53132	705.19598	 24.60	
 15.997	 50.364	  9.22828	  7.74404	  1.11565	  8.16499	  0.82896	 -0.49582	 10.54743	705.23602	 24.60	
 16.009	 64.774	  9.23989	  6.61935	  2.03280	  8.93013	  0.29444	 -0.50240	 10.53568	705.29901	 24.60	
 15.992	 79.234	  9.23889	  5.35926	  3.13903	  9.37183	 -0.00810	 -0.54196	 10.51269	705.24103	 24.60	
 16.005	 93.629	  9.28970	  4.11632	  4.39323	  9.52297	 -0.06703	 -0.54553	 10.55139	705.14203	 24.60	
 15.993	107.966	  9.29922	  2.93743	  5.67214	  9.28159	  0.10724	 -0.52357	 10.54012	705.15997	 24.60	
 15.995	122.439	  9.31305	  1.89797	  6.91494	  8.71790	  0.51451	 -0.49340	 10.53839	705.19098	 24.60	
 16.002	136.836	  9.29597	  1.04987	  7.98282	  7.83974	  1.14101	 -0.45837	 10.52522	705.24402	 24.60	
 16.002	151.165	  9.31455	  0.44007	  8.83939	  6.76809	  2.00075	 -0.43483	 10.55083	705.20099	 24.60	
 15.990	165.604	  9.27328	  0.03969	  9.35247	  5.49979	  3.05203	 -0.45614	 10.53043	705.22998	 24.60	
 20.003	168.362	  8.46950	 -1.35845	  9.97001	  4.85573	  2.40440	 -0.53284	 10.55161	705.30603	 24.60	
 20.008	156.764	  8.48056	 -1.08203	  9.54260	  6.10455	  1.33833	 -0.53770	 10.54448	705.23297	 24.60	
 20.000	145.147	  8.49915	 -0.61996	  8.85332	  7.28892	  0.44002	 -0.53330	 10.54768	705.37000	 24.60	
 19.995	133.545	  8.51726	  0.01314	  7.93992	  8.32692	 -0.27953	 -0.51621	 10.55864	705.31097	 24.60	
 20.009	121.926	  8.48992	  0.81571	  6.81389	  9.15261	 -0.85077	 -0.49313	 10.53862	705.26898	 24.60	
 20.005	110.327	  8.50111	  1.79693	  5.61127	  9.73846	 -1.20766	 -0.47272	 10.55817	705.28601	 24.60	
 19.989	 98.733	  8.49521	  2.91842	  4.34510	 10.04653	 -1.39944	 -0.44784	 10.56201	705.21198	 24.60	
 19.999	 87.075	  8.46235	  4.12260	  3.09098	 10.06560	 -1.42968	 -0.49461	 10.54595	705.38501	 24.60	
 19.992	 75.457	  8.45406	  5.36845	  1.94319	  9.83658	 -1.29433	 -0.54679	 10.55289	705.31702	 24.60	
 20.009	 63.844	  8.43067	  6.58656	  0.91178	  9.33351	 -1.00130	 -0.56703	 10.55138	705.32599	 24.60	
 19.989	 52.269	  8.40139	  7.69935	  0.04718	  8.56011	 -0.51761	 -0.54921	 10.54275	705.38800	 24.60	
 19.999	 40.602	  8.36907	  8.65948	 -0.64502	  7.56679	  0.14453	 -0.48699	 10.53070	705.24103	 24.60	
 20.004	 29.051	  8.34931	  9.41216	 -1.15493	  6.43216	  0.98380	 -0.42322	 10.54274	705.42401	 24.60	
 20.005	 17.433	  8.31393	  9.89044	 -1.48415	  5.20035	  1.97773	 -0.38231	 10.53037	705.36200	 24.60	
 20.006	  5.780	  8.28513	 10.10776	 -1.64738	  3.94522	  3.10296	 -0.34430	 10.53027	705.22400	 24.60	
 20.006	 -5.780	  8.29152	 10.08355	 -1.62725	  2.75241	  4.32250	 -0.34092	 10.54292	705.26398	 24.70	
 20.005	-17.433	  8.26682	  9.77118	 -1.44606	  1.62357	  5.56736	 -0.35410	 10.53538	705.35901	 24.60	
 20.004	-29.051	  8.27149	  9.22500	 -1.09357	  0.64022	  6.78571	 -0.35241	 10.55205	705.45801	 24.60	
 19.999	-40.602	  8.24775	  8.39447	 -0.56156	 -0.16683	  7.86326	 -0.34179	 10.52892	705.26898	 24.60	
 19.989	-52.269	  8.25541	  7.37944	  0.15322	 -0.81015	  8.81400	 -0.34094	 10.54329	705.37097	 24.60	
 20.009	-63.844	  8.28323	  6.24101	  1.03569	 -1.26899	  9.54840	 -0.32028	 10.57570	705.41602	 24.60	
 19.992	-75.457	  8.27243	  4.98902	  2.08002	 -1.53935	  9.98103	 -0.32692	 10.55350	705.32300	 24.60	
 19.999	-87.075	  8.26918	  3.73178	  3.24387	 -1.65506	 10.15851	 -0.34244	 10.54447	705.34998	 24.60	
 19.989	-98.733	  8.30456	  2.53259	  4.50523	 -1.59663	 10.10929	 -0.36607	 10.57400	705.21301	 24.60	
 20.005	-110.327	  8.30502	  1.46204	  5.74589	 -1.36965	  9.75660	 -0.42380	 10.56093	705.32599	 24.60	
 20.009	-121.926	  8.31069	  0.53296	  6.94156	 -0.96286	  9.12880	 -0.47837	 10.54366	705.23602	 24.60	
 19.995	-133.545	  8.32438	 -0.22678	  8.01493	 -0.36770	  8.26608	 -0.50932	 10.53222	705.16998	 24.60	
 20.000	-145.147	  8.36849	 -0.80278	  8.93096	  0.39593	  7.23434	 -0.51617	 10.55692	705.30200	 24.60	
 20.008	-156.764	  8.38227	 -1.20392	  9.58831	  1.33260	  6.04044	 -0.50607	 10.54700	705.20898	 24.60	
 20.003	-168.362	  8.40356	 -1.42759	  9.97766	  2.40558	  4.80662	 -0.51077	 10.54191	705.33099	 24.60	
 20.000	180.000	  8.44483	 -1.47316	 10.11746	  3.60580	  3.57706	 -0.52505	 10.55396	705.19598	 24.60	
